timestamp,lsl_timestamp,TP9,AF7,AF8,TP10,Right AUX,keypress_A,keypress_B
1772116577.479775,1772116577.4084158,-879.39453125,-140.13671875,-537.59765625,-684.5703125,0.0,0,0
1772116577.479928,1772116577.412311,-50.78125,-101.5625,134.765625,-962.40234375,0.0,0,0
1772116577.479954,1772116577.4162061,870.1171875,-90.33203125,490.72265625,-233.88671875,0.0,0,0
1772116577.479975,1772116577.4201014,698.73046875,-104.4921875,134.27734375,-872.55859375,0.0,0,0
1772116577.479996,1772116577.4239964,-735.3515625,-144.53125,-530.76171875,684.08203125,0.0,0,0
1772116577.4800189,1772116577.4278917,-1000.0,-139.6484375,-576.171875,-485.3515625,0.0,0,0
1772116577.480039,1772116577.4317868,-318.84765625,-92.7734375,75.1953125,-973.6328125,0.0,0,0
1772116577.4800582,1772116577.435682,664.0625,-72.265625,512.20703125,-214.84375,0.0,0,0
1772116577.480078,1772116577.439577,853.515625,-91.796875,187.01171875,-959.9609375,0.0,0,0
1772116577.480098,1772116577.4434724,-479.98046875,-140.625,-481.4453125,921.875,0.0,0,0
1772116577.480117,1772116577.4473674,-1000.0,-140.13671875,-608.3984375,-247.55859375,0.0,0,0
1772116577.480136,1772116577.4512627,-520.5078125,-84.9609375,-33.69140625,-1000.0,0.0,0,0
1772116577.525414,1772116577.4553018,562.98828125,-51.7578125,514.16015625,-219.23828125,0.0,0,0
1772116577.525525,1772116577.4591968,-985.83984375,-64.94140625,297.36328125,980.95703125,0.0,0,0
1772116577.5255601,1772116577.463092,-220.703125,-110.83984375,-390.13671875,-961.42578125,0.0,0,0
1772116577.5255911,1772116577.4669871,-1000.0,-115.72265625,-583.984375,-0.48828125,0.0,0,0
1772116577.5256221,1772116577.4708824,-749.0234375,-88.37890625,-90.8203125,-1000.0,0.0,0,0
1772116577.525651,1772116577.4747775,334.47265625,-79.58984375,512.20703125,-372.0703125,0.0,0,0
1772116577.5256808,1772116577.4786727,-921.875,-80.56640625,377.9296875,870.60546875,0.0,0,0
1772116577.5257092,1772116577.482568,-75.1953125,-94.7265625,-315.91796875,-912.59765625,0.0,0,0
1772116577.525738,1772116577.486463,-1000.0,-109.86328125,-608.3984375,137.20703125,0.0,0,0
1772116577.5257668,1772116577.4903584,-769.53125,-94.23828125,-193.84765625,-1000.0,0.0,0,0
1772116577.525794,1772116577.4942534,145.99609375,-42.48046875,447.75390625,-588.37890625,0.0,0,0
1772116577.5258229,1772116577.4981487,-891.6015625,-36.1328125,437.01171875,752.9296875,0.0,0,0
1772116577.5733278,1772116577.5021806,134.765625,-88.8671875,-219.7265625,-859.375,0.0,0,0
1772116577.5734441,1772116577.5060759,-1000.0,-117.1875,-625.0,177.734375,0.0,0,0
1772116577.573478,1772116577.5099711,-783.69140625,-99.12109375,-285.15625,-1000.0,0.0,0,0
1772116577.573508,1772116577.5138662,194.3359375,-48.33984375,386.23046875,-829.58984375,0.0,0,0
1772116577.5735402,1772116577.5177615,-871.09375,-37.59765625,457.51953125,469.23828125,0.0,0,0
1772116577.573569,1772116577.5216568,270.01953125,-81.0546875,-146.97265625,-823.2421875,0.0,0,0
1772116577.5735989,1772116577.5255518,-1000.0,-106.4453125,-627.44140625,155.76171875,0.0,0,0
1772116577.573628,1772116577.529447,-590.8203125,-85.44921875,-371.58203125,-899.90234375,0.0,0,0
1772116577.573657,1772116577.5333424,97.16796875,-62.01171875,293.45703125,-945.3125,0.0,0,0
1772116577.573687,1772116577.5372374,990.234375,-55.17578125,463.37890625,153.80859375,0.0,0,0
1772116577.573715,1772116577.5411327,372.0703125,-82.03125,-75.1953125,-777.34375,0.0,0,0
1772116577.573745,1772116577.545028,-1000.0,-114.74609375,-666.9921875,237.3046875,0.0,0,0
1772116577.6156778,1772116577.549048,-716.796875,-86.9140625,-488.76953125,-804.19921875,0.0,0,0
1772116577.615859,1772116577.5529432,87.890625,-47.8515625,215.33203125,-978.02734375,0.0,0,0
1772116577.6158981,1772116577.5568385,958.984375,-41.015625,469.7265625,-86.42578125,0.0,0,0
1772116577.6159282,1772116577.5607338,498.53515625,-73.73046875,11.23046875,-786.1328125,0.0,0,0
1772116577.6159842,1772116577.5646288,-953.125,-118.1640625,-612.79296875,397.4609375,0.0,0,0
1772116577.6160152,1772116577.5685241,-786.62109375,-108.88671875,-528.80859375,-676.7578125,0.0,0,0
1772116577.6160629,1772116577.5724194,-223.14453125,-71.2890625,142.578125,-927.734375,0.0,0,0
1772116577.616093,1772116577.5763147,668.45703125,-44.921875,467.28515625,-224.609375,0.0,0,0
1772116577.616122,1772116577.5802097,726.5625,-66.89453125,88.8671875,-860.83984375,0.0,0,0
1772116577.6161752,1772116577.584105,-722.16796875,-114.74609375,-562.5,655.2734375,0.0,0,0
1772116577.616211,1772116577.5880003,-1000.0,-113.76953125,-596.19140625,-560.546875,0.0,0,0
1772116577.616246,1772116577.5918956,-506.8359375,-68.84765625,31.25,-1000.0,0.0,0,0
1772116577.660712,1772116577.595902,573.73046875,-33.69140625,476.5625,-218.75,0.0,0,0
1772116577.660785,1772116577.5997972,856.4453125,-50.78125,168.9453125,-945.3125,0.0,0,0
1772116577.660827,1772116577.6036925,-558.59375,-88.37890625,-521.484375,892.578125,0.0,0,0
1772116577.660865,1772116577.6075878,-1000.0,-83.49609375,-648.4375,-269.04296875,0.0,0,0
1772116577.6609302,1772116577.611483,-677.24609375,-51.7578125,-66.40625,-1000.0,0.0,0,0
1772116577.660969,1772116577.6153781,323.2421875,-23.4375,495.1171875,-203.125,0.0,0,0
1772116577.661006,1772116577.6192734,994.62890625,-40.52734375,284.1796875,997.55859375,0.0,0,0
1772116577.661044,1772116577.6231687,-340.8203125,-102.5390625,-438.4765625,-977.05078125,0.0,0,0
1772116577.6610858,1772116577.627064,-1000.0,-126.46484375,-651.85546875,-61.03515625,0.0,0,0
1772116577.661122,1772116577.6309593,-857.421875,-83.0078125,-133.30078125,-1000.0,0.0,0,0
1772116577.6611578,1772116577.6348546,52.734375,-27.83203125,461.42578125,-323.2421875,0.0,0,0
1772116577.6612039,1772116577.6387496,-948.73046875,-30.76171875,335.9375,911.1328125,0.0,0,0
1772116577.707237,1772116577.6427484,-31.73828125,-74.21875,-324.70703125,-912.109375,0.0,0,0
1772116577.707382,1772116577.6466434,-992.67578125,-93.26171875,-616.2109375,99.609375,0.0,0,0
1772116577.7074401,1772116577.6505387,-982.421875,-69.3359375,-197.265625,-1000.0,0.0,0,0
1772116577.707505,1772116577.654434,-72.265625,-26.85546875,453.61328125,-525.390625,0.0,0,0
1772116577.7075589,1772116577.6583292,-906.73828125,-31.73828125,412.59765625,789.0625,0.0,0,0
1772116577.7076108,1772116577.6622245,90.33203125,-68.84765625,-234.86328125,-879.8828125,0.0,0,0
1772116577.707662,1772116577.6661198,-976.5625,-89.84375,-624.51171875,181.640625,0.0,0,0
1772116577.707712,1772116577.670015,-915.0390625,-62.98828125,-296.38671875,-1000.0,0.0,0,0
1772116577.7077608,1772116577.6739104,-93.75,-15.625,370.60546875,-777.34375,0.0,0,0
1772116577.707849,1772116577.6778057,-895.99609375,-22.4609375,426.7578125,539.55078125,0.0,0,0
1772116577.7078998,1772116577.681701,139.16015625,-67.3828125,-196.77734375,-841.30859375,0.0,0,0
1772116577.707961,1772116577.685596,-1000.0,-96.6796875,-669.43359375,158.203125,0.0,0,0
1772116577.750619,1772116577.6895826,-921.38671875,-88.37890625,-400.390625,-991.2109375,0.0,0,0
1772116577.7507231,1772116577.6934776,-241.2109375,-48.33984375,291.9921875,-950.68359375,0.0,0,0
1772116577.750765,1772116577.697373,-944.3359375,-40.0390625,446.77734375,234.86328125,0.0,0,0
1772116577.750804,1772116577.7012682,291.50390625,-79.58984375,-108.3984375,-795.8984375,0.0,0,0
1772116577.750846,1772116577.7051635,-1000.0,-101.07421875,-660.15625,206.54296875,0.0,0,0
1772116577.750884,1772116577.7090588,-724.12109375,-78.125,-463.8671875,-826.171875,0.0,0,0
1772116577.750921,1772116577.712954,-295.41015625,-28.80859375,236.328125,-964.35546875,0.0,0,0
1772116577.750964,1772116577.7168493,821.77734375,-10.7421875,440.4296875,-33.203125,0.0,0,0
1772116577.751002,1772116577.7207446,399.4140625,-56.640625,-58.10546875,-807.12890625,0.0,0,0
1772116577.75105,1772116577.72464,-996.58203125,-99.609375,-666.015625,373.046875,0.0,0,0
1772116577.7510872,1772116577.7285352,-916.50390625,-92.7734375,-570.3125,-754.39453125,0.0,0,0
1772116577.751125,1772116577.7324305,-666.015625,-54.19921875,132.8125,-1000.0,0.0,0,0
1772116577.7954738,1772116577.7364051,645.99609375,-31.25,466.30859375,-195.3125,0.0,0,0
1772116577.795557,1772116577.7403004,553.22265625,-59.08203125,57.12890625,-846.6796875,0.0,0,0
1772116577.797003,1772116577.7441957,-963.8671875,-104.4921875,-602.05078125,603.515625,0.0,0,0
1772116577.797038,1772116577.748091,-920.41015625,-89.84375,-614.74609375,-556.640625,0.0,0,0
1772116577.797068,1772116577.7519863,-853.02734375,-38.57421875,46.38671875,-978.02734375,0.0,0,0
1772116577.797098,1772116577.7558815,297.8515625,-5.859375,493.65234375,-228.515625,0.0,0,0
1772116577.7971258,1772116577.7597768,730.46875,-54.6875,175.29296875,-930.6640625,0.0,0,0
1772116577.797154,1772116577.763672,-828.125,-108.88671875,-521.484375,845.703125,0.0,0,0
1772116577.7971818,1772116577.7675674,-953.61328125,-79.58984375,-636.23046875,-309.08203125,0.0,0,0
1772116577.797219,1772116577.7714627,-903.3203125,-48.828125,-26.85546875,-1000.0,0.0,0,0
1772116577.797246,1772116577.775358,26.85546875,-34.1796875,480.46875,-198.2421875,0.0,0,0
1772116577.7972748,1772116577.7792532,693.84765625,-43.45703125,224.12109375,968.26171875,0.0,0,0
1772116577.8566751,1772116577.783223,-749.0234375,-80.56640625,-448.73046875,993.65234375,0.0,0,0
1772116577.856818,1772116577.7871182,-1000.0,-87.40234375,-645.99609375,-71.77734375,0.0,0,0
1772116577.856915,1772116577.7910135,-1000.0,-54.6875,-134.27734375,-1000.0,0.0,0,0
1772116577.856951,1772116577.7949088,-124.0234375,-10.25390625,462.40234375,-288.0859375,0.0,0,0
1772116577.856983,1772116577.798804,815.91796875,-18.06640625,319.3359375,891.6015625,0.0,0,0
1772116577.857013,1772116577.8026993,-616.69921875,-83.0078125,-365.72265625,-950.1953125,0.0,0,0
1772116577.857043,1772116577.8065946,-1000.0,-109.375,-641.6015625,104.00390625,0.0,0,0
1772116577.8570812,1772116577.8104901,-1000.0,-72.265625,-213.8671875,-1000.0,0.0,0,0
1772116577.8571079,1772116577.8143854,-189.453125,-37.59765625,412.59765625,-477.5390625,0.0,0,0
1772116577.857138,1772116577.8182807,926.7578125,-48.33984375,368.1640625,771.484375,0.0,0,0
1772116577.857166,1772116577.822176,-501.46484375,-100.09765625,-308.59375,-942.87109375,0.0,0,0
1772116577.857194,1772116577.8260713,-1000.0,-124.0234375,-676.26953125,194.3359375,0.0,0,0
1772116577.901098,1772116577.8301153,-1000.0,-108.88671875,-297.36328125,-1000.0,0.0,0,0
1772116577.9011881,1772116577.8340106,-326.66015625,-59.5703125,362.79296875,-722.65625,0.0,0,0
1772116577.9012449,1772116577.8379061,-921.875,-43.9453125,404.78515625,582.51953125,0.0,0,0
1772116577.901342,1772116577.8418014,-125.48828125,-87.40234375,-221.6796875,-881.8359375,0.0,0,0
1772116577.901409,1772116577.8456967,-1000.0,-119.140625,-677.734375,165.52734375,0.0,0,0
1772116577.90146,1772116577.849592,-882.8125,-111.328125,-363.28125,-938.96484375,0.0,0,0
1772116577.901511,1772116577.8534873,-398.4375,-68.84765625,308.10546875,-895.01953125,0.0,0,0
1772116577.9015622,1772116577.8573825,-984.86328125,-34.66796875,426.7578125,271.97265625,0.0,0,0
1772116577.901612,1772116577.861278,117.1875,-63.96484375,-129.39453125,-816.40625,0.0,0,0
1772116577.901663,1772116577.8651733,-1000.0,-156.73828125,-673.828125,201.66015625,0.0,0,0
1772116577.9017138,1772116577.8690686,-927.24609375,-132.32421875,-471.6796875,-871.58203125,0.0,0,0
1772116577.901768,1772116577.872964,-481.4453125,-46.38671875,223.6328125,-1000.0,0.0,0,0
1772116577.961285,1772116577.8770835,935.05859375,-39.55078125,461.42578125,-1.953125,0.0,0,0
1772116577.961377,1772116577.880979,323.73046875,-73.2421875,-45.8984375,-809.5703125,0.0,0,0
1772116577.961417,1772116577.8848743,-1000.0,-99.609375,-672.36328125,342.28515625,0.0,0,0
1772116577.961455,1772116577.8887696,-852.05078125,-90.33203125,-545.41015625,-731.93359375,0.0,0,0
1772116577.961499,1772116577.8926651,-410.64453125,-70.80078125,143.5546875,-976.5625,0.0,0,0
1772116577.961536,1772116577.8965604,753.41796875,-54.6875,464.84375,-197.75390625,0.0,0,0
1772116577.9615731,1772116577.9004557,661.1328125,-72.265625,67.3828125,-836.42578125,0.0,0,0
1772116577.961612,1772116577.9043512,-810.05859375,-111.81640625,-616.2109375,546.38671875,0.0,0,0
1772116577.96165,1772116577.9082465,-850.5859375,-152.83203125,-621.09375,-544.43359375,0.0,0,0
1772116577.9616902,1772116577.9121418,-452.1484375,-139.16015625,67.3828125,-904.78515625,0.0,0,0
1772116577.961727,1772116577.9160373,455.56640625,-57.6171875,464.35546875,-244.140625,0.0,0,0
1772116577.961764,1772116577.9199326,754.39453125,-62.98828125,116.69921875,-920.8984375,0.0,0,0
1772116577.9908102,1772116577.9239485,-626.953125,-127.9296875,-537.59765625,796.38671875,0.0,0,0
1772116577.990886,1772116577.9278438,-919.921875,-127.44140625,-610.83984375,-331.54296875,0.0,0,0
1772116577.990916,1772116577.9317393,-607.91015625,-71.77734375,-19.04296875,-954.1015625,0.0,0,0
1772116577.990942,1772116577.9356346,216.796875,-41.9921875,469.23828125,-197.265625,0.0,0,0
1772116577.990966,1772116577.9395301,894.53125,-62.01171875,208.49609375,978.02734375,0.0,0,0
1772116577.9909902,1772116577.9434254,-198.73046875,-107.421875,-447.75390625,973.14453125,0.0,0,0
1772116577.991014,1772116577.9473207,-1000.0,-120.60546875,-618.1640625,-122.55859375,0.0,0,0
1772116577.9910378,1772116577.9512162,-655.76171875,-83.984375,-111.328125,-1000.0,0.0,0,0
1772116577.991064,1772116577.9551115,390.13671875,-37.109375,465.33203125,-300.29296875,0.0,0,0
1772116577.9910889,1772116577.959007,973.6328125,-55.17578125,300.29296875,877.44140625,0.0,0,0
1772116577.991113,1772116577.9629023,-33.69140625,-104.98046875,-386.71875,-959.9609375,0.0,0,0
1772116577.991137,1772116577.9667976,-959.47265625,-127.44140625,-652.34375,86.9140625,0.0,0,0
1772116578.035651,1772116577.9708033,-880.859375,-147.4609375,-197.75390625,-1000.0,0.0,0,0
1772116578.0357518,1772116577.9746988,0.9765625,-81.54296875,443.84765625,-468.26171875,0.0,0,0
1772116578.03584,1772116577.978594,-940.4296875,-31.25,381.8359375,779.296875,0.0,0,0
1772116578.035897,1772116577.9824896,203.61328125,-87.890625,-307.6171875,-930.6640625,0.0,0,0
1772116578.0359879,1772116577.9863849,-911.62109375,-117.1875,-660.64453125,181.15234375,0.0,0,0
1772116578.0360472,1772116577.9902804,-715.8203125,-75.1953125,-265.13671875,-1000.0,0.0,0,0
1772116578.036087,1772116577.9941757,53.7109375,-18.06640625,396.97265625,-679.19921875,0.0,0,0
1772116578.036126,1772116577.9980712,-991.2109375,-46.38671875,437.98828125,577.1484375,0.0,0,0
1772116578.036163,1772116578.0019665,233.88671875,-120.1171875,-218.75,-911.62109375,0.0,0,0
1772116578.0362,1772116578.005862,-940.4296875,-103.02734375,-667.96875,169.921875,0.0,0,0
1772116578.036237,1772116578.0097573,-586.42578125,-67.3828125,-340.8203125,-953.61328125,0.0,0,0
1772116578.036274,1772116578.0136526,165.52734375,-35.15625,334.47265625,-900.390625,0.0,0,0
1772116578.08096,1772116578.0176487,972.65625,-23.92578125,463.37890625,254.39453125,0.0,0,0
1772116578.081056,1772116578.021544,523.4375,-57.6171875,-112.3046875,-853.02734375,0.0,0,0
1772116578.081089,1772116578.0254395,-769.53125,-90.8203125,-643.5546875,178.22265625,0.0,0,0
1772116578.08112,1772116578.029335,-628.41796875,-79.1015625,-426.26953125,-832.03125,0.0,0,0
1772116578.08115,1772116578.0332303,104.98046875,-41.9921875,262.20703125,-961.9140625,0.0,0,0
1772116578.081192,1772116578.0371258,915.0390625,-29.296875,484.375,8.7890625,0.0,0,0
1772116578.081221,1772116578.041021,614.74609375,-64.94140625,-40.0390625,-810.05859375,0.0,0,0
1772116578.081254,1772116578.0449166,-762.20703125,-119.62890625,-657.2265625,296.875,0.0,0,0
1772116578.081284,1772116578.048812,-670.8984375,-98.14453125,-518.5546875,-683.59375,0.0,0,0
1772116578.081323,1772116578.0527074,8.30078125,-49.31640625,171.875,-913.0859375,0.0,0,0
1772116578.08137,1772116578.0566027,749.51171875,-47.8515625,462.40234375,-203.61328125,0.0,0,0
1772116578.081399,1772116578.0604982,740.234375,-64.94140625,31.25,-841.30859375,0.0,0,0
1772116578.1260421,1772116578.0644813,-638.671875,-97.16796875,-591.796875,513.18359375,0.0,0,0
1772116578.126155,1772116578.0683765,-763.18359375,-89.84375,-551.26953125,-529.78515625,0.0,0,0
1772116578.1261911,1772116578.072272,-371.09375,-59.08203125,102.5390625,-867.67578125,0.0,0,0
1772116578.12621,1772116578.0761673,387.6953125,-38.0859375,474.609375,-252.44140625,0.0,0,0
1772116578.126328,1772116578.0800629,816.89453125,-44.921875,118.65234375,-918.45703125,0.0,0,0
1772116578.1264699,1772116578.0839584,-456.54296875,-74.70703125,-518.06640625,763.18359375,0.0,0,0
1772116578.1264908,1772116578.0878537,-883.30078125,-100.09765625,-562.5,-315.4296875,0.0,0,0
1772116578.126507,1772116578.0917492,-673.33984375,-108.88671875,13.18359375,-903.3203125,0.0,0,0
1772116578.126522,1772116578.0956445,206.54296875,-58.10546875,463.37890625,-208.49609375,0.0,0,0
1772116578.1265368,1772116578.09954,920.8984375,-43.9453125,196.2890625,987.3046875,0.0,0,0
1772116578.1265512,1772116578.1034355,-323.73046875,-76.171875,-486.328125,945.3125,0.0,0,0
1772116578.126566,1772116578.1073308,-979.4921875,-78.125,-628.90625,-91.30859375,0.0,0,0
1772116578.170219,1772116578.1113036,-743.1640625,-38.57421875,-66.89453125,-985.83984375,0.0,0,0
1772116578.170259,1772116578.115199,111.81640625,-12.20703125,467.28515625,-274.4140625,0.0,0,0
1772116578.170274,1772116578.1190944,884.765625,-32.2265625,264.6484375,861.328125,0.0,0,0
1772116578.1702871,1772116578.12299,-171.875,-72.75390625,-413.57421875,-988.28125,0.0,0,0
1772116578.1703,1772116578.1268854,-977.5390625,-90.8203125,-673.33984375,62.01171875,0.0,0,0
1772116578.170314,1772116578.1307807,-772.4609375,-51.26953125,-190.4296875,-1000.0,0.0,0,0
1772116578.170327,1772116578.1346762,88.37890625,-47.36328125,417.48046875,-441.40625,0.0,0,0
1772116578.170339,1772116578.1385717,-980.95703125,-69.3359375,303.22265625,763.18359375,0.0,0,0
1772116578.1703522,1772116578.142467,108.3984375,-72.265625,-352.05078125,-952.63671875,0.0,0,0
1772116578.1703649,1772116578.1463625,-936.03515625,-66.89453125,-663.0859375,184.08203125,0.0,0,0
1772116578.170378,1772116578.150258,-903.80859375,-35.64453125,-267.578125,-1000.0,0.0,0,0
1772116578.170409,1772116578.1541533,-91.796875,-2.44140625,370.1171875,-657.71484375,0.0,0,0
1772116578.2596328,1772116578.1581144,-965.8203125,4.8828125,406.25,565.91796875,0.0,0,0
1772116578.259722,1772116578.16201,370.1171875,-45.8984375,-216.30859375,-960.44921875,0.0,0,0
1772116578.2597492,1772116578.1659055,-785.15625,-73.2421875,-643.5546875,183.59375,0.0,0,0
1772116578.2597702,1772116578.1698008,-730.95703125,-48.828125,-329.58984375,-952.63671875,0.0,0,0
1772116578.2597902,1772116578.1736963,-34.1796875,-10.7421875,317.3828125,-876.953125,0.0,0,0
1772116578.259809,1772116578.1775918,982.91015625,-10.25390625,433.59375,288.0859375,0.0,0,0
1772116578.25983,1772116578.181487,543.45703125,-71.2890625,-138.18359375,-865.234375,0.0,0,0
1772116578.259849,1772116578.1853826,-743.1640625,-83.984375,-677.24609375,165.0390625,0.0,0,0
1772116578.2598689,1772116578.1892781,-844.7265625,-51.26953125,-435.546875,-890.13671875,0.0,0,0
1772116578.2598882,1772116578.1931734,-74.21875,-22.94921875,269.53125,-984.86328125,0.0,0,0
1772116578.259907,1772116578.197069,934.08203125,-15.13671875,455.56640625,23.92578125,0.0,0,0
1772116578.259927,1772116578.2009645,654.296875,-37.109375,-46.38671875,-853.02734375,0.0,0,0
1772116578.275193,1772116578.2049322,-561.03515625,-71.77734375,-610.83984375,272.4609375,0.0,0,0
1772116578.27524,1772116578.2088277,-788.57421875,-66.40625,-469.7265625,-713.37890625,0.0,0,0
1772116578.27527,1772116578.212723,-121.58203125,-30.2734375,225.09765625,-938.96484375,0.0,0,0
1772116578.2753,1772116578.2166185,802.734375,-10.7421875,497.55859375,-187.98828125,0.0,0,0
1772116578.27533,1772116578.220514,861.81640625,-40.52734375,44.921875,-842.28515625,0.0,0,0
1772116578.27536,1772116578.2244096,-393.5546875,-88.37890625,-577.1484375,470.21484375,0.0,0,0
1772116578.27539,1772116578.2283049,-912.59765625,-74.21875,-531.25,-604.00390625,0.0,0,0
1772116578.275425,1772116578.2322004,-400.87890625,-34.1796875,121.58203125,-921.38671875,0.0,0,0
1772116578.275456,1772116578.236096,623.046875,-15.625,491.69921875,-251.953125,0.0,0,0
1772116578.2755241,1772116578.2399914,947.75390625,-30.76171875,127.44140625,-905.76171875,0.0,0,0
1772116578.275597,1772116578.2438867,-331.0546875,-70.3125,-539.55078125,732.91015625,0.0,0,0
1772116578.275636,1772116578.2477822,-1000.0,-63.4765625,-585.44921875,-393.5546875,0.0,0,0
1772116578.321023,1772116578.251811,-596.6796875,-27.83203125,41.015625,-956.0546875,0.0,0,0
1772116578.321124,1772116578.2557065,406.25,-8.7890625,506.34765625,-213.37890625,0.0,0,0
1772116578.321169,1772116578.2596018,-900.87890625,-20.5078125,215.33203125,-992.1875,0.0,0,0
1772116578.321208,1772116578.2634974,-114.74609375,-73.2421875,-474.609375,911.62109375,0.0,0,0
1772116578.32125,1772116578.2673929,-966.30859375,-60.546875,-601.07421875,-110.83984375,0.0,0,0
1772116578.32129,1772116578.2712884,-743.65234375,4.39453125,-6.8359375,-908.203125,0.0,0,0
1772116578.3213272,1772116578.275184,-49.31640625,4.39453125,542.96875,-232.91015625,0.0,0,0
1772116578.321363,1772116578.2790794,998.046875,-23.92578125,316.89453125,832.51953125,0.0,0,0
1772116578.3214002,1772116578.2829747,123.046875,-80.56640625,-385.7421875,988.28125,0.0,0,0
1772116578.3214378,1772116578.2868702,-969.7265625,-92.7734375,-590.33203125,62.98828125,0.0,0,0
1772116578.3214788,1772116578.2907658,-1000.0,-39.0625,-113.76953125,-1000.0,0.0,0,0
1772116578.321516,1772116578.2946613,-69.82421875,3.41796875,487.79296875,-411.62109375,0.0,0,0
1772116578.367319,1772116578.2986882,-839.84375,-7.32421875,397.4609375,776.85546875,0.0,0,0
1772116578.367436,1772116578.3025837,453.61328125,-50.29296875,-268.06640625,-960.9375,0.0,0,0
1772116578.367483,1772116578.3064792,-847.65625,-63.4765625,-591.30859375,167.96875,0.0,0,0
1772116578.367522,1772116578.3103747,-1000.0,-45.8984375,-199.70703125,-1000.0,0.0,0,0
1772116578.367562,1772116578.3142703,-157.2265625,-17.08984375,470.703125,-653.80859375,0.0,0,0
1772116578.3676028,1772116578.3181658,-845.21484375,-6.34765625,487.79296875,620.1171875,0.0,0,0
1772116578.367641,1772116578.322061,413.0859375,-41.015625,-187.01171875,-916.015625,0.0,0,0
1772116578.3676832,1772116578.3259566,-855.95703125,-56.640625,-614.74609375,187.01171875,0.0,0,0
1772116578.367722,1772116578.329852,-1000.0,-54.19921875,-261.23046875,-1000.0,0.0,0,0
1772116578.367758,1772116578.3337476,-172.36328125,-22.94921875,425.29296875,-859.375,0.0,0,0
1772116578.367811,1772116578.3376431,-959.9609375,-0.9765625,498.53515625,297.36328125,0.0,0,0
1772116578.367859,1772116578.3415387,708.984375,-43.45703125,-118.65234375,-944.3359375,0.0,0,0
1772116578.413676,1772116578.3455503,-484.375,-68.359375,-595.703125,169.43359375,0.0,0,0
1772116578.4137962,1772116578.3494458,-1000.0,-51.26953125,-346.6796875,-930.17578125,0.0,0,0
1772116578.413855,1772116578.3533413,-268.06640625,-12.6953125,312.5,-996.58203125,0.0,0,0
1772116578.413908,1772116578.3572369,994.62890625,-4.39453125,501.46484375,70.80078125,0.0,0,0
1772116578.413959,1772116578.3611324,911.1328125,-36.62109375,-30.2734375,-853.515625,0.0,0,0
1772116578.414009,1772116578.365028,-329.58984375,-72.75390625,-602.05078125,255.37109375,0.0,0,0
1772116578.414061,1772116578.3689234,-1000.0,-49.8046875,-429.6875,-770.99609375,0.0,0,0
1772116578.414109,1772116578.372819,-456.54296875,-31.25,234.86328125,-981.4453125,0.0,0,0
1772116578.414159,1772116578.3767145,759.765625,-45.41015625,477.5390625,-148.4375,0.0,0,0
1772116578.414219,1772116578.38061,-959.47265625,-26.3671875,43.9453125,-845.703125,0.0,0,0
1772116578.414277,1772116578.3845055,-143.06640625,-46.875,-564.94140625,447.75390625,0.0,0,0
1772116578.414326,1772116578.388401,-1000.0,-54.19921875,-514.6484375,-682.6171875,0.0,0,0
1772116578.4562602,1772116578.3924015,-586.9140625,-14.6484375,163.57421875,-996.09375,0.0,0,0
1772116578.456376,1772116578.396297,709.47265625,6.34765625,529.296875,-236.81640625,0.0,0,0
1772116578.456432,1772116578.4001925,-889.6484375,-10.25390625,158.69140625,-881.34765625,0.0,0,0
1772116578.45649,1772116578.404088,-1.953125,-56.640625,-492.1875,673.828125,0.0,0,0
1772116578.456543,1772116578.4079835,-1000.0,-67.87109375,-560.546875,-491.2109375,0.0,0,0
1772116578.4565928,1772116578.411879,-804.6875,-20.99609375,84.47265625,-987.79296875,0.0,0,0
1772116578.456644,1772116578.4157746,423.828125,15.625,529.296875,-220.703125,0.0,0,0
1772116578.4567502,1772116578.41967,-832.51953125,-68.359375,198.73046875,-979.00390625,0.0,0,0
1772116578.457044,1772116578.4235656,37.59765625,-113.76953125,-460.44921875,894.04296875,0.0,0,0
1772116578.4571059,1772116578.4274611,-1000.0,-50.78125,-562.98828125,-207.03125,0.0,0,0
1772116578.4571579,1772116578.4313567,-939.453125,-4.39453125,20.5078125,-1000.0,0.0,0,0
1772116578.45721,1772116578.4352524,151.85546875,31.25,549.31640625,-237.3046875,0.0,0,0
1772116578.5000849,1772116578.4392416,-801.26953125,12.20703125,321.2890625,933.10546875,0.0,0,0
1772116578.500126,1772116578.4431372,166.015625,-25.390625,-366.2109375,-986.328125,0.0,0,0
1772116578.5001411,1772116578.4470327,-1000.0,-34.66796875,-564.94140625,-13.18359375,0.0,0,0
1772116578.500155,1772116578.4509282,-1000.0,-17.578125,-70.3125,-1000.0,0.0,0,0
1772116578.500169,1772116578.454824,-101.07421875,18.06640625,505.37109375,-370.60546875,0.0,0,0
1772116578.500184,1772116578.4587195,-816.89453125,36.62109375,404.78515625,850.5859375,0.0,0,0
1772116578.500198,1772116578.462615,248.046875,-33.69140625,-262.20703125,-923.33984375,0.0,0,0
1772116578.500212,1772116578.4665105,-994.140625,-88.37890625,-570.80078125,140.13671875,0.0,0,0
1772116578.500258,1772116578.470406,-1000.0,-28.80859375,-169.43359375,-1000.0,0.0,0,0
1772116578.500289,1772116578.4743016,-154.78515625,26.85546875,473.14453125,-597.16796875,0.0,0,0
1772116578.500306,1772116578.478197,-843.75,18.5546875,462.890625,670.8984375,0.0,0,0
1772116578.500321,1772116578.4820929,422.36328125,-24.4140625,-184.5703125,-929.6875,0.0,0,0
1772116578.561058,1772116578.4861505,-854.00390625,-46.875,-569.3359375,188.4765625,0.0,0,0
1772116578.561111,1772116578.490046,-1000.0,-26.85546875,-233.3984375,-1000.0,0.0,0,0
1772116578.561127,1772116578.4939415,-197.265625,13.18359375,432.12890625,-837.890625,0.0,0,0
1772116578.561142,1772116578.4978373,-871.09375,13.18359375,520.99609375,440.91796875,0.0,0,0
1772116578.5611572,1772116578.5017328,531.73828125,-39.0625,-91.796875,-836.42578125,0.0,0,0
1772116578.561171,1772116578.5056283,-751.46484375,-69.3359375,-572.75390625,161.62109375,0.0,0,0
1772116578.561187,1772116578.5095239,-1000.0,-79.58984375,-309.5703125,-972.65625,0.0,0,0
1772116578.5612009,1772116578.5134196,-278.3203125,-33.203125,357.91015625,-991.2109375,0.0,0,0
1772116578.561215,1772116578.5173151,-960.9375,13.18359375,535.15625,147.4609375,0.0,0,0
1772116578.5612302,1772116578.5212107,791.9921875,-25.87890625,-4.8828125,-800.29296875,0.0,0,0
1772116578.561244,1772116578.5251062,-445.3125,-54.6875,-578.61328125,229.98046875,0.0,0,0
1772116578.561258,1772116578.529002,-1000.0,-34.1796875,-396.97265625,-855.46875,0.0,0,0
1772116578.604196,1772116578.532969,-424.31640625,16.11328125,300.29296875,-1000.0,0.0,0,0
1772116578.604239,1772116578.5368645,932.6171875,39.55078125,548.33984375,-81.54296875,0.0,0,0
1772116578.604255,1772116578.5407603,876.46484375,9.765625,79.58984375,-812.01171875,0.0,0,0
1772116578.604293,1772116578.5446558,-395.01953125,-26.3671875,-530.2734375,416.015625,0.0,0,0
1772116578.60434,1772116578.5485513,-1000.0,-16.11328125,-455.56640625,-711.9140625,0.0,0,0
1772116578.604365,1772116578.552447,-526.3671875,26.3671875,221.6796875,-1000.0,0.0,0,0
1772116578.604379,1772116578.5563426,791.50390625,48.33984375,563.4765625,-221.6796875,0.0,0,0
1772116578.604392,1772116578.5602381,999.0234375,17.578125,147.94921875,-862.3046875,0.0,0,0
1772116578.604406,1772116578.564134,-239.74609375,-26.85546875,-514.6484375,632.8125,0.0,0,0
1772116578.6044319,1772116578.5680294,-1000.0,-22.94921875,-528.80859375,-534.66796875,0.0,0,0
1772116578.604547,1772116578.571925,-707.51953125,23.92578125,128.41796875,-987.3046875,0.0,0,0
1772116578.604564,1772116578.5758204,559.08203125,56.640625,572.75390625,-229.4921875,0.0,0,0
1772116578.6495528,1772116578.579855,-916.50390625,43.9453125,252.9296875,-938.4765625,0.0,0,0
1772116578.649584,1772116578.5837505,-159.1796875,2.44140625,-440.4296875,870.1171875,0.0,0,0
1772116578.6495948,1772116578.587646,-1000.0,-11.23046875,-559.08203125,-308.10546875,0.0,0,0
1772116578.649604,1772116578.5915418,-866.69921875,20.99609375,38.0859375,-1000.0,0.0,0,0
1772116578.6496131,1772116578.5954373,315.91796875,63.96484375,572.265625,-214.84375,0.0,0,0
1772116578.649621,1772116578.599333,-813.96484375,52.734375,347.65625,982.91015625,0.0,0,0
1772116578.64963,1772116578.6032286,61.03515625,-12.6953125,-368.1640625,-998.046875,0.0,0,0
1772116578.649638,1772116578.607124,-1000.0,-30.76171875,-578.125,-62.98828125,0.0,0,0
1772116578.649646,1772116578.6110198,-1000.0,19.04296875,-36.1328125,-1000.0,0.0,0,0
1772116578.649654,1772116578.6149154,3.90625,46.875,565.91796875,-326.66015625,0.0,0,0
1772116578.649663,1772116578.6188111,-806.640625,32.2265625,419.43359375,879.39453125,0.0,0,0
1772116578.6496708,1772116578.6227067,250.48828125,-0.48828125,-271.484375,-932.6171875,0.0,0,0
1772116578.6958458,1772116578.6267304,-990.72265625,-29.78515625,-548.33984375,110.83984375,0.0,0,0
1772116578.6958752,1772116578.6306262,-1000.0,-9.765625,-111.328125,-1000.0,0.0,0,0
1772116578.695885,1772116578.6345217,-119.140625,44.921875,531.73828125,-532.71484375,0.0,0,0
1772116578.695916,1772116578.6384175,-826.66015625,45.41015625,503.41796875,757.8125,0.0,0,0
1772116578.695936,1772116578.642313,298.828125,-6.8359375,-188.4765625,-902.83203125,0.0,0,0
1772116578.695946,1772116578.6462088,-934.08203125,-26.85546875,-549.8046875,184.5703125,0.0,0,0
1772116578.695988,1772116578.6501043,-1000.0,-12.20703125,-183.59375,-1000.0,0.0,0,0
1772116578.695999,1772116578.6539998,-225.5859375,29.296875,438.96484375,-775.87890625,0.0,0,0
1772116578.696007,1772116578.6578956,-886.23046875,13.18359375,505.37109375,499.51171875,0.0,0,0
1772116578.6960158,1772116578.661791,534.1796875,-47.8515625,-101.5625,-886.71875,0.0,0,0
1772116578.6960242,1772116578.6656868,-757.32421875,-31.73828125,-570.3125,161.1328125,0.0,0,0
1772116578.696037,1772116578.6695824,-1000.0,-9.765625,-285.15625,-967.28515625,0.0,0,0
1772116578.740057,1772116578.6735957,-294.43359375,9.765625,375.9765625,-951.171875,0.0,0,0
1772116578.7400892,1772116578.6774914,-958.0078125,29.296875,531.25,221.6796875,0.0,0,0
1772116578.740099,1772116578.6813872,612.79296875,-2.9296875,-19.53125,-792.96875,0.0,0,0
1772116578.740108,1772116578.6852827,-737.79296875,-37.109375,-571.2890625,193.359375,0.0,0,0
1772116578.740116,1772116578.6891785,-991.2109375,-10.7421875,-375.9765625,-837.40234375,0.0,0,0
1772116578.740125,1772116578.693074,-281.25,25.87890625,312.98828125,-979.98046875,0.0,0,0
1772116578.740133,1772116578.6969697,916.9921875,25.390625,544.921875,-45.41015625,0.0,0,0
1772116578.7401412,1772116578.7008653,809.5703125,-14.6484375,47.36328125,-804.19921875,0.0,0,0
1772116578.74015,1772116578.704761,-539.0625,-86.42578125,-557.6171875,329.58984375,0.0,0,0
1772116578.7401578,1772116578.7086565,-929.19921875,-67.87109375,-439.94140625,-688.96484375,0.0,0,0
1772116578.740166,1772116578.7125523,-409.1796875,20.99609375,249.51171875,-919.43359375,0.0,0,0
1772116578.740175,1772116578.7164478,669.43359375,56.15234375,551.7578125,-216.796875,0.0,0,0
1772116578.785054,1772116578.7204509,949.21875,39.55078125,130.37109375,-833.0078125,0.0,0,0
1772116578.785088,1772116578.7243466,-450.68359375,-8.7890625,-520.99609375,551.26953125,0.0,0,0
1772116578.7851021,1772116578.7282424,-932.12890625,-5.37109375,-518.06640625,-543.9453125,0.0,0,0
1772116578.7851148,1772116578.732138,-593.75,37.109375,145.01953125,-895.99609375,0.0,0,0
1772116578.7851279,1772116578.7360337,395.01953125,59.08203125,555.17578125,-241.69921875,0.0,0,0
1772116578.785142,1772116578.7399294,960.9375,31.73828125,222.16796875,-922.8515625,0.0,0,0
1772116578.785154,1772116578.743825,-424.8046875,-13.18359375,-439.453125,830.56640625,0.0,0,0
1772116578.785168,1772116578.7477207,-1000.0,-54.19921875,-549.31640625,-377.9296875,0.0,0,0
1772116578.785179,1772116578.7516162,-807.6171875,-26.3671875,41.015625,-1000.0,0.0,0,0
1772116578.7851908,1772116578.755512,386.71875,49.8046875,587.40234375,-204.1015625,0.0,0,0
1772116578.785203,1772116578.7594078,956.54296875,29.78515625,310.05859375,974.609375,0.0,0,0
1772116578.785215,1772116578.7633033,-295.41015625,-6.8359375,-401.85546875,971.19140625,0.0,0,0
1772116578.86109,1772116578.767462,-1000.0,-11.23046875,-547.36328125,-95.703125,0.0,0,0
1772116578.86114,1772116578.7713578,-950.1953125,13.18359375,-5.37109375,-1000.0,0.0,0,0
1772116578.8611572,1772116578.7752535,23.4375,47.8515625,582.03125,-285.15625,0.0,0,0
1772116578.861172,1772116578.7791493,-879.8828125,32.71484375,423.33984375,893.5546875,0.0,0,0
1772116578.861187,1772116578.7830448,58.59375,-11.71875,-281.25,-941.89453125,0.0,0,0
1772116578.861203,1772116578.7869406,-1000.0,-26.3671875,-522.4609375,90.33203125,0.0,0,0
1772116578.861217,1772116578.7908363,-1000.0,-13.18359375,-67.87109375,-1000.0,0.0,0,0
1772116578.861231,1772116578.794732,-160.15625,34.66796875,545.8984375,-479.00390625,0.0,0,0
1772116578.861245,1772116578.7986279,-844.23828125,43.45703125,497.0703125,788.0859375,0.0,0,0
1772116578.86126,1772116578.8025234,139.6484375,-20.01953125,-196.2890625,-919.921875,0.0,0,0
1772116578.861274,1772116578.8064191,-1000.0,-52.734375,-565.4296875,177.24609375,0.0,0,0
1772116578.8612878,1772116578.810315,-1000.0,-19.04296875,-181.15234375,-1000.0,0.0,0,0
1772116578.875038,1772116578.8143013,-87.40234375,31.73828125,479.4921875,-749.51171875,0.0,0,0
1772116578.875065,1772116578.818197,-852.5390625,34.1796875,508.7890625,552.24609375,0.0,0,0
1772116578.8750799,1772116578.8220928,254.39453125,-16.11328125,-131.34765625,-875.0,0.0,0,0
1772116578.8750951,1772116578.8259885,-922.8515625,-49.31640625,-586.42578125,166.50390625,0.0,0,0
1772116578.8751109,1772116578.8298843,-966.796875,-26.85546875,-276.85546875,-1000.0,0.0,0,0
1772116578.875125,1772116578.83378,-93.26171875,29.78515625,439.453125,-931.640625,0.0,0,0
1772116578.8751402,1772116578.8376756,-885.25390625,36.62109375,576.66015625,259.765625,0.0,0,0
1772116578.875154,1772116578.8415713,261.23046875,-18.06640625,-44.921875,-832.51953125,0.0,0,0
1772116578.875168,1772116578.845467,-990.234375,-54.19921875,-601.07421875,185.546875,0.0,0,0
1772116578.8752031,1772116578.8493629,-939.94140625,-39.55078125,-368.1640625,-903.80859375,0.0,0,0
1772116578.8752341,1772116578.8532586,-154.296875,5.859375,324.70703125,-1000.0,0.0,0,0
1772116578.875251,1772116578.8571544,-985.3515625,27.83203125,534.1796875,-3.90625,0.0,0,0
1772116578.9362,1772116578.8611257,645.01953125,-1.46484375,34.66796875,-792.96875,0.0,0,0
1772116578.936256,1772116578.8650215,-731.93359375,-43.45703125,-568.84765625,312.5,0.0,0,0
1772116578.936278,1772116578.8689172,-881.8359375,-24.4140625,-430.17578125,-749.51171875,0.0,0,0
1772116578.936298,1772116578.872813,-187.5,17.08984375,271.484375,-962.890625,0.0,0,0
1772116578.936318,1772116578.8767087,766.11328125,21.484375,556.15234375,-189.94140625,0.0,0,0
1772116578.9363399,1772116578.8806045,876.46484375,9.27734375,129.8828125,-823.2421875,0.0,0,0
1772116578.936359,1772116578.8845003,-471.6796875,-48.33984375,-522.94921875,520.5078125,0.0,0,0
1772116578.936379,1772116578.888396,-1000.0,-62.98828125,-505.859375,-643.06640625,0.0,0,0
1772116578.936398,1772116578.8922915,-551.26953125,-0.9765625,176.7578125,-972.65625,0.0,0,0
1772116578.936418,1772116578.8961873,543.9453125,31.25,583.984375,-238.76953125,0.0,0,0
1772116578.936436,1772116578.900083,-977.5390625,8.7890625,229.98046875,-909.1796875,0.0,0,0
1772116578.9364579,1772116578.9039788,-288.0859375,-33.203125,-456.0546875,787.109375,0.0,0,0
1772116578.980893,1772116578.9079576,-1000.0,-40.52734375,-537.109375,-406.73828125,0.0,0,0
1772116578.9809349,1772116578.9118533,-714.35546875,-4.8828125,84.9609375,-1000.0,0.0,0,0
1772116578.980959,1772116578.915749,415.52734375,31.73828125,592.7734375,-201.171875,0.0,0,0
1772116578.980982,1772116578.9196448,-856.93359375,14.6484375,315.4296875,998.046875,0.0,0,0
1772116578.981032,1772116578.9235406,-26.3671875,-34.66796875,-382.32421875,964.84375,0.0,0,0
1772116578.981069,1772116578.9274364,-1000.0,-44.43359375,-520.99609375,-140.13671875,0.0,0,0
1772116578.9810932,1772116578.931332,-956.0546875,-16.6015625,35.15625,-1000.0,0.0,0,0
1772116578.981117,1772116578.9352279,59.5703125,25.390625,591.796875,-260.25390625,0.0,0,0
1772116578.981141,1772116578.9391236,-905.76171875,16.6015625,384.765625,901.85546875,0.0,0,0
1772116578.9811652,1772116578.9430194,18.06640625,-30.2734375,-314.453125,-961.42578125,0.0,0,0
1772116578.981189,1772116578.9469151,-1000.0,-43.45703125,-544.43359375,31.73828125,0.0,0,0
1772116578.981212,1772116578.950811,-979.98046875,-8.7890625,-53.22265625,-1000.0,0.0,0,0
1772116579.025436,1772116578.9548495,54.6875,35.15625,583.0078125,-442.87109375,0.0,0,0
1772116579.0255291,1772116578.9587452,-837.890625,26.85546875,500.0,820.80078125,0.0,0,0
1772116579.025562,1772116578.962641,282.71484375,-5.859375,-193.84765625,-914.55078125,0.0,0,0
1772116579.025593,1772116578.9665368,-957.03125,-16.6015625,-538.0859375,161.1328125,0.0,0,0
1772116579.025627,1772116578.9704325,-1000.0,-11.71875,-139.6484375,-1000.0,0.0,0,0
1772116579.0256572,1772116578.9743283,-51.26953125,32.2265625,530.76171875,-683.10546875,0.0,0,0
1772116579.025686,1772116578.978224,-870.1171875,40.0390625,541.015625,615.234375,0.0,0,0
1772116579.025717,1772116578.9821198,520.99609375,-6.8359375,-130.37109375,-908.69140625,0.0,0,0
1772116579.0257459,1772116578.9860156,-693.84765625,-25.87890625,-561.03515625,176.26953125,0.0,0,0
1772116579.0257769,1772116578.9899113,-1000.0,7.32421875,-242.1875,-1000.0,0.0,0,0
1772116579.0258079,1772116578.993807,-251.46484375,36.1328125,430.17578125,-906.73828125,0.0,0,0
1772116579.025839,1772116578.9977028,-938.96484375,29.296875,544.921875,337.890625,0.0,0,0
1772116579.0724878,1772116579.0017374,697.75390625,-7.32421875,-44.921875,-818.84765625,0.0,0,0
1772116579.0726101,1772116579.005633,-561.5234375,-42.48046875,-579.58984375,170.41015625,0.0,0,0
1772116579.0726552,1772116579.0095289,-1000.0,-19.04296875,-349.609375,-941.40625,0.0,0,0
1772116579.072695,1772116579.0134246,-334.9609375,25.87890625,358.3984375,-1000.0,0.0,0,0
1772116579.072733,1772116579.0173204,967.7734375,31.73828125,570.80078125,63.4765625,0.0,0,0
1772116579.0727732,1772116579.0212162,922.8515625,-4.39453125,73.2421875,-774.4140625,0.0,0,0
1772116579.07281,1772116579.025112,-215.8203125,-51.7578125,-519.04296875,295.41015625,0.0,0,0
1772116579.0728478,1772116579.029008,-1000.0,-34.66796875,-416.50390625,-863.28125,0.0,0,0
1772116579.072884,1772116579.0329037,-453.125,23.92578125,267.08984375,-1000.0,0.0,0,0
1772116579.0729191,1772116579.0367994,916.9921875,39.0625,571.2890625,-146.97265625,0.0,0,0
1772116579.072955,1772116579.0406952,930.17578125,-1.953125,128.90625,-821.77734375,0.0,0,0
1772116579.07301,1772116579.044591,-257.8125,-45.41015625,-534.1796875,500.48828125,0.0,0,0
1772116579.119343,1772116579.04861,-1000.0,-25.390625,-492.67578125,-734.86328125,0.0,0,0
1772116579.119452,1772116579.0525057,-714.84375,12.6953125,187.5,-1000.0,0.0,0,0
1772116579.11951,1772116579.0564017,580.56640625,26.85546875,566.40625,-227.05078125,0.0,0,0
1772116579.119563,1772116579.0602975,-871.58203125,14.6484375,208.49609375,-893.06640625,0.0,0,0
1772116579.119616,1772116579.0641932,-12.20703125,-31.25,-450.1953125,732.421875,0.0,0,0
1772116579.119672,1772116579.068089,-1000.0,-32.71484375,-501.953125,-513.671875,0.0,0,0
1772116579.119721,1772116579.0719848,-839.35546875,12.6953125,126.46484375,-1000.0,0.0,0,0
1772116579.1197708,1772116579.0758808,379.8828125,39.55078125,595.703125,-204.58984375,0.0,0,0
1772116579.119814,1772116579.0797765,-813.4765625,24.4140625,308.10546875,-992.67578125,0.0,0,0
1772116579.119851,1772116579.0836723,169.921875,-15.13671875,-373.53515625,931.640625,0.0,0,0
1772116579.119898,1772116579.087568,-1000.0,-19.53125,-531.73828125,-250.0,0.0,0,0
1772116579.119935,1772116579.091464,-968.75,12.6953125,23.92578125,-1000.0,0.0,0,0
1772116579.160792,1772116579.0954688,169.921875,58.59375,599.12109375,-252.44140625,0.0,0,0
1772116579.1609018,1772116579.0993645,-817.87109375,48.33984375,395.99609375,927.24609375,0.0,0,0
1772116579.160942,1772116579.1032605,193.84765625,-0.48828125,-320.3125,-963.8671875,0.0,0,0
1772116579.16098,1772116579.1071563,-1000.0,-3.90625,-561.03515625,-16.6015625,0.0,0,0
1772116579.1610172,1772116579.111052,-1000.0,24.4140625,-64.453125,-1000.0,0.0,0,0
1772116579.1613078,1772116579.114948,18.5546875,60.05859375,600.09765625,-410.64453125,0.0,0,0
1772116579.161348,1772116579.1188438,-833.984375,55.6640625,516.11328125,802.734375,0.0,0,0
1772116579.161386,1772116579.1227396,174.8046875,41.50390625,-207.51953125,-957.51953125,0.0,0,0
1772116579.161437,1772116579.1266353,-1000.0,34.66796875,-539.0625,143.06640625,0.0,0,0
1772116579.161472,1772116579.1305313,-1000.0,20.01953125,-110.3515625,-1000.0,0.0,0,0
1772116579.1615071,1772116579.134427,-74.70703125,45.41015625,568.84765625,-654.296875,0.0,0,0
1772116579.1615438,1772116579.1383228,-895.5078125,22.94921875,566.40625,579.1015625,0.0,0,0
1772116579.205673,1772116579.1423163,343.75,-21.484375,-113.28125,-984.375,0.0,0,0
1772116579.2057338,1772116579.1462123,-796.875,-33.69140625,-514.16015625,182.6171875,0.0,0,0
1772116579.2057621,1772116579.150108,-1000.0,-13.18359375,-175.78125,-1000.0,0.0,0,0
1772116579.205785,1772116579.1540039,-229.98046875,37.109375,514.6484375,-902.34375,0.0,0,0
1772116579.2058098,1772116579.1578999,-939.453125,39.55078125,600.5859375,352.5390625,0.0,0,0
1772116579.205834,1772116579.1617956,619.140625,-2.44140625,8.30078125,-863.76953125,0.0,0,0
1772116579.205857,1772116579.1656914,-589.84375,-36.1328125,-490.234375,163.57421875,0.0,0,0
1772116579.2058802,1772116579.1695874,-1000.0,-45.8984375,-302.734375,-1000.0,0.0,0,0
1772116579.205903,1772116579.1734831,-387.6953125,-12.20703125,383.7890625,-1000.0,0.0,0,0
1772116579.205968,1772116579.177379,980.46875,6.34765625,577.63671875,106.4453125,0.0,0,0
1772116579.206023,1772116579.181275,756.8359375,-31.25,29.296875,-861.328125,0.0,0,0
1772116579.206051,1772116579.1851707,-411.62109375,-63.96484375,-558.10546875,254.39453125,0.0,0,0
1772116579.2520099,1772116579.189154,-1000.0,-51.7578125,-398.92578125,-892.578125,0.0,0,0
1772116579.252125,1772116579.1930497,-479.00390625,-16.6015625,303.7109375,-1000.0,0.0,0,0
1772116579.2521658,1772116579.1969457,905.76171875,0.48828125,580.56640625,-104.98046875,0.0,0,0
1772116579.2522051,1772116579.2008414,933.59375,-16.6015625,115.234375,-813.96484375,0.0,0,0
1772116579.2522418,1772116579.2047372,-296.875,-45.8984375,-537.109375,442.3828125,0.0,0,0
1772116579.252279,1772116579.2086332,-1000.0,-37.109375,-469.7265625,-720.21484375,0.0,0,0
1772116579.252395,1772116579.212529,-645.99609375,10.7421875,226.5625,-1000.0,0.0,0,0
1772116579.252439,1772116579.216425,624.51171875,38.57421875,561.5234375,-229.00390625,0.0,0,0
1772116579.252478,1772116579.2203207,-965.8203125,-3.41796875,160.15625,-878.41796875,0.0,0,0
1772116579.252516,1772116579.2242165,-207.51953125,-62.98828125,-491.2109375,691.40625,0.0,0,0
1772116579.252553,1772116579.2281125,-1000.0,-69.82421875,-539.0625,-547.36328125,0.0,0,0
1772116579.252589,1772116579.2320082,-882.32421875,-28.3203125,107.91015625,-1000.0,0.0,0,0
1772116579.295789,1772116579.2359831,326.171875,-2.9296875,599.609375,-211.9140625,0.0,0,0
1772116579.295933,1772116579.239879,-814.453125,-17.578125,289.0625,-962.890625,0.0,0,0
1772116579.295997,1772116579.243775,117.1875,-52.24609375,-418.45703125,915.52734375,0.0,0,0
1772116579.2960389,1772116579.2476707,-1000.0,-61.5234375,-568.359375,-269.53125,0.0,0,0
1772116579.296078,1772116579.2515666,-934.08203125,-28.80859375,26.3671875,-1000.0,0.0,0,0
1772116579.2961159,1772116579.2554624,241.69921875,-4.8828125,621.09375,-219.23828125,0.0,0,0
1772116579.296154,1772116579.2593582,-815.91796875,0.9765625,387.20703125,961.9140625,0.0,0,0
1772116579.296206,1772116579.2632542,153.80859375,-35.64453125,-329.58984375,-970.21484375,0.0,0,0
1772116579.296252,1772116579.26715,-993.65234375,-70.80078125,-533.69140625,-28.3203125,0.0,0,0
1772116579.296299,1772116579.271046,-1000.0,-35.15625,-31.25,-1000.0,0.0,0,0
1772116579.296365,1772116579.2749417,-119.140625,6.8359375,537.109375,-363.76953125,0.0,0,0
1772116579.2964008,1772116579.2788377,-825.1953125,-3.90625,424.8046875,893.5546875,0.0,0,0
1772116579.355236,1772116579.2828007,281.25,-53.22265625,-241.69921875,-901.85546875,0.0,0,0
1772116579.355358,1772116579.2866967,-965.33203125,-62.98828125,-570.80078125,131.34765625,0.0,0,0
1772116579.355402,1772116579.2905924,-1000.0,-33.69140625,-132.32421875,-1000.0,0.0,0,0
1772116579.3554418,1772116579.2944884,-195.80078125,0.48828125,526.3671875,-580.078125,0.0,0,0
1772116579.355482,1772116579.2983842,-867.67578125,-7.32421875,512.6953125,753.90625,0.0,0,0
1772116579.355521,1772116579.3022802,489.74609375,-28.80859375,-150.390625,-865.234375,0.0,0,0
1772116579.3555672,1772116579.306176,-789.0625,-9.765625,-555.6640625,174.8046875,0.0,0,0
1772116579.3556101,1772116579.310072,-1000.0,-26.3671875,-224.609375,-1000.0,0.0,0,0
1772116579.355646,1772116579.3139677,-178.22265625,-7.8125,453.61328125,-847.16796875,0.0,0,0
1772116579.355687,1772116579.3178637,-871.09375,17.578125,561.03515625,470.21484375,0.0,0,0
1772116579.3557398,1772116579.3217595,504.8828125,-11.71875,-50.29296875,-816.40625,0.0,0,0
1772116579.3557692,1772116579.3256555,-746.09375,-49.31640625,-583.984375,157.2265625,0.0,0,0
1772116579.402645,1772116579.3296945,-1000.0,-48.828125,-325.68359375,-995.1171875,0.0,0,0
1772116579.402755,1772116579.3335903,-302.734375,-10.7421875,390.13671875,-993.65234375,0.0,0,0
1772116579.4028091,1772116579.3374863,-966.30859375,23.4375,576.66015625,180.17578125,0.0,0,0
1772116579.40286,1772116579.3413823,748.046875,-1.46484375,45.8984375,-768.06640625,0.0,0,0
1772116579.402911,1772116579.345278,-497.55859375,-39.0625,-549.8046875,227.05078125,0.0,0,0
1772116579.402962,1772116579.349174,-1000.0,-17.08984375,-366.2109375,-846.6796875,0.0,0,0
1772116579.403012,1772116579.3530698,-537.109375,3.41796875,323.73046875,-1000.0,0.0,0,0
1772116579.40306,1772116579.3569658,809.5703125,-2.44140625,562.5,-73.73046875,0.0,0,0
1772116579.403109,1772116579.3608618,839.35546875,-22.4609375,105.95703125,-786.62109375,0.0,0,0
1772116579.40316,1772116579.3647575,-463.37890625,-25.390625,-557.12890625,416.50390625,0.0,0,0
1772116579.403212,1772116579.3686535,-1000.0,-26.85546875,-510.25390625,-819.3359375,0.0,0,0
1772116579.403263,1772116579.3725493,-583.0078125,-19.04296875,189.94140625,-1000.0,0.0,0,0
1772116579.462222,1772116579.37666,775.87890625,1.46484375,569.3359375,-208.984375,0.0,0,0
1772116579.462369,1772116579.380556,977.05078125,-25.87890625,178.22265625,-864.74609375,0.0,0,0
1772116579.462427,1772116579.384452,-262.6953125,-62.01171875,-491.2109375,642.08984375,0.0,0,0
1772116579.462479,1772116579.388348,-1000.0,-49.8046875,-519.04296875,-597.16796875,0.0,0,0
1772116579.462529,1772116579.3922439,-811.03515625,-8.30078125,128.90625,-1000.0,0.0,0,0
1772116579.462579,1772116579.3961399,440.91796875,18.06640625,594.7265625,-218.75,0.0,0,0
1772116579.462629,1772116579.4000359,-890.13671875,-7.32421875,272.94921875,-948.2421875,0.0,0,0
1772116579.46268,1772116579.4039319,-108.3984375,-71.77734375,-427.734375,888.18359375,0.0,0,0
1772116579.462729,1772116579.4078276,-1000.0,-20.01953125,-568.84765625,-349.12109375,0.0,0,0
1772116579.4627771,1772116579.4117236,-949.21875,63.4765625,24.4140625,-1000.0,0.0,0,0
1772116579.462829,1772116579.4156196,173.33984375,9.27734375,577.63671875,-209.9609375,0.0,0,0
1772116579.462878,1772116579.4195156,-833.984375,-17.578125,347.65625,990.234375,0.0,0,0
1772116579.4923341,1772116579.4235396,86.9140625,-42.48046875,-341.796875,-975.09765625,0.0,0,0
1772116579.492461,1772116579.4274356,-1000.0,-62.01171875,-547.8515625,-82.03125,0.0,0,0
1772116579.4925172,1772116579.4313316,-1000.0,-43.45703125,-33.69140625,-1000.0,0.0,0,0
1772116579.492568,1772116579.4352276,-29.78515625,-15.13671875,572.265625,-342.28515625,0.0,0,0
1772116579.492619,1772116579.4391234,-833.49609375,-17.578125,444.3359375,898.4375,0.0,0,0
1772116579.4926689,1772116579.4430194,296.38671875,-49.31640625,-239.74609375,-911.62109375,0.0,0,0
1772116579.4927192,1772116579.4469154,-962.40234375,-73.73046875,-549.8046875,106.93359375,0.0,0,0
1772116579.492756,1772116579.4508114,-1000.0,-48.33984375,-142.08984375,-1000.0,0.0,0,0
1772116579.492791,1772116579.4547074,-62.98828125,5.37109375,529.296875,-557.12890625,0.0,0,0
1772116579.493048,1772116579.4586031,-829.1015625,0.0,530.76171875,768.06640625,0.0,0,0
1772116579.493088,1772116579.4624991,312.98828125,-61.5234375,-163.0859375,-888.18359375,0.0,0,0
1772116579.4931252,1772116579.4663951,-908.203125,-75.68359375,-579.1015625,180.17578125,0.0,0,0
1772116579.539177,1772116579.4704025,-1000.0,20.99609375,-205.56640625,-1000.0,0.0,0,0
1772116579.539281,1772116579.4742985,-234.375,48.33984375,479.4921875,-797.8515625,0.0,0,0
1772116579.5393379,1772116579.4781945,-875.48828125,2.44140625,548.828125,518.5546875,0.0,0,0
1772116579.5393898,1772116579.4820905,421.38671875,-25.87890625,-84.9609375,-832.51953125,0.0,0,0
1772116579.5394418,1772116579.4859865,-869.140625,-54.19921875,-587.40234375,153.3203125,0.0,0,0
1772116579.5394921,1772116579.4898825,-979.00390625,-41.015625,-287.109375,-964.35546875,0.0,0,0
1772116579.5395432,1772116579.4937785,-281.73828125,-21.97265625,430.17578125,-951.171875,0.0,0,0
1772116579.539594,1772116579.4976745,-970.703125,11.23046875,562.5,204.1015625,0.0,0,0
1772116579.539644,1772116579.5015705,514.16015625,6.34765625,-25.87890625,-795.8984375,0.0,0,0
1772116579.5396962,1772116579.5054662,-809.08203125,-61.5234375,-583.0078125,222.16796875,0.0,0,0
1772116579.539746,1772116579.5093622,-1000.0,-60.05859375,-382.32421875,-903.80859375,0.0,0,0
1772116579.539795,1772116579.5132582,-473.6328125,-11.23046875,328.125,-1000.0,0.0,0,0
1772116579.580847,1772116579.5172522,931.640625,5.859375,573.2421875,-37.59765625,0.0,0,0
1772116579.5809479,1772116579.5211482,798.33984375,-33.69140625,83.49609375,-798.828125,0.0,0,0
1772116579.580992,1772116579.5250442,-482.91015625,-69.3359375,-544.921875,393.5546875,0.0,0,0
1772116579.58103,1772116579.5289402,-1000.0,-51.7578125,-474.609375,-822.265625,0.0,0,0
1772116579.581068,1772116579.5328362,-708.0078125,-7.32421875,213.8671875,-1000.0,0.0,0,0
1772116579.581103,1772116579.5367322,687.5,16.6015625,579.58984375,-191.40625,0.0,0,0
1772116579.58114,1772116579.5406282,913.57421875,-18.5546875,170.8984375,-854.4921875,0.0,0,0
1772116579.581177,1772116579.5445242,-415.52734375,15.13671875,-512.6953125,620.1171875,0.0,0,0
1772116579.5812118,1772116579.5484202,-1000.0,21.484375,-520.99609375,-635.7421875,0.0,0,0
1772116579.581247,1772116579.5523162,-745.60546875,-19.53125,150.390625,-1000.0,0.0,0,0
1772116579.581284,1772116579.5562122,474.12109375,12.20703125,585.44921875,-221.19140625,0.0,0,0
1772116579.5813189,1772116579.5601082,-901.85546875,-3.41796875,247.55859375,-937.5,0.0,0,0
1772116579.625788,1772116579.5640912,-132.32421875,-69.3359375,-433.10546875,853.515625,0.0,0,0
1772116579.625876,1772116579.5679872,-1000.0,-71.77734375,-540.0390625,-362.79296875,0.0,0,0
1772116579.625916,1772116579.5718832,-905.76171875,-10.7421875,70.3125,-1000.0,0.0,0,0
1772116579.625953,1772116579.5757792,247.55859375,10.7421875,592.28515625,-207.03125,0.0,0,0
1772116579.62599,1772116579.5796752,-830.56640625,-0.48828125,328.61328125,972.16796875,0.0,0,0
1772116579.62603,1772116579.5835712,88.8671875,-54.19921875,-350.09765625,-993.65234375,0.0,0,0
1772116579.626067,1772116579.5874672,-1000.0,-12.20703125,-521.484375,-82.03125,0.0,0,0
1772116579.626103,1772116579.5913632,-1000.0,77.63671875,-20.01953125,-1000.0,0.0,0,0
1772116579.626137,1772116579.5952592,-114.2578125,25.87890625,570.3125,-312.01171875,0.0,0,0
1772116579.626173,1772116579.5991552,-828.125,-8.7890625,447.265625,916.015625,0.0,0,0
1772116579.626208,1772116579.6030512,266.6015625,-41.015625,-264.6484375,-924.31640625,0.0,0,0
1772116579.626244,1772116579.6069472,-978.515625,-63.96484375,-556.640625,75.68359375,0.0,0,0
1772116579.671579,1772116579.6109211,-1000.0,-39.0625,-90.8203125,-1000.0,0.0,0,0
1772116579.671697,1772116579.6148171,-92.28515625,5.37109375,548.33984375,-519.04296875,0.0,0,0
1772116579.6717398,1772116579.6187131,-837.40234375,9.27734375,491.69921875,767.578125,0.0,0,0
1772116579.671778,1772116579.6226091,384.27734375,-39.0625,-187.98828125,-912.59765625,0.0,0,0
1772116579.671815,1772116579.6265051,-866.69921875,-63.96484375,-580.56640625,181.640625,0.0,0,0
1772116579.671854,1772116579.6304011,-1000.0,-41.50390625,-180.17578125,-1000.0,0.0,0,0
1772116579.671905,1772116579.6342974,-180.17578125,43.9453125,500.9765625,-760.7421875,0.0,0,0
1772116579.671943,1772116579.6381934,-903.80859375,48.33984375,509.765625,535.64453125,0.0,0,0
1772116579.6719801,1772116579.6420894,497.55859375,-33.69140625,-142.08984375,-854.4921875,0.0,0,0
1772116579.672019,1772116579.6459854,-765.13671875,-57.12890625,-600.09765625,161.1328125,0.0,0,0
1772116579.672056,1772116579.6498814,-1000.0,-48.33984375,-291.015625,-1000.0,0.0,0,0
1772116579.672114,1772116579.6537774,-286.62109375,-16.6015625,407.2265625,-960.44921875,0.0,0,0
1772116579.760206,1772116579.6577408,-931.640625,-3.90625,570.3125,249.51171875,0.0,0,0
1772116579.76036,1772116579.6616368,643.06640625,-38.57421875,-4.39453125,-806.15234375,0.0,0,0
1772116579.7604191,1772116579.6655328,-602.05078125,-67.87109375,-572.265625,202.1484375,0.0,0,0
1772116579.760472,1772116579.6694288,-1000.0,-48.33984375,-372.55859375,-923.828125,0.0,0,0
1772116579.7605262,1772116579.6733248,-441.40625,-17.08984375,322.75390625,-1000.0,0.0,0,0
1772116579.760576,1772116579.6772208,980.46875,32.71484375,582.51953125,5.37109375,0.0,0,0
1772116579.760622,1772116579.6811168,742.1875,36.62109375,75.68359375,-786.1328125,0.0,0,0
1772116579.760658,1772116579.6850128,-592.7734375,-64.94140625,-545.41015625,374.0234375,0.0,0,0
1772116579.760743,1772116579.688909,-1000.0,-61.03515625,-416.9921875,-768.5546875,0.0,0,0
1772116579.760787,1772116579.692805,-530.76171875,-5.859375,229.98046875,-1000.0,0.0,0,0
1772116579.760823,1772116579.696701,684.5703125,4.39453125,546.875,-190.91796875,0.0,0,0
1772116579.7608588,1772116579.700597,-979.4921875,-20.99609375,147.4609375,-841.30859375,0.0,0,0
1772116579.7749,1772116579.7045631,-178.22265625,-62.5,-502.9296875,568.84765625,0.0,0,0
1772116579.775003,1772116579.7084591,-1000.0,-62.98828125,-513.671875,-678.7109375,0.0,0,0
1772116579.775061,1772116579.7123554,-729.00390625,-24.4140625,132.32421875,-1000.0,0.0,0,0
1772116579.775114,1772116579.7162514,548.828125,1.46484375,544.921875,-226.07421875,0.0,0,0
1772116579.77517,1772116579.7201474,-873.046875,-13.18359375,208.49609375,-926.26953125,0.0,0,0
1772116579.7752478,1772116579.7240434,33.203125,-43.9453125,-437.01171875,822.265625,0.0,0,0
1772116579.775286,1772116579.7279394,-1000.0,-52.734375,-531.25,-419.921875,0.0,0,0
1772116579.7753248,1772116579.7318354,-912.109375,-19.04296875,66.40625,-1000.0,0.0,0,0
1772116579.775363,1772116579.7357316,293.45703125,22.94921875,602.5390625,-198.73046875,0.0,0,0
1772116579.775399,1772116579.7396276,-843.26171875,2.44140625,335.44921875,985.3515625,0.0,0,0
1772116579.775436,1772116579.7435236,43.9453125,-54.19921875,-376.953125,972.65625,0.0,0,0
1772116579.7754722,1772116579.7474196,-1000.0,-60.05859375,-556.640625,-135.25390625,0.0,0,0
1772116579.822012,1772116579.7514439,-1000.0,-25.87890625,-19.04296875,-1000.0,0.0,0,0
1772116579.82215,1772116579.7553399,-44.921875,3.90625,555.17578125,-284.1796875,0.0,0,0
1772116579.822206,1772116579.759236,-816.40625,0.48828125,397.4609375,920.41015625,0.0,0,0
1772116579.82226,1772116579.763132,273.92578125,-41.9921875,-275.390625,-933.59375,0.0,0,0
1772116579.82231,1772116579.767028,-964.35546875,-54.6875,-544.43359375,56.15234375,0.0,0,0
1772116579.822359,1772116579.770924,-1000.0,-13.18359375,-76.171875,-1000.0,0.0,0,0
1772116579.822409,1772116579.77482,-140.625,15.13671875,574.70703125,-461.9140625,0.0,0,0
1772116579.822459,1772116579.7787163,-875.0,-21.97265625,488.76953125,774.90234375,0.0,0,0
1772116579.822521,1772116579.7826123,433.10546875,-14.16015625,-203.61328125,-944.82421875,0.0,0,0
1772116579.8225741,1772116579.7865083,-818.84765625,-10.25390625,-555.17578125,174.8046875,0.0,0,0
1772116579.822623,1772116579.7904043,-1000.0,-51.26953125,-174.31640625,-1000.0,0.0,0,0
1772116579.82267,1772116579.7943006,-138.671875,-19.04296875,496.58203125,-731.4453125,0.0,0,0
1772116579.865706,1772116579.7983134,-851.07421875,-7.32421875,540.0390625,619.140625,0.0,0,0
1772116579.866006,1772116579.8022096,453.125,-36.1328125,-110.3515625,-922.8515625,0.0,0,0
1772116579.866051,1772116579.8061056,-790.0390625,-59.5703125,-561.5234375,80.078125,0.0,0,0
1772116579.8660889,1772116579.8100016,-1000.0,-53.7109375,-234.86328125,-1000.0,0.0,0,0
1772116579.866126,1772116579.8138976,-302.734375,-19.53125,444.3359375,-920.8984375,0.0,0,0
1772116579.8661618,1772116579.8177938,-937.98828125,0.48828125,568.84765625,296.38671875,0.0,0,0
1772116579.866202,1772116579.8216898,581.0546875,-43.9453125,-33.203125,-815.4296875,0.0,0,0
1772116579.8662379,1772116579.8255858,-696.77734375,-84.9609375,-595.703125,177.734375,0.0,0,0
1772116579.866274,1772116579.829482,-1000.0,-58.10546875,-380.859375,-954.58984375,0.0,0,0
1772116579.86631,1772116579.833378,-311.5234375,-12.20703125,321.77734375,-1000.0,0.0,0,0
1772116579.866345,1772116579.837274,-995.60546875,-3.90625,546.875,26.3671875,0.0,0,0
1772116579.866383,1772116579.8411703,835.44921875,-30.2734375,65.4296875,-783.69140625,0.0,0,0
1772116579.910722,1772116579.845172,-350.5859375,-62.98828125,-534.66796875,317.3828125,0.0,0,0
1772116579.9108,1772116579.8490682,-1000.0,-61.03515625,-419.43359375,-829.58984375,0.0,0,0
1772116579.9108422,1772116579.8529642,-517.08984375,-19.53125,272.94921875,-1000.0,0.0,0,0
1772116579.910881,1772116579.8568604,823.2421875,11.71875,578.125,-158.203125,0.0,0,0
1772116579.910918,1772116579.8607564,927.24609375,-23.92578125,150.390625,-824.70703125,0.0,0,0
1772116579.9109561,1772116579.8646524,-323.73046875,-75.68359375,-502.9296875,523.4375,0.0,0,0
1772116579.9109938,1772116579.8685486,-1000.0,-62.01171875,-480.95703125,-695.80078125,0.0,0,0
1772116579.91103,1772116579.8724446,-564.453125,24.4140625,189.453125,-1000.0,0.0,0,0
1772116579.911065,1772116579.8763406,659.66796875,81.0546875,576.66015625,-231.93359375,0.0,0,0
1772116579.911102,1772116579.8802369,-957.03125,-0.9765625,209.47265625,-909.1796875,0.0,0,0
1772116579.911139,1772116579.8841329,-161.1328125,-56.640625,-474.12109375,775.390625,0.0,0,0
1772116579.9111738,1772116579.888029,-1000.0,-51.26953125,-541.015625,-462.40234375,0.0,0,0
1772116579.956628,1772116579.892022,-794.921875,-23.4375,94.7265625,-1000.0,0.0,0,0
1772116579.956723,1772116579.895918,387.6953125,6.8359375,593.75,-196.77734375,0.0,0,0
1772116579.9567602,1772116579.8998141,-838.37890625,-3.90625,323.2421875,-980.95703125,0.0,0,0
1772116579.956797,1772116579.9037101,44.921875,-48.828125,-383.7890625,962.890625,0.0,0,0
1772116579.956834,1772116579.9076061,-1000.0,-55.17578125,-545.8984375,-179.6875,0.0,0,0
1772116579.956875,1772116579.9115024,-820.80078125,-24.90234375,37.59765625,-1000.0,0.0,0,0
1772116579.956912,1772116579.9153984,215.33203125,1.46484375,597.16796875,-260.25390625,0.0,0,0
1772116579.956948,1772116579.9192946,-849.609375,20.01953125,393.06640625,940.91796875,0.0,0,0
1772116579.956984,1772116579.9231906,207.03125,-28.3203125,-294.43359375,-936.03515625,0.0,0,0
1772116579.9570198,1772116579.9270868,-1000.0,-69.3359375,-541.9921875,15.625,0.0,0,0
1772116579.95706,1772116579.9309828,-1000.0,-26.85546875,-84.47265625,-1000.0,0.0,0,0
1772116579.957094,1772116579.9348788,67.3828125,18.5546875,543.45703125,-433.59375,0.0,0,0
1772116580.00059,1772116579.9388628,-836.9140625,9.765625,485.83984375,840.33203125,0.0,0,0
1772116580.0006888,1772116579.9427588,382.32421875,-42.48046875,-190.4296875,-907.71484375,0.0,0,0
1772116580.000732,1772116579.946655,-895.5078125,-56.640625,-543.45703125,156.73828125,0.0,0,0
1772116580.00077,1772116579.950551,-1000.0,-17.08984375,-157.71484375,-1000.0,0.0,0,0
1772116580.000809,1772116579.9544473,-28.80859375,22.4609375,504.39453125,-679.19921875,0.0,0,0
1772116580.000847,1772116579.9583433,-853.02734375,11.23046875,545.41015625,671.38671875,0.0,0,0
1772116580.0008872,1772116579.9622395,438.96484375,-9.27734375,-104.4921875,-849.12109375,0.0,0,0
1772116580.000934,1772116579.9661355,-792.96875,-18.5546875,-564.453125,171.875,0.0,0,0
1772116580.000972,1772116579.9700317,-1000.0,-53.22265625,-252.44140625,-1000.0,0.0,0,0
1772116580.001008,1772116579.9739277,-198.2421875,-29.296875,443.359375,-908.203125,0.0,0,0
1772116580.001044,1772116579.977824,-908.203125,-13.671875,560.05859375,364.2578125,0.0,0,0
1772116580.001081,1772116579.98172,653.3203125,-57.12890625,-18.5546875,-809.5703125,0.0,0,0
1772116580.0621061,1772116579.985777,-566.40625,-101.5625,-539.0625,164.55078125,0.0,0,0
1772116580.062237,1772116579.989673,-1000.0,-90.33203125,-320.80078125,-955.56640625,0.0,0,0
1772116580.062294,1772116579.9935691,-367.67578125,-49.31640625,373.046875,-1000.0,0.0,0,0
1772116580.062345,1772116579.9974651,-981.4453125,-34.66796875,588.8671875,77.63671875,0.0,0,0
1772116580.0623949,1772116580.0013614,672.8515625,-65.4296875,63.4765625,-771.484375,0.0,0,0
1772116580.0624452,1772116580.0052576,-591.796875,-106.93359375,-537.59765625,302.24609375,0.0,0,0
1772116580.062498,1772116580.0091536,-1000.0,-42.96875,-411.62109375,-861.328125,0.0,0,0
1772116580.062546,1772116580.0130498,-499.0234375,5.37109375,262.6953125,-1000.0,0.0,0,0
1772116580.0625951,1772116580.0169458,832.03125,-27.83203125,566.40625,-127.9296875,0.0,0,0
1772116580.062644,1772116580.020842,-998.53515625,-49.31640625,146.97265625,-812.98828125,0.0,0,0
1772116580.0626938,1772116580.0247383,-184.5703125,-91.30859375,-510.25390625,478.515625,0.0,0,0
1772116580.062743,1772116580.0286343,-1000.0,-96.6796875,-490.234375,-747.0703125,0.0,0,0
1772116580.106612,1772116580.0326161,-682.12890625,-56.15234375,200.1953125,-1000.0,0.0,0,0
1772116580.106743,1772116580.0365124,627.44140625,-39.0625,583.984375,-221.6796875,0.0,0,0
1772116580.1068,1772116580.0404084,-937.5,-52.24609375,222.16796875,-895.01953125,0.0,0,0
1772116580.106853,1772116580.0443046,-160.15625,-77.1484375,-450.68359375,742.1875,0.0,0,0
1772116580.106904,1772116580.0482008,-1000.0,-77.63671875,-525.87890625,-510.7421875,0.0,0,0
1772116580.106962,1772116580.0520968,-631.8359375,-33.203125,129.39453125,-1000.0,0.0,0,0
1772116580.107023,1772116580.055993,586.9140625,-4.8828125,617.1875,-200.1953125,0.0,0,0
1772116580.107072,1772116580.059889,-888.18359375,-28.80859375,300.29296875,-978.515625,0.0,0,0
1772116580.107123,1772116580.0637853,16.6015625,-73.73046875,-380.859375,949.70703125,0.0,0,0
1772116580.107182,1772116580.0676816,-1000.0,-74.70703125,-541.50390625,-244.62890625,0.0,0,0
1772116580.107231,1772116580.0715775,-909.1796875,-27.83203125,8.30078125,-1000.0,0.0,0,0
1772116580.107287,1772116580.0754738,245.1171875,1.953125,586.42578125,-239.2578125,0.0,0,0
1772116580.151455,1772116580.0795105,-828.125,-11.23046875,391.11328125,971.19140625,0.0,0,0
1772116580.151584,1772116580.0834067,131.34765625,-49.31640625,-316.40625,-948.2421875,0.0,0,0
1772116580.1516411,1772116580.0873027,-1000.0,-67.3828125,-555.17578125,-12.6953125,0.0,0,0
1772116580.151696,1772116580.091199,-1000.0,-39.55078125,-67.3828125,-1000.0,0.0,0,0
1772116580.151745,1772116580.0950952,-25.390625,-2.44140625,570.3125,-395.99609375,0.0,0,0
1772116580.151795,1772116580.0989914,-837.40234375,-18.5546875,500.9765625,880.37109375,0.0,0,0
1772116580.151849,1772116580.1028874,306.15234375,-47.8515625,-205.078125,-895.5078125,0.0,0,0
1772116580.1518989,1772116580.1067836,-943.84765625,-49.31640625,-570.80078125,133.30078125,0.0,0,0
1772116580.151968,1772116580.1106799,-1000.0,-19.53125,-168.9453125,-1000.0,0.0,0,0
1772116580.1520169,1772116580.1145759,-47.8515625,17.578125,512.20703125,-641.11328125,0.0,0,0
1772116580.1520681,1772116580.118472,-850.09765625,16.6015625,514.6484375,705.078125,0.0,0,0
1772116580.152127,1772116580.1223683,444.82421875,-16.6015625,-158.203125,-856.93359375,0.0,0,0
1772116580.2118201,1772116580.1263988,-791.50390625,-42.96875,-588.37890625,176.7578125,0.0,0,0
1772116580.2119439,1772116580.130295,-1000.0,-33.69140625,-245.60546875,-1000.0,0.0,0,0
1772116580.211997,1772116580.1341913,-181.15234375,4.39453125,459.47265625,-870.1171875,0.0,0,0
1772116580.2120478,1772116580.1380873,-884.27734375,19.53125,564.94140625,428.22265625,0.0,0,0
1772116580.212099,1772116580.1419835,527.34375,-10.7421875,-61.03515625,-799.31640625,0.0,0,0
1772116580.212408,1772116580.1458797,-716.796875,-39.55078125,-589.35546875,163.57421875,0.0,0,0
1772116580.212464,1772116580.149776,-1000.0,-28.80859375,-323.2421875,-986.328125,0.0,0,0
1772116580.212513,1772116580.1536722,-389.16015625,-5.37109375,362.3046875,-1000.0,0.0,0,0
1772116580.212563,1772116580.1575685,-985.83984375,35.64453125,532.2265625,130.859375,0.0,0,0
1772116580.212613,1772116580.1614645,702.1484375,34.66796875,-2.9296875,-788.0859375,0.0,0,0
1772116580.212661,1772116580.1653607,-559.5703125,-42.48046875,-588.8671875,259.765625,0.0,0,0
1772116580.21271,1772116580.169257,-1000.0,-44.921875,-423.33984375,-898.92578125,0.0,0,0
1772116580.242017,1772116580.173274,-435.546875,-5.859375,282.71484375,-1000.0,0.0,0,0
1772116580.242199,1772116580.1771703,916.015625,5.37109375,562.01171875,-92.7734375,0.0,0,0
1772116580.242272,1772116580.1810665,924.8046875,-26.85546875,103.515625,-803.7109375,0.0,0,0
1772116580.242433,1772116580.1849627,-256.8359375,-65.91796875,-535.64453125,449.21875,0.0,0,0
1772116580.242542,1772116580.188859,-1000.0,-52.734375,-483.88671875,-801.26953125,0.0,0,0
1772116580.242599,1772116580.1927552,-609.375,-1.46484375,207.03125,-1000.0,0.0,0,0
1772116580.2426398,1772116580.1966515,710.44921875,12.6953125,555.6640625,-209.9609375,0.0,0,0
1772116580.2427032,1772116580.2005475,-945.80078125,-14.16015625,154.296875,-877.44140625,0.0,0,0
1772116580.242741,1772116580.2044437,-120.1171875,-26.85546875,-491.2109375,683.10546875,0.0,0,0
1772116580.242778,1772116580.20834,-1000.0,-40.0390625,-528.80859375,-591.796875,0.0,0,0
1772116580.2428339,1772116580.2122362,-747.55859375,-31.73828125,111.328125,-1000.0,0.0,0,0
1772116580.2428741,1772116580.2161324,530.76171875,11.23046875,589.84375,-207.03125,0.0,0,0
1772116580.2859368,1772116580.2201355,-891.6015625,2.44140625,280.76171875,-964.84375,0.0,0,0
1772116580.28608,1772116580.2240317,-54.19921875,-57.6171875,-412.59765625,923.828125,0.0,0,0
1772116580.2861362,1772116580.227928,-1000.0,-70.3125,-545.41015625,-303.22265625,0.0,0,0
1772116580.286187,1772116580.2318242,-831.0546875,-26.85546875,24.90234375,-1000.0,0.0,0,0
1772116580.2862358,1772116580.2357202,316.40625,8.30078125,555.17578125,-220.21484375,0.0,0,0
1772116580.286286,1772116580.2396164,-845.703125,-1.46484375,344.7265625,987.3046875,0.0,0,0
1772116580.286346,1772116580.2435126,100.09765625,-56.640625,-344.7265625,-964.35546875,0.0,0,0
1772116580.286397,1772116580.2474089,-1000.0,-36.62109375,-594.23828125,-67.3828125,0.0,0,0
1772116580.2864451,1772116580.251305,-1000.0,34.66796875,-96.19140625,-1000.0,0.0,0,0
1772116580.2864919,1772116580.2552013,7.8125,15.13671875,540.52734375,-361.81640625,0.0,0,0
1772116580.2865732,1772116580.2590976,-817.3828125,-7.8125,444.82421875,894.53125,0.0,0,0
1772116580.28661,1772116580.2629938,273.4375,-39.55078125,-250.48828125,-906.73828125,0.0,0,0
1772116580.360965,1772116580.267144,-960.44921875,-60.546875,-566.89453125,122.0703125,0.0,0,0
1772116580.36109,1772116580.2710402,-1000.0,-35.15625,-142.578125,-1000.0,0.0,0,0
1772116580.3611321,1772116580.2749364,-165.0390625,16.6015625,525.87890625,-562.01171875,0.0,0,0
1772116580.3611698,1772116580.2788327,-847.65625,9.27734375,505.859375,771.484375,0.0,0,0
1772116580.3612092,1772116580.282729,407.71484375,-41.015625,-198.73046875,-877.44140625,0.0,0,0
1772116580.3612459,1772116580.2866251,-857.421875,-54.6875,-583.0078125,180.6640625,0.0,0,0
1772116580.361283,1772116580.2905214,-1000.0,-50.29296875,-215.33203125,-1000.0,0.0,0,0
1772116580.3613179,1772116580.2944176,-229.98046875,55.17578125,441.40625,-820.80078125,0.0,0,0
1772116580.3613539,1772116580.2983139,-887.20703125,78.125,545.41015625,505.859375,0.0,0,0
1772116580.36139,1772116580.3022103,540.52734375,-24.4140625,-62.01171875,-827.1484375,0.0,0,0
1772116580.36146,1772116580.3061066,-735.83984375,-41.015625,-580.078125,152.83203125,0.0,0,0
1772116580.3614972,1772116580.3100028,-1000.0,-29.296875,-326.171875,-1000.0,0.0,0,0
1772116580.376718,1772116580.313988,-305.6640625,-5.37109375,363.28125,-998.53515625,0.0,0,0
1772116580.3768141,1772116580.3178842,-929.6875,13.671875,529.296875,180.6640625,0.0,0,0
1772116580.376874,1772116580.3217804,638.18359375,-20.01953125,-23.92578125,-784.1796875,0.0,0,0
1772116580.376927,1772116580.3256767,-657.2265625,-60.05859375,-596.6796875,239.74609375,0.0,0,0
1772116580.3769789,1772116580.3295732,-1000.0,-53.22265625,-422.8515625,-938.96484375,0.0,0,0
1772116580.377033,1772116580.3334694,-341.30859375,-12.6953125,297.36328125,-1000.0,0.0,0,0
1772116580.3770869,1772116580.3373656,-988.76953125,2.9296875,572.75390625,-57.6171875,0.0,0,0
1772116580.377142,1772116580.3412619,755.37109375,-29.296875,81.54296875,-791.50390625,0.0,0,0
1772116580.377193,1772116580.345158,-479.4921875,-59.08203125,-578.61328125,404.296875,0.0,0,0
1772116580.37725,1772116580.3490543,-1000.0,-48.828125,-510.25390625,-835.9375,0.0,0,0
1772116580.377302,1772116580.3529508,-610.3515625,-16.6015625,200.68359375,-1000.0,0.0,0,0
1772116580.3773382,1772116580.356847,732.421875,9.765625,548.33984375,-205.56640625,0.0,0,0
1772116580.420665,1772116580.3608189,-996.58203125,-10.7421875,141.6015625,-867.1875,0.0,0,0
1772116580.420748,1772116580.3647153,-238.28125,-62.98828125,-505.37109375,650.87890625,0.0,0,0
1772116580.420786,1772116580.3686116,-1000.0,2.44140625,-528.3203125,-625.9765625,0.0,0,0
1772116580.420823,1772116580.3725078,-834.9609375,59.5703125,102.05078125,-1000.0,0.0,0,0
1772116580.4208598,1772116580.376404,388.671875,6.8359375,526.85546875,-213.8671875,0.0,0,0
1772116580.420896,1772116580.3803005,-852.05078125,-6.34765625,235.83984375,-945.80078125,0.0,0,0
1772116580.420933,1772116580.3841968,-7.8125,-14.6484375,-431.15234375,886.71875,0.0,0,0
1772116580.420969,1772116580.388093,-1000.0,-37.59765625,-564.94140625,-372.0703125,0.0,0,0
1772116580.421004,1772116580.3919892,-846.19140625,-35.15625,34.66796875,-1000.0,0.0,0,0
1772116580.421041,1772116580.3958855,319.3359375,-8.30078125,559.5703125,-209.47265625,0.0,0,0
1772116580.4210858,1772116580.399782,-838.37890625,-18.06640625,333.49609375,994.62890625,0.0,0,0
1772116580.421123,1772116580.4036782,98.6328125,-53.7109375,-350.09765625,-978.515625,0.0,0,0
1772116580.511169,1772116580.4076397,-1000.0,-63.4765625,-566.89453125,-99.12109375,0.0,0,0
1772116580.511306,1772116580.411536,-1000.0,-27.83203125,-42.96875,-1000.0,0.0,0,0
1772116580.511359,1772116580.4154325,43.45703125,10.25390625,562.98828125,-329.1015625,0.0,0,0
1772116580.51141,1772116580.4193287,-826.66015625,1.46484375,418.45703125,902.34375,0.0,0,0
1772116580.511461,1772116580.423225,245.1171875,-48.828125,-269.53125,-918.45703125,0.0,0,0
1772116580.511564,1772116580.4271212,-981.93359375,-42.48046875,-540.0390625,104.98046875,0.0,0,0
1772116580.511689,1772116580.4310176,-1000.0,6.8359375,-106.93359375,-1000.0,0.0,0,0
1772116580.511743,1772116580.4349139,-85.44921875,11.23046875,515.13671875,-556.15234375,0.0,0,0
1772116580.511793,1772116580.43881,-843.26171875,-5.37109375,486.328125,775.87890625,0.0,0,0
1772116580.511843,1772116580.4427063,415.52734375,-36.1328125,-181.640625,-877.9296875,0.0,0,0
1772116580.511899,1772116580.4466028,-881.34765625,-49.31640625,-591.30859375,175.78125,0.0,0,0
1772116580.511949,1772116580.450499,-1000.0,-34.66796875,-214.84375,-1000.0,0.0,0,0
1772116580.526352,1772116580.454469,-43.45703125,1.46484375,461.42578125,-802.734375,0.0,0,0
1772116580.5264199,1772116580.4583654,-883.7890625,13.18359375,507.8125,539.55078125,0.0,0,0
1772116580.526471,1772116580.4622617,530.76171875,-22.4609375,-96.6796875,-812.5,0.0,0,0
1772116580.5265212,1772116580.466158,-720.703125,-63.96484375,-574.70703125,155.2734375,0.0,0,0
1772116580.526571,1772116580.4700544,-1000.0,-53.7109375,-298.33984375,-1000.0,0.0,0,0
1772116580.526619,1772116580.4739506,-204.58984375,-10.25390625,402.34375,-979.4921875,0.0,0,0
1772116580.526669,1772116580.4778469,-916.50390625,-1.46484375,546.875,217.7734375,0.0,0,0
1772116580.526718,1772116580.481743,675.78125,-34.66796875,-33.203125,-792.48046875,0.0,0,0
1772116580.5267682,1772116580.4856396,-540.52734375,-65.91796875,-589.35546875,220.21484375,0.0,0,0
1772116580.5270941,1772116580.4895358,-1000.0,-63.96484375,-406.73828125,-939.453125,0.0,0,0
1772116580.527148,1772116580.493432,-423.828125,-28.3203125,280.76171875,-1000.0,0.0,0,0
1772116580.5271978,1772116580.4973285,942.3828125,-2.9296875,540.0390625,-15.13671875,0.0,0,0
1772116580.5711622,1772116580.50135,871.58203125,-41.015625,62.01171875,-785.64453125,0.0,0,0
1772116580.571275,1772116580.5052462,-370.60546875,-91.30859375,-579.1015625,361.328125,0.0,0,0
1772116580.571319,1772116580.5091426,-1000.0,-67.3828125,-481.93359375,-766.6015625,0.0,0,0
1772116580.571361,1772116580.5130389,-602.05078125,-24.90234375,205.56640625,-995.1171875,0.0,0,0
1772116580.571399,1772116580.516935,615.72265625,-0.48828125,526.3671875,-203.61328125,0.0,0,0
1772116580.5714371,1772116580.5208316,-974.609375,13.671875,140.13671875,-852.05078125,0.0,0,0
1772116580.5714738,1772116580.5247278,-227.5390625,-41.50390625,-514.6484375,614.2578125,0.0,0,0
1772116580.57151,1772116580.528624,-1000.0,-69.3359375,-554.6875,-711.9140625,0.0,0,0
1772116580.571548,1772116580.5325205,-685.05859375,-15.13671875,94.7265625,-1000.0,0.0,0,0
1772116580.571584,1772116580.5364168,592.7734375,23.92578125,561.5234375,-211.42578125,0.0,0,0
1772116580.57162,1772116580.5403132,-911.62109375,-10.7421875,225.09765625,-936.03515625,0.0,0,0
1772116580.5716622,1772116580.5442095,-74.21875,-61.03515625,-469.7265625,847.16796875,0.0,0,0
1772116580.615654,1772116580.5482206,-1000.0,-68.84765625,-561.5234375,-385.7421875,0.0,0,0
1772116580.615766,1772116580.552117,-880.859375,-29.296875,47.36328125,-1000.0,0.0,0,0
1772116580.6158102,1772116580.5560133,290.52734375,11.23046875,574.70703125,-201.66015625,0.0,0,0
1772116580.6158552,1772116580.5599098,-831.0546875,-2.9296875,323.73046875,994.140625,0.0,0,0
1772116580.6159291,1772116580.563806,57.12890625,-49.8046875,-391.6015625,-991.69921875,0.0,0,0
1772116580.615969,1772116580.5677023,-1000.0,-63.96484375,-574.21875,-107.91015625,0.0,0,0
1772116580.616006,1772116580.5715988,-1000.0,-45.41015625,-42.48046875,-1000.0,0.0,0,0
1772116580.616041,1772116580.575495,0.9765625,-17.578125,527.34375,-311.03515625,0.0,0,0
1772116580.6160781,1772116580.5793915,-831.0546875,30.2734375,387.6953125,926.7578125,0.0,0,0
1772116580.616114,1772116580.5832877,255.859375,-6.8359375,-294.43359375,-917.48046875,0.0,0,0
1772116580.616161,1772116580.5871842,-959.9609375,-62.98828125,-572.265625,63.4765625,0.0,0,0
1772116580.616197,1772116580.5910804,-1000.0,-40.52734375,-121.58203125,-1000.0,0.0,0,0
1772116580.662147,1772116580.5950818,-158.69140625,-1.953125,520.5078125,-496.58203125,0.0,0,0
1772116580.662281,1772116580.598978,-858.88671875,-3.41796875,470.21484375,819.82421875,0.0,0,0
1772116580.662338,1772116580.6028745,466.796875,-45.41015625,-203.61328125,-879.39453125,0.0,0,0
1772116580.662391,1772116580.6067708,-804.19921875,-62.5,-578.61328125,172.36328125,0.0,0,0
1772116580.662443,1772116580.6106672,-1000.0,-44.921875,-229.4921875,-1000.0,0.0,0,0
1772116580.6624908,1772116580.6145635,-126.46484375,7.8125,454.1015625,-746.58203125,0.0,0,0
1772116580.662542,1772116580.61846,-872.0703125,-5.859375,517.578125,602.05078125,0.0,0,0
1772116580.6625862,1772116580.6223562,494.140625,-30.2734375,-138.671875,-830.078125,0.0,0,0
1772116580.662622,1772116580.6262527,-716.796875,-11.23046875,-605.46875,161.62109375,0.0,0,0
1772116580.662658,1772116580.630149,-1000.0,-34.1796875,-306.640625,-1000.0,0.0,0,0
1772116580.662693,1772116580.6340454,-242.67578125,-15.13671875,377.9296875,-966.796875,0.0,0,0
1772116580.66274,1772116580.6379416,-934.08203125,2.44140625,532.71484375,272.4609375,0.0,0,0
1772116580.705722,1772116580.6419334,689.453125,-27.83203125,-37.59765625,-783.203125,0.0,0,0
1772116580.705819,1772116580.6458297,-510.7421875,-61.5234375,-588.37890625,195.3125,0.0,0,0
1772116580.7058592,1772116580.6497262,-1000.0,-54.19921875,-368.65234375,-927.24609375,0.0,0,0
1772116580.705895,1772116580.6536224,-379.8828125,-11.71875,320.80078125,-1000.0,0.0,0,0
1772116580.7059321,1772116580.6575189,912.59765625,2.9296875,527.34375,-6.34765625,0.0,0,0
1772116580.7059689,1772116580.6614153,984.86328125,-18.5546875,55.17578125,-776.3671875,0.0,0,0
1772116580.706006,1772116580.6653116,-144.53125,-71.77734375,-558.59375,338.37890625,0.0,0,0
1772116580.7060428,1772116580.669208,-1000.0,-49.31640625,-479.98046875,-868.1640625,0.0,0,0
1772116580.706079,1772116580.6731043,-598.6328125,1.46484375,218.75,-1000.0,0.0,0,0
1772116580.7061179,1772116580.6770008,784.1796875,-5.37109375,544.43359375,-172.8515625,0.0,0,0
1772116580.7061539,1772116580.680897,962.40234375,-25.390625,125.0,-840.33203125,0.0,0,0
1772116580.7061892,1772116580.6847935,-269.04296875,-59.08203125,-515.625,573.2421875,0.0,0,0
1772116580.7504451,1772116580.6887739,-1000.0,-59.5703125,-514.6484375,-702.63671875,0.0,0,0
1772116580.750527,1772116580.6926703,-720.703125,-22.4609375,130.859375,-1000.0,0.0,0,0
1772116580.750571,1772116580.6965666,572.265625,-0.9765625,544.43359375,-220.703125,0.0,0,0
1772116580.750614,1772116580.700463,-914.0625,-23.92578125,197.265625,-921.875,0.0,0,0
1772116580.7506518,1772116580.7043595,-127.44140625,-59.5703125,-485.83984375,814.94140625,0.0,0,0
1772116580.750693,1772116580.7082558,-1000.0,-70.80078125,-561.5234375,-423.828125,0.0,0,0
1772116580.75073,1772116580.7121522,-906.73828125,-22.4609375,65.4296875,-1000.0,0.0,0,0
1772116580.750766,1772116580.7160485,244.62890625,25.87890625,546.38671875,-199.70703125,0.0,0,0
1772116580.750804,1772116580.719945,-854.00390625,-26.85546875,276.3671875,992.67578125,0.0,0,0
1772116580.75084,1772116580.7238414,69.82421875,-79.1015625,-379.8828125,987.3046875,0.0,0,0
1772116580.750877,1772116580.7277377,-1000.0,-73.73046875,-554.6875,-165.0390625,0.0,0,0
1772116580.750911,1772116580.7316341,-969.23828125,-33.203125,-20.99609375,-1000.0,0.0,0,0
1772116580.809269,1772116580.7356052,121.58203125,2.9296875,559.08203125,-282.2265625,0.0,0,0
1772116580.809393,1772116580.7395015,-829.1015625,-7.32421875,368.1640625,932.6171875,0.0,0,0
1772116580.809451,1772116580.743398,370.60546875,-49.31640625,-310.546875,-935.05859375,0.0,0,0
1772116580.809512,1772116580.7472944,-928.7109375,-74.70703125,-586.42578125,28.80859375,0.0,0,0
1772116580.8095639,1772116580.7511907,-1000.0,-45.41015625,-143.5546875,-1000.0,0.0,0,0
1772116580.809613,1772116580.7550871,5.37109375,-15.625,526.3671875,-463.8671875,0.0,0,0
1772116580.809663,1772116580.7589836,-831.0546875,23.4375,462.890625,838.8671875,0.0,0,0
1772116580.8097138,1772116580.7628798,258.7890625,3.41796875,-231.4453125,-894.04296875,0.0,0,0
1772116580.8097641,1772116580.7667763,-945.80078125,-61.03515625,-574.21875,167.48046875,0.0,0,0
1772116580.809814,1772116580.7706728,-1000.0,-39.0625,-179.19921875,-1000.0,0.0,0,0
1772116580.809864,1772116580.774569,-187.5,4.8828125,479.4921875,-697.75390625,0.0,0,0
1772116580.809912,1772116580.7784655,-864.2578125,0.48828125,501.46484375,653.3203125,0.0,0,0
1772116580.855447,1772116580.782426,452.1484375,-44.921875,-157.71484375,-842.7734375,0.0,0,0
1772116580.855537,1772116580.7863226,-791.9921875,-68.359375,-608.3984375,167.48046875,0.0,0,0
1772116580.855585,1772116580.7902188,-1000.0,-48.828125,-286.1328125,-1000.0,0.0,0,0
1772116580.855621,1772116580.7941153,-302.24609375,-3.41796875,394.53125,-933.59375,0.0,0,0
1772116580.855658,1772116580.7980118,-931.15234375,0.9765625,528.3203125,334.9609375,0.0,0,0
1772116580.855699,1772116580.801908,617.67578125,-24.90234375,-37.59765625,-782.2265625,0.0,0,0
1772116580.855736,1772116580.8058045,-613.28125,-46.38671875,-589.35546875,178.22265625,0.0,0,0
1772116580.855772,1772116580.809701,-1000.0,-59.08203125,-372.55859375,-969.7265625,0.0,0,0
1772116580.855807,1772116580.8135974,-564.453125,-20.99609375,301.7578125,-1000.0,0.0,0,0
1772116580.855842,1772116580.8174937,895.99609375,20.01953125,514.6484375,65.4296875,0.0,0,0
1772116580.8558779,1772116580.8213902,784.66796875,-3.41796875,32.2265625,-775.390625,0.0,0,0
1772116580.855915,1772116580.8252866,-507.32421875,-54.19921875,-557.12890625,321.77734375,0.0,0,0
1772116580.900804,1772116580.829316,-1000.0,-44.43359375,-440.91796875,-899.90234375,0.0,0,0
1772116580.9010859,1772116580.8332124,-578.125,8.7890625,254.8828125,-1000.0,0.0,0,0
1772116580.9011421,1772116580.8371089,800.29296875,43.45703125,592.28515625,-140.13671875,0.0,0,0
1772116580.901195,1772116580.841005,956.54296875,31.73828125,174.31640625,-831.54296875,0.0,0,0
1772116580.901247,1772116580.8449016,-309.08203125,-3.41796875,-481.4453125,523.92578125,0.0,0,0
1772116580.9012969,1772116580.848798,-1000.0,-3.41796875,-458.49609375,-793.45703125,0.0,0,0
1772116580.901346,1772116580.8526945,-1000.0,39.0625,184.08203125,-1000.0,0.0,0,0
1772116580.901394,1772116580.856591,243.65234375,74.21875,581.0546875,-214.35546875,0.0,0,0
1772116580.901443,1772116580.8604872,-910.64453125,58.10546875,270.01953125,-909.1796875,0.0,0,0
1772116580.901493,1772116580.8643837,-231.4453125,13.18359375,-403.3203125,769.04296875,0.0,0,0
1772116580.901542,1772116580.8682802,-1000.0,10.7421875,-504.8828125,-578.125,0.0,0,0
1772116580.90159,1772116580.8721766,-899.90234375,49.8046875,114.2578125,-1000.0,0.0,0,0
1772116580.963504,1772116580.8762772,287.59765625,73.73046875,618.1640625,-188.96484375,0.0,0,0
1772116580.96363,1772116580.8801737,-900.390625,46.38671875,339.84375,997.55859375,0.0,0,0
1772116580.963688,1772116580.8840702,-110.83984375,0.9765625,-350.09765625,956.0546875,0.0,0,0
1772116580.963742,1772116580.8879666,-1000.0,-12.6953125,-524.90234375,-233.88671875,0.0,0,0
1772116580.963795,1772116580.891863,-1000.0,17.08984375,4.8828125,-1000.0,0.0,0,0
1772116580.963843,1772116580.8957596,-48.828125,57.6171875,591.796875,-263.671875,0.0,0,0
1772116580.9638941,1772116580.8996558,-818.84765625,48.33984375,427.24609375,944.3359375,0.0,0,0
1772116580.963944,1772116580.9035523,159.1796875,-17.08984375,-286.1328125,-944.3359375,0.0,0,0
1772116580.963994,1772116580.9074488,-1000.0,-15.13671875,-560.546875,-1.953125,0.0,0,0
1772116580.964043,1772116580.9113452,-1000.0,51.26953125,-86.42578125,-1000.0,0.0,0,0
1772116580.96409,1772116580.9152417,-76.66015625,64.94140625,556.640625,-431.640625,0.0,0,0
1772116580.96414,1772116580.9191382,-847.65625,40.52734375,484.86328125,867.1875,0.0,0,0
1772116580.991765,1772116580.9231563,350.5859375,-18.5546875,-211.42578125,-895.99609375,0.0,0,0
1772116580.9918451,1772116580.9270527,-905.2734375,-53.7109375,-570.80078125,151.3671875,0.0,0,0
1772116580.9918988,1772116580.9309492,-1000.0,-34.66796875,-180.6640625,-1000.0,0.0,0,0
1772116580.991949,1772116580.9348457,-118.65234375,0.9765625,471.6796875,-683.59375,0.0,0,0
1772116580.991999,1772116580.938742,-884.765625,2.9296875,490.72265625,668.45703125,0.0,0,0
1772116580.992048,1772116580.9426384,605.95703125,-44.921875,-151.85546875,-847.16796875,0.0,0,0
1772116580.992098,1772116580.9465349,-639.6484375,-84.47265625,-617.67578125,170.8984375,0.0,0,0
1772116580.992147,1772116580.9504313,-1000.0,-53.22265625,-304.6875,-1000.0,0.0,0,0
1772116580.992193,1772116580.9543278,-203.61328125,3.41796875,387.6953125,-918.9453125,0.0,0,0
1772116580.992254,1772116580.9582243,-922.36328125,8.7890625,490.72265625,357.91015625,0.0,0,0
1772116580.992317,1772116580.9621208,666.015625,-36.1328125,-103.515625,-795.41015625,0.0,0,0
1772116580.992367,1772116580.9660172,-521.484375,-77.63671875,-644.53125,169.43359375,0.0,0,0
1772116581.037879,1772116580.9700205,-1000.0,-50.29296875,-417.48046875,-974.609375,0.0,0,0
1772116581.037963,1772116580.973917,-378.90625,-7.8125,287.109375,-1000.0,0.0,0,0
1772116581.038015,1772116580.9778135,990.72265625,-7.32421875,516.11328125,82.51953125,0.0,0,0
1772116581.038065,1772116580.98171,799.31640625,-41.9921875,-12.20703125,-775.390625,0.0,0,0
1772116581.038115,1772116580.9856064,-416.50390625,-89.35546875,-637.20703125,281.73828125,0.0,0,0
1772116581.038165,1772116580.9895031,-1000.0,-80.078125,-471.19140625,-815.91796875,0.0,0,0
1772116581.038215,1772116580.9933996,-469.23828125,-36.1328125,234.375,-1000.0,0.0,0,0
1772116581.038263,1772116580.997296,765.625,-22.94921875,490.234375,-135.25390625,0.0,0,0
1772116581.038311,1772116581.0011926,969.7265625,-40.0390625,58.10546875,-808.10546875,0.0,0,0
1772116581.038361,1772116581.005089,-218.75,-91.30859375,-561.5234375,487.79296875,0.0,0,0
1772116581.038409,1772116581.0089855,-1000.0,-95.703125,-533.69140625,-746.09375,0.0,0,0
1772116581.0384572,1772116581.012882,-745.60546875,-45.8984375,128.90625,-1000.0,0.0,0,0
1772116581.0836859,1772116581.0168777,575.1953125,-20.01953125,521.484375,-220.21484375,0.0,0,0
1772116581.083832,1772116581.0207741,-938.4765625,-46.875,152.34375,-892.08984375,0.0,0,0
1772116581.083889,1772116581.0246706,-178.7109375,-86.9140625,-525.390625,734.86328125,0.0,0,0
1772116581.083942,1772116581.028567,-1000.0,-70.3125,-570.80078125,-487.3046875,0.0,0,0
1772116581.083998,1772116581.0324636,-937.01171875,-35.64453125,65.4296875,-1000.0,0.0,0,0
1772116581.084047,1772116581.03636,181.15234375,-4.8828125,552.24609375,-201.66015625,0.0,0,0
1772116581.084099,1772116581.0402565,-849.609375,-14.16015625,269.53125,-968.26171875,0.0,0,0
1772116581.084149,1772116581.044153,-59.08203125,-53.7109375,-443.84765625,954.1015625,0.0,0,0
1772116581.084203,1772116581.0480497,-1000.0,-61.5234375,-596.19140625,-227.05078125,0.0,0,0
1772116581.0842712,1772116581.0519462,-988.76953125,-45.8984375,-25.87890625,-1000.0,0.0,0,0
1772116581.084338,1772116581.0558426,25.87890625,-10.7421875,532.2265625,-231.4453125,0.0,0,0
1772116581.084387,1772116581.059739,-817.87109375,-17.08984375,352.05078125,970.21484375,0.0,0,0
1772116581.141137,1772116581.0637279,243.65234375,-65.91796875,-344.23828125,-943.359375,0.0,0,0
1772116581.141267,1772116581.0676243,-993.65234375,-73.73046875,-601.07421875,-5.859375,0.0,0,0
1772116581.141322,1772116581.0715208,-1000.0,-44.921875,-126.46484375,-1000.0,0.0,0,0
1772116581.141373,1772116581.0754175,-48.33984375,-12.6953125,507.8125,-386.71875,0.0,0,0
1772116581.1414242,1772116581.079314,-853.515625,-13.671875,417.48046875,881.34765625,0.0,0,0
1772116581.1414762,1772116581.0832105,503.41796875,-50.29296875,-254.8828125,-898.92578125,0.0,0,0
1772116581.141531,1772116581.087107,-777.83203125,-68.359375,-570.3125,144.04296875,0.0,0,0
1772116581.141581,1772116581.0910034,-1000.0,-50.29296875,-194.3359375,-1000.0,0.0,0,0
1772116581.14163,1772116581.0949,-199.70703125,-6.8359375,453.61328125,-636.23046875,0.0,0,0
1772116581.141679,1772116581.0987966,-872.55859375,-17.578125,484.375,719.7265625,0.0,0,0
1772116581.141728,1772116581.102693,490.72265625,-61.5234375,-183.10546875,-850.5859375,0.0,0,0
1772116581.141778,1772116581.1065896,-757.32421875,-72.75390625,-619.62890625,178.7109375,0.0,0,0
1772116581.172384,1772116581.11057,-1000.0,-48.33984375,-269.53125,-1000.0,0.0,0,0
1772116581.172498,1772116581.1144664,-293.9453125,-4.8828125,413.0859375,-855.46875,0.0,0,0
1772116581.172555,1772116581.1183631,-936.03515625,1.953125,513.671875,449.70703125,0.0,0,0
1772116581.172608,1772116581.1222596,617.67578125,-32.2265625,-89.35546875,-801.7578125,0.0,0,0
1772116581.1726599,1772116581.126156,-604.4921875,-66.89453125,-611.328125,165.0390625,0.0,0,0
1772116581.172711,1772116581.1300526,-1000.0,-57.6171875,-349.12109375,-954.1015625,0.0,0,0
1772116581.172767,1772116581.133949,-499.51171875,-14.16015625,327.1484375,-985.83984375,0.0,0,0
1772116581.172819,1772116581.1378458,877.44140625,-2.9296875,505.859375,145.5078125,0.0,0,0
1772116581.1728692,1772116581.1417422,831.54296875,-48.828125,-2.44140625,-770.99609375,0.0,0,0
1772116581.172919,1772116581.1456387,-415.52734375,-95.703125,-594.7265625,260.7421875,0.0,0,0
1772116581.172968,1772116581.1495352,-1000.0,-77.63671875,-446.77734375,-884.27734375,0.0,0,0
1772116581.173017,1772116581.1534317,-502.44140625,-29.296875,252.44140625,-1000.0,0.0,0,0
1772116581.304136,1772116581.1573966,853.515625,-21.484375,533.203125,-96.19140625,0.0,0,0
1772116581.3042822,1772116581.161293,895.99609375,-51.26953125,72.265625,-803.7109375,0.0,0,0
1772116581.304339,1772116581.1651895,-358.3984375,-89.84375,-582.03125,452.1484375,0.0,0,0
1772116581.304418,1772116581.1690862,-1000.0,-82.03125,-530.76171875,-789.55078125,0.0,0,0
1772116581.304544,1772116581.1729827,-830.078125,-37.109375,152.83203125,-1000.0,0.0,0,0
1772116581.304857,1772116581.1768792,506.34765625,15.13671875,540.52734375,-202.1484375,0.0,0,0
1772116581.304917,1772116581.1807756,-969.7265625,31.73828125,169.43359375,-877.44140625,0.0,0,0
1772116581.304971,1772116581.1846724,-278.80859375,-51.26953125,-518.5546875,690.4296875,0.0,0,0
1772116581.305019,1772116581.1885688,-1000.0,-79.58984375,-568.359375,-575.1953125,0.0,0,0
1772116581.305109,1772116581.1924653,-854.00390625,-30.2734375,82.03125,-1000.0,0.0,0,0
1772116581.305182,1772116581.1963618,321.2890625,-3.90625,545.41015625,-208.0078125,0.0,0,0
1772116581.305249,1772116581.2002585,-830.078125,-23.92578125,239.2578125,-959.9609375,0.0,0,0
1772116581.306546,1772116581.2044458,77.63671875,-69.82421875,-431.15234375,918.9453125,0.0,0,0
1772116581.306601,1772116581.2083423,-1000.0,-76.66015625,-569.82421875,-294.43359375,0.0,0,0
1772116581.3066392,1772116581.2122388,-986.328125,-39.55078125,-3.41796875,-1000.0,0.0,0,0
1772116581.306675,1772116581.2161355,42.96875,-1.953125,535.15625,-220.21484375,0.0,0,0
1772116581.3067122,1772116581.220032,-839.35546875,-7.8125,313.4765625,978.02734375,0.0,0,0
1772116581.306748,1772116581.2239287,336.42578125,-42.96875,-348.14453125,-962.890625,0.0,0,0
1772116581.3068118,1772116581.2278252,-906.73828125,-66.40625,-557.12890625,-63.96484375,0.0,0,0
1772116581.30687,1772116581.2317219,-1000.0,-39.55078125,-91.30859375,-1000.0,0.0,0,0
1772116581.3069131,1772116581.2356184,-163.0859375,10.7421875,507.32421875,-353.515625,0.0,0,0
1772116581.306952,1772116581.2395148,-851.5625,-3.41796875,410.64453125,906.25,0.0,0,0
1772116581.306989,1772116581.2434115,414.55078125,-53.22265625,-266.6015625,-900.390625,0.0,0,0
1772116581.307025,1772116581.247308,-871.58203125,-59.5703125,-603.02734375,121.58203125,0.0,0,0
1772116581.3199208,1772116581.2512684,-1000.0,-28.80859375,-205.56640625,-1000.0,0.0,0,0
1772116581.319979,1772116581.2551649,-141.11328125,2.44140625,461.42578125,-584.9609375,0.0,0,0
1772116581.3200178,1772116581.2590616,-871.09375,0.48828125,472.16796875,769.53125,0.0,0,0
1772116581.320058,1772116581.262958,514.16015625,-49.8046875,-193.84765625,-861.81640625,0.0,0,0
1772116581.320131,1772116581.2668548,-726.07421875,-50.78125,-594.23828125,177.24609375,0.0,0,0
1772116581.3201861,1772116581.2707512,-1000.0,-14.16015625,-238.76953125,-1000.0,0.0,0,0
1772116581.3202372,1772116581.274648,-311.03515625,-21.97265625,409.66796875,-819.82421875,0.0,0,0
1772116581.3202748,1772116581.2785444,-929.19921875,-21.484375,489.74609375,503.41796875,0.0,0,0
1772116581.320313,1772116581.2824411,589.35546875,-49.31640625,-118.65234375,-821.77734375,0.0,0,0
1772116581.320349,1772116581.2863376,-643.5546875,-80.56640625,-612.3046875,157.71484375,0.0,0,0
1772116581.320385,1772116581.2902343,-1000.0,-71.77734375,-350.5859375,-1000.0,0.0,0,0
1772116581.32042,1772116581.2941308,-400.390625,-20.01953125,335.9375,-999.51171875,0.0,0,0
1772116581.3666718,1772116581.298139,-981.4453125,6.8359375,505.859375,187.98828125,0.0,0,0
1772116581.3667998,1772116581.3020356,682.6171875,-33.203125,-41.9921875,-773.92578125,0.0,0,0
1772116581.366842,1772116581.3059323,-563.96484375,-63.4765625,-613.28125,238.28125,0.0,0,0
1772116581.366879,1772116581.309829,-1000.0,-69.82421875,-429.6875,-924.31640625,0.0,0,0
1772116581.366922,1772116581.3137255,-556.15234375,39.0625,263.671875,-1000.0,0.0,0,0
1772116581.366961,1772116581.3176222,863.28125,97.65625,530.76171875,-43.45703125,0.0,0,0
1772116581.366998,1772116581.3215187,800.29296875,-26.85546875,64.94140625,-791.9921875,0.0,0,0
1772116581.367035,1772116581.3254154,-492.67578125,-84.9609375,-571.77734375,421.38671875,0.0,0,0
1772116581.367072,1772116581.3293118,-1000.0,-58.59375,-497.55859375,-846.6796875,0.0,0,0
1772116581.3671072,1772116581.3332086,-790.52734375,-23.92578125,168.9453125,-1000.0,0.0,0,0
1772116581.36718,1772116581.337105,549.8046875,-4.39453125,524.4140625,-190.91796875,0.0,0,0
1772116581.3672168,1772116581.3410017,-974.12109375,-17.08984375,133.30078125,-864.74609375,0.0,0,0
1772116581.410785,1772116581.3449993,-241.2109375,-60.05859375,-529.296875,643.5546875,0.0,0,0
1772116581.410901,1772116581.348896,-1000.0,-71.2890625,-548.828125,-630.859375,0.0,0,0
1772116581.410957,1772116581.3527925,-918.45703125,-51.26953125,93.26171875,-1000.0,0.0,0,0
1772116581.411016,1772116581.3566892,282.71484375,-15.13671875,538.0859375,-214.35546875,0.0,0,0
1772116581.411069,1772116581.3605857,-834.9609375,-8.30078125,226.07421875,-946.77734375,0.0,0,0
1772116581.4111202,1772116581.3644824,71.77734375,-44.921875,-432.6171875,889.16015625,0.0,0,0
1772116581.4111722,1772116581.368379,-1000.0,-60.546875,-555.6640625,-362.3046875,0.0,0,0
1772116581.411221,1772116581.3722756,-1000.0,-17.08984375,-7.8125,-1000.0,0.0,0,0
1772116581.41127,1772116581.3761723,56.640625,33.69140625,511.23046875,-207.03125,0.0,0,0
1772116581.41132,1772116581.3800688,-821.77734375,-0.48828125,295.41015625,990.234375,0.0,0,0
1772116581.411372,1772116581.3839655,279.78515625,-50.29296875,-368.65234375,-974.609375,0.0,0,0
1772116581.4114208,1772116581.3878622,-941.40625,-59.5703125,-590.8203125,-101.07421875,0.0,0,0
1772116581.455769,1772116581.3918502,-1000.0,-32.2265625,-119.140625,-1000.0,0.0,0,0
1772116581.455847,1772116581.395747,-153.3203125,9.27734375,512.6953125,-330.56640625,0.0,0,0
1772116581.455903,1772116581.3996434,-849.609375,2.44140625,410.64453125,915.52734375,0.0,0,0
1772116581.455955,1772116581.4035401,411.1328125,-43.9453125,-279.296875,-917.48046875,0.0,0,0
1772116581.4560058,1772116581.4074366,-853.515625,-64.453125,-572.75390625,104.98046875,0.0,0,0
1772116581.456057,1772116581.4113333,-1000.0,-42.48046875,-136.23046875,-1000.0,0.0,0,0
1772116581.456116,1772116581.41523,-187.01171875,-7.32421875,497.55859375,-542.96875,0.0,0,0
1772116581.456165,1772116581.4191265,-879.39453125,10.25390625,458.984375,797.8515625,0.0,0,0
1772116581.4562151,1772116581.4230232,515.13671875,-34.66796875,-203.61328125,-861.328125,0.0,0,0
1772116581.456265,1772116581.42692,-752.44140625,-84.9609375,-602.5390625,174.8046875,0.0,0,0
1772116581.4563258,1772116581.4308164,-1000.0,-49.31640625,-249.0234375,-1000.0,0.0,0,0
1772116581.456373,1772116581.4347131,-129.39453125,-2.9296875,432.12890625,-791.50390625,0.0,0,0
1772116581.5019221,1772116581.4386928,-912.59765625,-3.41796875,509.765625,545.8984375,0.0,0,0
1772116581.502029,1772116581.4425893,687.98828125,-33.69140625,-97.16796875,-829.58984375,0.0,0,0
1772116581.502082,1772116581.446486,-498.53515625,-62.98828125,-587.40234375,157.71484375,0.0,0,0
1772116581.5021389,1772116581.4503827,-1000.0,-54.6875,-344.23828125,-1000.0,0.0,0,0
1772116581.50219,1772116581.4542792,-344.23828125,-6.8359375,329.1015625,-983.88671875,0.0,0,0
1772116581.50224,1772116581.458176,-979.98046875,1.953125,507.8125,234.86328125,0.0,0,0
1772116581.5022888,1772116581.4620726,761.23046875,-17.08984375,-27.83203125,-774.90234375,0.0,0,0
1772116581.502356,1772116581.465969,-441.40625,-27.83203125,-606.4453125,212.890625,0.0,0,0
1772116581.502399,1772116581.4698658,-1000.0,-54.6875,-431.15234375,-949.70703125,0.0,0,0
1772116581.502434,1772116581.4737625,-541.9921875,-36.1328125,258.7890625,-1000.0,0.0,0,0
1772116581.5024729,1772116581.4776592,856.4453125,8.7890625,513.671875,-25.390625,0.0,0,0
1772116581.50251,1772116581.4815557,893.06640625,-5.37109375,44.43359375,-784.1796875,0.0,0,0
1772116581.546047,1772116581.4855294,-274.4140625,-61.03515625,-571.2890625,365.234375,0.0,0,0
1772116581.54613,1772116581.489426,-1000.0,-49.8046875,-483.3984375,-844.23828125,0.0,0,0
1772116581.546182,1772116581.4933226,-707.03125,1.46484375,178.7109375,-1000.0,0.0,0,0
1772116581.546231,1772116581.4972193,637.20703125,14.6484375,513.18359375,-183.10546875,0.0,0,0
1772116581.5462809,1772116581.501116,-945.3125,-8.30078125,122.55859375,-853.02734375,0.0,0,0
1772116581.5463302,1772116581.5050125,-135.7421875,-46.875,-521.97265625,611.81640625,0.0,0,0
1772116581.54638,1772116581.5089092,-1000.0,-21.484375,-547.8515625,-718.75,0.0,0,0
1772116581.546428,1772116581.512806,-882.32421875,12.20703125,57.6171875,-1000.0,0.0,0,0
1772116581.546474,1772116581.5167027,363.28125,4.39453125,504.39453125,-209.9609375,0.0,0,0
1772116581.546658,1772116581.5205991,-854.98046875,-5.37109375,211.42578125,-934.5703125,0.0,0,0
1772116581.546698,1772116581.5244958,34.1796875,-47.8515625,-446.2890625,854.98046875,0.0,0,0
1772116581.546734,1772116581.5283926,-1000.0,-71.2890625,-559.08203125,-400.390625,0.0,0,0
1772116581.605969,1772116581.53243,-902.83203125,-37.109375,21.484375,-1000.0,0.0,0,0
1772116581.606085,1772116581.5363266,252.44140625,10.25390625,526.85546875,-202.63671875,0.0,0,0
1772116581.606123,1772116581.5402234,-820.3125,7.8125,277.34375,-997.55859375,0.0,0,0
1772116581.606165,1772116581.5441198,242.67578125,-43.45703125,-376.953125,-995.60546875,0.0,0,0
1772116581.6062021,1772116581.5480165,-1000.0,-70.80078125,-562.98828125,-142.08984375,0.0,0,0
1772116581.606237,1772116581.5519133,-970.703125,-1.46484375,-44.43359375,-1000.0,0.0,0,0
1772116581.606273,1772116581.55581,77.1484375,74.70703125,551.7578125,-307.6171875,0.0,0,0
1772116581.606377,1772116581.5597067,-840.33203125,17.08984375,394.53125,924.8046875,0.0,0,0
1772116581.606426,1772116581.5636034,342.28515625,-52.24609375,-288.0859375,-920.41015625,0.0,0,0
1772116581.606466,1772116581.5674999,-931.15234375,-64.94140625,-572.265625,63.4765625,0.0,0,0
1772116581.606503,1772116581.5713966,-1000.0,-37.109375,-141.11328125,-1000.0,0.0,0,0
1772116581.60655,1772116581.5752933,-117.67578125,3.41796875,491.2109375,-498.046875,0.0,0,0
1772116581.651149,1772116581.579321,-874.0234375,4.8828125,442.3828125,825.1953125,0.0,0,0
1772116581.651268,1772116581.5832176,554.19921875,-34.1796875,-229.4921875,-877.9296875,0.0,0,0
1772116581.65131,1772116581.5871143,-716.30859375,-61.5234375,-598.14453125,169.921875,0.0,0,0
1772116581.651349,1772116581.591011,-1000.0,-50.78125,-223.6328125,-1000.0,0.0,0,0
1772116581.651387,1772116581.5949078,-176.26953125,-2.44140625,432.12890625,-750.0,0.0,0,0
1772116581.651423,1772116581.5988045,-891.6015625,9.27734375,498.53515625,594.7265625,0.0,0,0
1772116581.6514602,1772116581.6027012,581.54296875,-39.55078125,-134.765625,-832.51953125,0.0,0,0
1772116581.651497,1772116581.606598,-655.76171875,-67.3828125,-619.140625,161.62109375,0.0,0,0
1772116581.6515331,1772116581.6104946,-1000.0,-46.875,-322.265625,-1000.0,0.0,0,0
1772116581.6515682,1772116581.614391,-237.3046875,25.87890625,364.74609375,-965.8203125,0.0,0,0
1772116581.651605,1772116581.6182878,-948.2421875,37.59765625,511.23046875,274.90234375,0.0,0,0
1772116581.6516411,1772116581.6221845,762.20703125,-33.203125,-51.7578125,-777.83203125,0.0,0,0
1772116581.695806,1772116581.6262026,-407.71484375,-65.4296875,-618.65234375,189.453125,0.0,0,0
1772116581.695967,1772116581.6300993,-1000.0,-46.875,-411.62109375,-963.8671875,0.0,0,0
1772116581.6960242,1772116581.633996,-482.91015625,-11.23046875,276.3671875,-1000.0,0.0,0,0
1772116581.696064,1772116581.6378927,879.39453125,2.9296875,500.0,29.296875,0.0,0,0
1772116581.6961,1772116581.6417894,977.05078125,-14.6484375,40.0390625,-775.390625,0.0,0,0
1772116581.696137,1772116581.6456861,-153.3203125,-61.03515625,-552.24609375,340.8203125,0.0,0,0
1772116581.696175,1772116581.6495829,-1000.0,-61.03515625,-458.984375,-840.33203125,0.0,0,0
1772116581.6962109,1772116581.6534796,-698.73046875,-18.5546875,191.89453125,-1000.0,0.0,0,0
1772116581.696247,1772116581.6573763,695.3125,19.53125,511.23046875,-171.38671875,0.0,0,0
1772116581.6962838,1772116581.661273,-984.86328125,23.92578125,115.72265625,-833.984375,0.0,0,0
1772116581.69632,1772116581.6651697,-225.09765625,-53.7109375,-534.1796875,554.6875,0.0,0,0
1772116581.696355,1772116581.6690664,-1000.0,-65.91796875,-529.296875,-707.51953125,0.0,0,0
1772116581.7415712,1772116581.673075,-822.265625,-16.6015625,107.421875,-1000.0,0.0,0,0
1772116581.741715,1772116581.6769717,464.35546875,0.0,513.18359375,-222.65625,0.0,0,0
1772116581.741771,1772116581.6808684,-930.6640625,-23.92578125,191.89453125,-916.50390625,0.0,0,0
1772116581.741823,1772116581.684765,-179.19921875,-63.96484375,-487.79296875,801.26953125,0.0,0,0
1772116581.7418728,1772116581.6886618,-1000.0,-62.5,-579.58984375,-466.30859375,0.0,0,0
1772116581.741923,1772116581.6925585,-871.58203125,-27.83203125,42.96875,-1000.0,0.0,0,0
1772116581.741971,1772116581.6964552,275.390625,-4.8828125,537.59765625,-200.1953125,0.0,0,0
1772116581.7420201,1772116581.700352,-815.4296875,-17.578125,288.0859375,-984.375,0.0,0,0
1772116581.74207,1772116581.7042487,166.9921875,-34.66796875,-387.6953125,983.88671875,0.0,0,0
1772116581.742121,1772116581.7081454,-1000.0,-48.828125,-587.890625,-187.5,0.0,0,0
1772116581.7422268,1772116581.712042,-987.79296875,-41.50390625,-57.12890625,-1000.0,0.0,0,0
1772116581.742304,1772116581.7159388,98.14453125,6.8359375,529.78515625,-272.4609375,0.0,0,0
1772116581.787041,1772116581.7199383,-837.40234375,-1.46484375,360.3515625,943.359375,0.0,0,0
1772116581.7871842,1772116581.723835,376.46484375,-43.45703125,-313.4765625,-930.17578125,0.0,0,0
1772116581.787243,1772116581.7277317,-926.26953125,-59.08203125,-566.40625,25.87890625,0.0,0,0
1772116581.787296,1772116581.7316284,-1000.0,-32.71484375,-129.8828125,-1000.0,0.0,0,0
1772116581.787352,1772116581.7355251,76.171875,8.7890625,493.65234375,-464.84375,0.0,0,0
1772116581.787404,1772116581.739422,-868.65234375,10.25390625,438.4765625,855.95703125,0.0,0,0
1772116581.787457,1772116581.7433188,527.34375,-33.69140625,-220.703125,-878.90625,0.0,0,0
1772116581.787509,1772116581.7472155,-739.74609375,-47.8515625,-580.078125,160.64453125,0.0,0,0
1772116581.78756,1772116581.7511122,-1000.0,-9.765625,-230.95703125,-1000.0,0.0,0,0
1772116581.787617,1772116581.755009,-165.52734375,6.8359375,423.828125,-707.03125,0.0,0,0
1772116581.787667,1772116581.7589056,-886.23046875,4.39453125,487.79296875,661.1328125,0.0,0,0
1772116581.787725,1772116581.7628024,572.75390625,-46.38671875,-141.6015625,-830.078125,0.0,0,0
1772116581.830741,1772116581.7667902,-673.33984375,-83.49609375,-596.6796875,166.50390625,0.0,0,0
1772116581.83083,1772116581.7706869,-1000.0,-61.03515625,-286.1328125,-1000.0,0.0,0,0
1772116581.830883,1772116581.7745838,-208.0078125,-5.859375,387.20703125,-930.6640625,0.0,0,0
1772116581.830933,1772116581.7784805,-927.24609375,16.11328125,505.859375,334.47265625,0.0,0,0
1772116581.830983,1772116581.7823772,703.125,-26.3671875,-70.3125,-782.71484375,0.0,0,0
1772116581.831037,1772116581.786274,-490.234375,-60.05859375,-589.35546875,179.6875,0.0,0,0
1772116581.8310862,1772116581.7901707,-1000.0,-54.6875,-385.25390625,-998.53515625,0.0,0,0
1772116581.831135,1772116581.7940674,-341.796875,-1.46484375,285.64453125,-1000.0,0.0,0,0
1772116581.831184,1772116581.797964,-991.2109375,16.11328125,518.06640625,65.91796875,0.0,0,0
1772116581.831233,1772116581.801861,811.5234375,-37.59765625,15.13671875,-782.2265625,0.0,0,0
1772116581.831282,1772116581.8057578,-375.48828125,-70.3125,-581.0546875,313.96484375,0.0,0,0
1772116581.831349,1772116581.8096545,-1000.0,-58.10546875,-476.07421875,-899.4140625,0.0,0,0
1772116581.905696,1772116581.8137817,-484.375,-20.99609375,202.63671875,-1000.0,0.0,0,0
1772116581.9057841,1772116581.8176785,841.30859375,-4.39453125,517.578125,-145.01953125,0.0,0,0
1772116581.905826,1772116581.8215752,-967.7734375,-24.90234375,104.98046875,-824.21875,0.0,0,0
1772116581.9058628,1772116581.825472,-90.8203125,-60.05859375,-543.45703125,513.671875,0.0,0,0
1772116581.905899,1772116581.8293688,-1000.0,-65.91796875,-546.875,-765.625,0.0,0,0
1772116581.905934,1772116581.8332655,-643.5546875,-32.71484375,125.48828125,-1000.0,0.0,0,0
1772116581.9059699,1772116581.8371623,683.59375,-2.9296875,531.25,-219.7265625,0.0,0,0
1772116581.906006,1772116581.8410592,-974.609375,-17.08984375,150.390625,-901.3671875,0.0,0,0
1772116581.9060469,1772116581.844956,-179.6875,-71.77734375,-517.578125,754.8828125,0.0,0,0
1772116581.906083,1772116581.8488526,-1000.0,-82.03125,-561.03515625,-497.55859375,0.0,0,0
1772116581.906126,1772116581.8527496,-805.17578125,-34.66796875,66.40625,-1000.0,0.0,0,0
1772116581.9061608,1772116581.8566463,361.81640625,0.48828125,550.29296875,-196.2890625,0.0,0,0
1772116581.921668,1772116581.8606193,-821.77734375,-21.484375,260.25390625,-976.07421875,0.0,0,0
1772116581.922028,1772116581.864516,232.421875,-63.4765625,-413.0859375,963.8671875,0.0,0,0
1772116581.922088,1772116581.8684127,-1000.0,-69.3359375,-563.96484375,-235.83984375,0.0,0,0
1772116581.92214,1772116581.8723097,-855.95703125,-40.0390625,-21.484375,-1000.0,0.0,0,0
1772116581.922189,1772116581.8762064,350.09765625,-8.7890625,543.9453125,-255.37109375,0.0,0,0
1772116581.9222379,1772116581.880103,-839.35546875,-24.90234375,369.140625,963.37890625,0.0,0,0
1772116581.9222882,1772116581.884,296.38671875,-71.2890625,-330.078125,-940.91796875,0.0,0,0
1772116581.922337,1772116581.8878968,-980.95703125,-72.265625,-592.7734375,-17.08984375,0.0,0,0
1772116581.922401,1772116581.8917935,-975.09765625,-32.71484375,-112.3046875,-1000.0,0.0,0,0
1772116581.9224498,1772116581.8956904,130.859375,-0.48828125,519.04296875,-421.875,0.0,0,0
1772116581.9225001,1772116581.8995872,-868.1640625,-8.7890625,434.5703125,872.0703125,0.0,0,0
1772116581.922549,1772116581.9034839,478.02734375,-41.9921875,-256.8359375,-888.671875,0.0,0,0
1772116581.9806159,1772116581.9075181,-818.359375,-59.08203125,-604.98046875,146.97265625,0.0,0,0
1772116581.980701,1772116581.911415,-1000.0,-33.69140625,-193.359375,-1000.0,0.0,0,0
1772116581.980737,1772116581.9153118,39.0625,15.625,465.33203125,-670.8984375,0.0,0,0
1772116581.9807732,1772116581.9192085,-892.578125,7.32421875,459.9609375,679.19921875,0.0,0,0
1772116581.980809,1772116581.9231055,660.15625,-41.015625,-185.546875,-853.02734375,0.0,0,0
1772116581.980845,1772116581.9270022,-534.66796875,-56.640625,-592.28515625,174.31640625,0.0,0,0
1772116581.980882,1772116581.9308991,-1000.0,-24.90234375,-273.92578125,-1000.0,0.0,0,0
1772116581.980955,1772116581.9347959,-236.81640625,-1.46484375,375.0,-894.53125,0.0,0,0
1772116581.981021,1772116581.9386926,-934.5703125,-8.30078125,494.140625,398.4375,0.0,0,0
1772116581.981062,1772116581.9425895,690.4296875,-34.1796875,-77.1484375,-789.0625,0.0,0,0
1772116581.9811,1772116581.9464862,-517.08984375,-64.453125,-608.3984375,164.55078125,0.0,0,0
1772116581.9811368,1772116581.9503832,-1000.0,-53.22265625,-374.0234375,-997.55859375,0.0,0,0
1772116582.025751,1772116581.9544072,-316.89453125,-19.53125,309.5703125,-1000.0,0.0,0,0
1772116582.025839,1772116581.958304,-998.046875,-7.32421875,510.25390625,95.703125,0.0,0,0
1772116582.025891,1772116581.9622009,884.27734375,-33.203125,0.9765625,-773.4375,0.0,0,0
1772116582.025942,1772116581.9660976,-293.9453125,-77.63671875,-598.6328125,282.71484375,0.0,0,0
1772116582.025992,1772116581.9699945,-1000.0,-75.68359375,-460.44921875,-915.52734375,0.0,0,0
1772116582.026041,1772116581.9738913,-370.60546875,-24.90234375,247.55859375,-1000.0,0.0,0,0
1772116582.026089,1772116581.977788,935.05859375,-6.34765625,523.92578125,-105.95703125,0.0,0,0
1772116582.0261388,1772116581.981685,912.59765625,-32.2265625,65.4296875,-811.03515625,0.0,0,0
1772116582.026189,1772116581.9855816,-253.90625,-69.3359375,-562.5,469.23828125,0.0,0,0
1772116582.026237,1772116581.9894786,-1000.0,-62.01171875,-519.53125,-804.19921875,0.0,0,0
1772116582.0262988,1772116581.9933753,-688.4765625,-20.99609375,149.4140625,-1000.0,0.0,0,0
1772116582.026347,1772116581.9972723,606.4453125,-4.39453125,532.71484375,-214.35546875,0.0,0,0
1772116582.072188,1772116582.0012865,-907.71484375,-27.83203125,166.9921875,-891.11328125,0.0,0,0
1772116582.07232,1772116582.0051835,-65.4296875,-73.73046875,-484.86328125,716.796875,0.0,0,0
1772116582.0723772,1772116582.0090804,-1000.0,-68.359375,-541.9921875,-598.6328125,0.0,0,0
1772116582.072429,1772116582.0129771,-871.58203125,-25.390625,52.734375,-1000.0,0.0,0,0
1772116582.07248,1772116582.016874,331.54296875,7.8125,522.94921875,-200.1953125,0.0,0,0
1772116582.072531,1772116582.0207708,-851.07421875,-2.9296875,254.8828125,-958.49609375,0.0,0,0
1772116582.0725849,1772116582.0246677,85.9375,-49.31640625,-424.8046875,926.26953125,0.0,0,0
1772116582.072636,1772116582.0285645,-1000.0,-66.89453125,-588.37890625,-303.22265625,0.0,0,0
1772116582.0726988,1772116582.0324614,-892.578125,-13.671875,-47.8515625,-1000.0,0.0,0,0
1772116582.072748,1772116582.036358,164.0625,44.921875,512.20703125,-226.5625,0.0,0,0
1772116582.072798,1772116582.040255,-840.8203125,3.41796875,327.63671875,971.6796875,0.0,0,0
1772116582.072861,1772116582.044152,218.26171875,-55.6640625,-352.5390625,-951.171875,0.0,0,0
1772116582.115767,1772116582.0481572,-1000.0,-76.66015625,-575.68359375,-37.109375,0.0,0,0
1772116582.11588,1772116582.052054,-1000.0,-55.6640625,-100.5859375,-1000.0,0.0,0,0
1772116582.115933,1772116582.0559509,-32.71484375,-4.39453125,504.8828125,-390.625,0.0,0,0
1772116582.115985,1772116582.0598476,-848.6328125,-7.8125,415.52734375,894.04296875,0.0,0,0
1772116582.1160362,1772116582.0637445,436.03515625,-55.17578125,-259.765625,-893.06640625,0.0,0,0
1772116582.116087,1772116582.0676415,-844.7265625,-64.94140625,-559.5703125,130.37109375,0.0,0,0
1772116582.1161401,1772116582.0715382,-1000.0,-42.48046875,-184.08203125,-1000.0,0.0,0,0
1772116582.116189,1772116582.0754352,-87.40234375,-7.8125,431.15234375,-615.234375,0.0,0,0
1772116582.116239,1772116582.0793319,-870.60546875,42.48046875,462.40234375,764.16015625,0.0,0,0
1772116582.1162891,1772116582.0832288,534.1796875,4.8828125,-177.734375,-916.50390625,0.0,0,0
1772116582.116338,1772116582.0871258,-715.33203125,-61.5234375,-574.21875,86.42578125,0.0,0,0
1772116582.116388,1772116582.0910225,-1000.0,-44.921875,-250.0,-1000.0,0.0,0,0
1772116582.160843,1772116582.0950196,-222.65625,-14.6484375,394.53125,-855.46875,0.0,0,0
1772116582.16097,1772116582.0989163,-914.0625,-2.44140625,516.6015625,465.33203125,0.0,0,0
1772116582.161012,1772116582.1028132,629.8828125,-35.64453125,-80.078125,-800.29296875,0.0,0,0
1772116582.16105,1772116582.1067102,-593.75,-66.40625,-604.4921875,157.71484375,0.0,0,0
1772116582.161088,1772116582.110607,-1000.0,-60.05859375,-356.93359375,-1000.0,0.0,0,0
1772116582.161126,1772116582.1145039,-256.8359375,-7.8125,331.54296875,-1000.0,0.0,0,0
1772116582.161164,1772116582.1184008,-944.82421875,5.37109375,516.6015625,166.50390625,0.0,0,0
1772116582.161201,1772116582.1222975,663.0859375,-13.671875,-20.5078125,-776.85546875,0.0,0,0
1772116582.161255,1772116582.1261945,-471.19140625,-13.671875,-590.8203125,248.046875,0.0,0,0
1772116582.1613052,1772116582.1300914,-1000.0,-53.7109375,-417.48046875,-928.22265625,0.0,0,0
1772116582.16134,1772116582.1339881,-576.66015625,-35.64453125,249.0234375,-1000.0,0.0,0,0
1772116582.161387,1772116582.137885,808.59375,-10.7421875,495.1171875,-64.453125,0.0,0,0
1772116582.206972,1772116582.141872,968.75,-41.015625,52.24609375,-795.41015625,0.0,0,0
1772116582.207082,1772116582.1457686,-205.56640625,-64.453125,-555.17578125,437.5,0.0,0,0
1772116582.207139,1772116582.1496656,-1000.0,-48.828125,-496.58203125,-848.6328125,0.0,0,0
1772116582.2071922,1772116582.1535625,-679.6875,-9.765625,154.296875,-1000.0,0.0,0,0
1772116582.207241,1772116582.1574595,613.28125,0.9765625,500.9765625,-204.1015625,0.0,0,0
1772116582.207305,1772116582.1613562,-885.7421875,-22.94921875,152.34375,-871.09375,0.0,0,0
1772116582.207368,1772116582.1652532,-8.7890625,-68.359375,-510.25390625,652.83203125,0.0,0,0
1772116582.207419,1772116582.16915,-1000.0,-30.2734375,-578.61328125,-645.5078125,0.0,0,0
1772116582.207468,1772116582.173047,-791.9921875,21.484375,80.078125,-1000.0,0.0,0,0
1772116582.207516,1772116582.1769438,450.1953125,4.39453125,539.0625,-209.9609375,0.0,0,0
1772116582.207565,1772116582.1808407,-842.28515625,-17.08984375,243.65234375,-949.21875,0.0,0,0
1772116582.207614,1772116582.1847377,85.44921875,-59.08203125,-431.640625,897.4609375,0.0,0,0
1772116582.251601,1772116582.1887157,-1000.0,-67.3828125,-570.80078125,-354.98046875,0.0,0,0
1772116582.251737,1772116582.1926126,-953.125,-29.296875,4.39453125,-1000.0,0.0,0,0
1772116582.251793,1772116582.1965094,198.73046875,6.34765625,541.9921875,-208.984375,0.0,0,0
1772116582.2518542,1772116582.2004063,-884.765625,-11.71875,302.734375,992.1875,0.0,0,0
1772116582.251905,1772116582.2043033,143.5546875,-40.52734375,-377.9296875,-968.26171875,0.0,0,0
1772116582.251957,1772116582.2082002,-992.1875,-71.2890625,-558.10546875,-89.84375,0.0,0,0
1772116582.2521641,1772116582.212097,-981.4453125,-23.4375,-78.125,-1000.0,0.0,0,0
1772116582.252218,1772116582.215994,62.98828125,70.3125,501.46484375,-347.16796875,0.0,0,0
1772116582.25227,1772116582.2198908,-865.234375,14.16015625,389.16015625,907.2265625,0.0,0,0
1772116582.252321,1772116582.2237878,434.08203125,-48.33984375,-276.3671875,-907.71484375,0.0,0,0
1772116582.2523708,1772116582.2276847,-872.55859375,-54.6875,-586.9140625,100.5859375,0.0,0,0
1772116582.2524211,1772116582.2315814,-1000.0,-45.8984375,-178.7109375,-1000.0,0.0,0,0
1772116582.309391,1772116582.2355516,41.015625,-7.8125,461.9140625,-580.56640625,0.0,0,0
1772116582.309537,1772116582.2394483,-885.25390625,-0.9765625,444.3359375,780.2734375,0.0,0,0
1772116582.309597,1772116582.2433453,621.09375,-40.0390625,-199.21875,-854.98046875,0.0,0,0
1772116582.309651,1772116582.2472422,-634.765625,-70.80078125,-594.23828125,172.36328125,0.0,0,0
1772116582.309712,1772116582.2511392,-1000.0,-55.6640625,-253.90625,-1000.0,0.0,0,0
1772116582.309761,1772116582.255036,-104.4921875,-14.16015625,433.59375,-818.359375,0.0,0,0
1772116582.309812,1772116582.2589328,-929.19921875,30.2734375,497.0703125,524.4140625,0.0,0,0
1772116582.309862,1772116582.2628298,770.99609375,-3.41796875,-105.95703125,-806.15234375,0.0,0,0
1772116582.309911,1772116582.2667267,-364.74609375,-75.68359375,-585.9375,154.296875,0.0,0,0
1772116582.30996,1772116582.2706237,-1000.0,-56.15234375,-354.98046875,-1000.0,0.0,0,0
1772116582.310007,1772116582.2745206,-281.73828125,-10.25390625,331.0546875,-1000.0,0.0,0,0
1772116582.310088,1772116582.2784176,-965.33203125,-8.30078125,507.8125,211.42578125,0.0,0,0
1772116582.355826,1772116582.2823765,793.9453125,-50.29296875,-27.83203125,-772.94921875,0.0,0,0
1772116582.355944,1772116582.2862735,-377.44140625,-77.63671875,-593.75,224.12109375,0.0,0,0
1772116582.355978,1772116582.2901702,-1000.0,-50.29296875,-421.875,-946.2890625,0.0,0,0
1772116582.3560069,1772116582.2940671,-429.6875,-13.18359375,266.11328125,-1000.0,0.0,0,0
1772116582.3560371,1772116582.297964,872.0703125,-12.20703125,506.8359375,-44.921875,0.0,0,0
1772116582.356065,1772116582.301861,-944.82421875,-25.390625,61.03515625,-789.0625,0.0,0,0
1772116582.356094,1772116582.305758,-14.16015625,-51.7578125,-561.03515625,401.3671875,0.0,0,0
1772116582.3561332,1772116582.309655,-1000.0,-71.2890625,-520.5078125,-888.18359375,0.0,0,0
1772116582.356172,1772116582.313552,-562.5,-35.15625,167.96875,-1000.0,0.0,0,0
1772116582.356201,1772116582.3174486,752.9296875,-0.9765625,531.73828125,-192.87109375,0.0,0,0
1772116582.356231,1772116582.3213456,-964.84375,-16.6015625,145.01953125,-860.83984375,0.0,0,0
1772116582.356255,1772116582.3252425,-85.44921875,-62.5,-516.11328125,620.1171875,0.0,0,0
1772116582.400662,1772116582.329267,-1000.0,-69.3359375,-554.19921875,-684.5703125,0.0,0,0
1772116582.400776,1772116582.333164,-745.1171875,-29.296875,91.796875,-1000.0,0.0,0,0
1772116582.4008162,1772116582.337061,500.9765625,-2.9296875,537.59765625,-212.40234375,0.0,0,0
1772116582.400854,1772116582.3409579,-853.515625,-12.20703125,230.46875,-945.80078125,0.0,0,0
1772116582.4008908,1772116582.3448546,50.78125,-46.875,-436.5234375,884.765625,0.0,0,0
1772116582.4009302,1772116582.3487515,-1000.0,-46.875,-560.05859375,-382.8125,0.0,0,0
1772116582.4009652,1772116582.3526485,-1000.0,-20.01953125,-17.08984375,-1000.0,0.0,0,0
1772116582.401,1772116582.3565454,14.16015625,0.0,511.71875,-198.73046875,0.0,0,0
1772116582.401036,1772116582.3604424,-806.15234375,-9.765625,317.87109375,-997.55859375,0.0,0,0
1772116582.401072,1772116582.3643394,251.953125,-26.3671875,-364.74609375,-981.4453125,0.0,0,0
1772116582.4011068,1772116582.3682363,-986.81640625,-43.9453125,-578.125,-118.65234375,0.0,0,0
1772116582.4011798,1772116582.3721333,-1000.0,-41.9921875,-74.21875,-1000.0,0.0,0,0
1772116582.4460711,1772116582.3761485,-65.91796875,-7.32421875,519.04296875,-310.546875,0.0,0,0
1772116582.446194,1772116582.3800454,-836.9140625,-5.37109375,404.78515625,931.15234375,0.0,0,0
1772116582.446235,1772116582.3839424,296.875,-42.48046875,-292.48046875,-912.59765625,0.0,0,0
1772116582.446275,1772116582.3878393,-966.796875,-58.10546875,-612.3046875,83.0078125,0.0,0,0
1772116582.446312,1772116582.3917363,-1000.0,-36.62109375,-170.8984375,-1000.0,0.0,0,0
1772116582.446351,1772116582.3956332,-59.08203125,11.71875,488.28125,-521.484375,0.0,0,0
1772116582.446389,1772116582.3995302,-857.421875,15.13671875,473.14453125,822.75390625,0.0,0,0
1772116582.4464269,1772116582.4034271,474.12109375,-37.109375,-192.3828125,-865.72265625,0.0,0,0
1772116582.446464,1772116582.407324,-783.69140625,-61.5234375,-589.35546875,169.921875,0.0,0,0
