timestamp,lsl_timestamp,TP9,AF7,AF8,TP10,Right AUX,keypress_A,keypress_B
1771936826.433942,1771936826.3334022,357.91015625,-11.23046875,-39.55078125,-40.0390625,0.0,0,0
1771936826.434059,1771936826.337266,-934.5703125,-9.27734375,-68.359375,-311.03515625,0.0,0,0
1771936826.434102,1771936826.34113,630.37109375,-24.4140625,-11.71875,-150.87890625,0.0,0,0
1771936826.434137,1771936826.3449938,-655.2734375,-31.73828125,38.0859375,155.2734375,0.0,0,0
1771936826.4341938,1771936826.3488579,-949.70703125,-21.484375,35.15625,278.80859375,0.0,0,0
1771936826.434229,1771936826.3527217,244.62890625,-15.13671875,-30.76171875,-4.8828125,0.0,0,0
1771936826.434258,1771936826.3565857,-937.01171875,-12.20703125,-61.5234375,-299.8046875,0.0,0,0
1771936826.434287,1771936826.3604496,671.38671875,-30.2734375,-31.25,-225.09765625,0.0,0,0
1771936826.434314,1771936826.3643136,-526.85546875,-9.27734375,36.1328125,157.71484375,0.0,0,0
1771936826.434342,1771936826.3681774,-1000.0,21.484375,66.89453125,359.375,0.0,0,0
1771936826.434369,1771936826.3720415,71.77734375,1.46484375,-12.20703125,59.5703125,0.0,0,0
1771936826.434397,1771936826.3759055,-978.515625,-9.27734375,-72.265625,-268.06640625,0.0,0,0
1771936826.4494798,1771936826.3802695,826.171875,-13.18359375,-48.33984375,-263.671875,0.0,0,0
1771936826.449551,1771936826.3841338,-273.92578125,-24.4140625,14.16015625,107.91015625,0.0,0,0
1771936826.449588,1771936826.3879979,-1000.0,-25.87890625,38.0859375,383.7890625,0.0,0,0
1771936826.4496179,1771936826.3918622,-183.59375,-17.08984375,-34.1796875,135.25390625,0.0,0,0
1771936826.4496481,1771936826.3957264,968.26171875,-17.578125,-91.796875,-260.7421875,0.0,0,0
1771936826.449676,1771936826.3995907,845.21484375,-13.671875,-67.3828125,-321.77734375,0.0,0,0
1771936826.449705,1771936826.403455,-230.95703125,-8.30078125,-0.9765625,8.7890625,0.0,0,0
1771936826.4497359,1771936826.407319,-1000.0,-22.94921875,27.34375,302.734375,0.0,0,0
1771936826.449764,1771936826.4111834,-461.42578125,-28.3203125,-31.73828125,170.41015625,0.0,0,0
1771936826.449792,1771936826.4150476,776.3671875,-21.97265625,-91.796875,-201.171875,0.0,0,0
1771936826.4498188,1771936826.418912,948.2421875,-26.85546875,-74.70703125,-305.17578125,0.0,0,0
1771936826.449847,1771936826.4227762,-155.76171875,-26.3671875,0.0,16.11328125,0.0,0,0
1771936826.4940941,1771936826.4270844,-1000.0,-19.04296875,35.64453125,322.265625,0.0,0,0
1771936826.494196,1771936826.430949,-498.53515625,-5.37109375,-5.37109375,251.46484375,0.0,0,0
1771936826.4942331,1771936826.4348133,715.33203125,-3.41796875,-69.3359375,-133.30078125,0.0,0,0
1771936826.4942698,1771936826.4386778,968.75,-2.9296875,-82.51953125,-324.21875,0.0,0,0
1771936826.494302,1771936826.4425423,-132.8125,-10.25390625,-16.11328125,-25.390625,0.0,0,0
1771936826.494335,1771936826.4464068,-1000.0,-5.859375,34.66796875,289.55078125,0.0,0,0
1771936826.494367,1771936826.4502714,-609.375,14.16015625,4.8828125,236.81640625,0.0,0,0
1771936826.494399,1771936826.454136,565.4296875,8.7890625,-71.77734375,-122.0703125,0.0,0,0
1771936826.4944582,1771936826.4580004,-986.328125,-13.671875,-92.7734375,-326.171875,0.0,0,0
1771936826.4944909,1771936826.461865,62.98828125,-25.390625,-9.27734375,-88.8671875,0.0,0,0
1771936826.4945228,1771936826.4657295,-1000.0,-8.7890625,44.43359375,234.86328125,0.0,0,0
1771936826.494595,1771936826.469594,-747.55859375,0.48828125,7.8125,291.50390625,0.0,0,0
1771936826.539567,1771936826.473863,382.8125,-16.11328125,-62.01171875,-71.77734375,0.0,0,0
1771936826.5396879,1771936826.4777277,-926.7578125,-28.3203125,-84.9609375,-345.21484375,0.0,0,0
1771936826.539735,1771936826.4815922,334.47265625,-16.11328125,-23.4375,-135.25390625,0.0,0,0
1771936826.5397792,1771936826.485457,-930.17578125,-20.5078125,25.87890625,201.171875,0.0,0,0
1771936826.539824,1771936826.4893217,-800.29296875,-17.08984375,16.11328125,299.31640625,0.0,0,0
1771936826.53987,1771936826.4931865,375.9765625,-2.9296875,-39.55078125,-7.32421875,0.0,0,0
1771936826.5399108,1771936826.4970512,-937.01171875,-9.27734375,-80.56640625,-298.828125,0.0,0,0
1771936826.539954,1771936826.500916,465.33203125,-16.6015625,-39.0625,-188.4765625,0.0,0,0
1771936826.5399969,1771936826.5047808,-766.6015625,-24.90234375,21.484375,148.4375,0.0,0,0
1771936826.5400379,1771936826.5086455,-930.17578125,-27.83203125,16.6015625,286.62109375,0.0,0,0
1771936826.54008,1771936826.5125103,221.19140625,-21.484375,-55.17578125,-19.04296875,0.0,0,0
1771936826.540122,1771936826.516375,-934.08203125,-28.3203125,-86.9140625,-305.17578125,0.0,0,0
1771936826.58567,1771936826.5206137,636.71875,-36.62109375,-45.8984375,-215.8203125,0.0,0,0
1771936826.585801,1771936826.5244787,-583.49609375,-37.59765625,7.32421875,127.9296875,0.0,0,0
1771936826.5858612,1771936826.5283437,-1000.0,-36.1328125,19.53125,316.40625,0.0,0,0
1771936826.585918,1771936826.5322084,94.23828125,-20.5078125,-49.31640625,75.1953125,0.0,0,0
1771936826.585981,1771936826.5360734,-944.3359375,-16.6015625,-89.84375,-246.58203125,0.0,0,0
1771936826.5860422,1771936826.5399384,726.5625,-27.34375,-58.59375,-322.265625,0.0,0,0
1771936826.586098,1771936826.5438035,-398.92578125,-13.18359375,0.9765625,-7.32421875,0.0,0,0
1771936826.586155,1771936826.5476685,-1000.0,-22.4609375,17.08984375,256.34765625,0.0,0,0
1771936826.586213,1771936826.5515335,-179.19921875,-38.57421875,-45.41015625,41.015625,0.0,0,0
1771936826.586271,1771936826.5553985,977.05078125,-26.85546875,-81.54296875,-273.92578125,0.0,0,0
1771936826.586331,1771936826.5592635,839.84375,-22.94921875,-50.29296875,-297.36328125,0.0,0,0
1771936826.586389,1771936826.5631282,-249.51171875,-24.90234375,20.5078125,25.87890625,0.0,0,0
1771936826.64391,1771936826.5673273,-1000.0,-31.25,52.734375,305.6640625,0.0,0,0
1771936826.644023,1771936826.5711923,-299.31640625,-22.4609375,-3.41796875,150.390625,0.0,0,0
1771936826.644063,1771936826.5750575,897.4609375,-22.4609375,-56.640625,-213.37890625,0.0,0,0
1771936826.644097,1771936826.5789227,905.76171875,-22.94921875,-42.96875,-325.1953125,0.0,0,0
1771936826.6441321,1771936826.582788,-175.29296875,-26.3671875,19.53125,-19.53125,0.0,0,0
1771936826.644166,1771936826.586653,-1000.0,-12.20703125,57.12890625,278.80859375,0.0,0,0
1771936826.644198,1771936826.5905182,-547.36328125,9.765625,10.7421875,192.3828125,0.0,0,0
1771936826.6442308,1771936826.5943835,670.8984375,-21.97265625,-57.12890625,-179.6875,0.0,0,0
1771936826.644263,1771936826.5982485,943.359375,-34.66796875,-58.10546875,-350.09765625,0.0,0,0
1771936826.644299,1771936826.6021137,-147.94921875,-30.76171875,12.20703125,-52.24609375,0.0,0,0
1771936826.644331,1771936826.605979,-1000.0,-35.15625,60.05859375,253.41796875,0.0,0,0
1771936826.644365,1771936826.609844,-621.09375,-21.97265625,19.53125,213.8671875,0.0,0,0
1771936826.6892219,1771936826.6142962,572.265625,-10.25390625,-55.17578125,-158.69140625,0.0,0,0
1771936826.6893198,1771936826.618162,-969.23828125,-20.99609375,-68.359375,-366.69921875,0.0,0,0
1771936826.6893508,1771936826.6220274,32.71484375,-21.97265625,-1.953125,-100.09765625,0.0,0,0
1771936826.6893802,1771936826.6258929,-1000.0,-19.53125,49.8046875,220.703125,0.0,0,0
1771936826.6894112,1771936826.6297584,-705.078125,-28.3203125,31.73828125,267.578125,0.0,0,0
1771936826.689439,1771936826.6336238,470.703125,-23.4375,-41.9921875,-86.42578125,0.0,0,0
1771936826.689467,1771936826.6374893,-946.2890625,-26.85546875,-77.63671875,-360.83984375,0.0,0,0
1771936826.6894941,1771936826.6413548,233.88671875,-41.50390625,-17.578125,-121.09375,0.0,0,0
1771936826.689522,1771936826.6452205,-974.609375,-51.7578125,37.59765625,196.77734375,0.0,0,0
1771936826.689549,1771936826.649086,-751.953125,-23.4375,28.80859375,241.69921875,0.0,0,0
1771936826.6895769,1771936826.6529515,411.1328125,-17.08984375,-44.43359375,-77.1484375,0.0,0,0
1771936826.689604,1771936826.656817,-928.22265625,-39.0625,-78.61328125,-370.60546875,0.0,0,0
1771936826.735412,1771936826.6612551,456.0546875,-33.69140625,-18.5546875,-217.28515625,0.0,0,0
1771936826.735581,1771936826.665121,-821.77734375,-27.34375,38.57421875,160.64453125,0.0,0,0
1771936826.735648,1771936826.668987,-893.06640625,-13.18359375,36.62109375,308.59375,0.0,0,0
1771936826.736133,1771936826.6728528,268.5546875,-19.53125,-39.0625,-23.4375,0.0,0,0
1771936826.736182,1771936826.6767187,-926.7578125,-23.4375,-78.125,-333.984375,0.0,0,0
1771936826.7362251,1771936826.6805844,630.37109375,-13.671875,-31.25,-237.79296875,0.0,0,0
1771936826.7362728,1771936826.6844504,-637.6953125,-31.25,24.4140625,121.09375,0.0,0,0
1771936826.736317,1771936826.688316,-1000.0,-42.96875,34.1796875,314.453125,0.0,0,0
1771936826.7363572,1771936826.692182,128.90625,-31.25,-39.55078125,29.78515625,0.0,0,0
1771936826.736397,1771936826.6960478,-943.84765625,-21.97265625,-80.56640625,-286.62109375,0.0,0,0
1771936826.736439,1771936826.6999137,687.98828125,-40.52734375,-49.8046875,-270.01953125,0.0,0,0
1771936826.736481,1771936826.7037795,-528.3203125,-54.19921875,11.71875,71.2890625,0.0,0,0
1771936826.778924,1771936826.7081516,-1000.0,-46.38671875,36.62109375,313.4765625,0.0,0,0
1771936826.779042,1771936826.7120178,-9.765625,-43.45703125,-36.62109375,68.359375,0.0,0,0
1771936826.779078,1771936826.715884,997.55859375,-40.0390625,-86.42578125,-266.6015625,0.0,0,0
1771936826.779113,1771936826.7197502,755.859375,-41.50390625,-54.6875,-289.0625,0.0,0,0
1771936826.779146,1771936826.7236164,-412.109375,-48.33984375,7.8125,33.69140625,0.0,0,0
1771936826.779179,1771936826.7274823,-1000.0,-34.66796875,39.0625,312.98828125,0.0,0,0
1771936826.779212,1771936826.7313485,-165.52734375,-34.66796875,-25.390625,124.51171875,0.0,0,0
1771936826.7792482,1771936826.7352147,933.10546875,-53.22265625,-96.6796875,-248.53515625,0.0,0,0
1771936826.7793112,1771936826.739081,775.390625,-49.31640625,-92.7734375,-360.83984375,0.0,0,0
1771936826.7793438,1771936826.7429469,-377.44140625,-42.96875,-25.87890625,-43.9453125,0.0,0,0
1771936826.779378,1771936826.746813,-1000.0,-41.015625,17.08984375,276.3671875,0.0,0,0
1771936826.7794108,1771936826.7506793,-348.14453125,-37.59765625,-35.15625,145.01953125,0.0,0,0
1771936826.824437,1771936826.7550125,798.33984375,-39.55078125,-96.19140625,-241.69921875,0.0,0,0
1771936826.824594,1771936826.7588787,914.55078125,-46.875,-92.28515625,-375.9765625,0.0,0,0
1771936826.8246589,1771936826.7627451,-170.41015625,-58.59375,-26.3671875,-62.98828125,0.0,0,0
1771936826.82472,1771936826.7666116,-1000.0,-60.546875,19.04296875,275.390625,0.0,0,0
1771936826.824778,1771936826.770478,-518.06640625,-44.43359375,-19.53125,216.30859375,0.0,0,0
1771936826.824836,1771936826.7743444,682.6171875,-26.85546875,-88.8671875,-202.63671875,0.0,0,0
1771936826.824895,1771936826.7782109,994.140625,-48.33984375,-96.19140625,-388.18359375,0.0,0,0
1771936826.824953,1771936826.7820773,-13.18359375,-47.36328125,-27.83203125,-93.26171875,0.0,0,0
1771936826.825011,1771936826.7859437,-1000.0,-23.92578125,18.06640625,217.7734375,0.0,0,0
1771936826.825068,1771936826.7898102,-596.19140625,-38.0859375,-2.44140625,253.41796875,0.0,0,0
1771936826.8251252,1771936826.7936766,593.75,-41.9921875,-73.73046875,-126.46484375,0.0,0,0
1771936826.825187,1771936826.7975428,-989.74609375,-41.50390625,-95.703125,-403.3203125,0.0,0,0
1771936826.8710191,1771936826.8018403,114.74609375,-47.36328125,-25.390625,-151.85546875,0.0,0,0
1771936826.8711932,1771936826.805707,-1000.0,-50.29296875,29.296875,184.5703125,0.0,0,0
1771936826.8712618,1771936826.8095737,-706.54296875,-41.015625,8.7890625,256.34765625,0.0,0,0
1771936826.8713238,1771936826.8134403,473.6328125,-35.64453125,-70.80078125,-78.125,0.0,0,0
1771936826.8713841,1771936826.817307,-956.54296875,-42.48046875,-104.98046875,-369.140625,0.0,0,0
1771936826.871444,1771936826.8211737,372.55859375,-44.43359375,-44.921875,-188.4765625,0.0,0,0
1771936826.8715022,1771936826.82504,-834.9609375,-42.48046875,15.625,180.17578125,0.0,0,0
1771936826.871559,1771936826.8289068,-880.37109375,-30.76171875,7.8125,303.7109375,0.0,0,0
1771936826.871618,1771936826.8327734,276.85546875,-26.3671875,-67.3828125,-39.55078125,0.0,0,0
1771936826.8716748,1771936826.8366401,-937.5,-42.96875,-100.09765625,-353.515625,0.0,0,0
1771936826.8717299,1771936826.8405068,612.79296875,-43.45703125,-40.52734375,-222.16796875,0.0,0,0
1771936826.871789,1771936826.8443735,-644.53125,-44.43359375,24.90234375,141.11328125,0.0,0,0
1771936826.927943,1771936826.8486295,-930.17578125,-39.55078125,24.90234375,286.62109375,0.0,0,0
1771936826.9280472,1771936826.8524961,257.8125,-26.85546875,-52.24609375,20.99609375,0.0,0,0
1771936826.9280791,1771936826.856363,-935.546875,-33.203125,-85.9375,-278.80859375,0.0,0,0
1771936826.928106,1771936826.86023,628.90625,-38.0859375,-43.45703125,-272.4609375,0.0,0,0
1771936826.928134,1771936826.8640969,-574.70703125,-36.62109375,16.6015625,63.96484375,0.0,0,0
1771936826.928162,1771936826.8679638,-976.5625,-28.3203125,39.0625,291.015625,0.0,0,0
1771936826.928189,1771936826.8718307,113.76953125,-8.30078125,-34.66796875,36.62109375,0.0,0,0
1771936826.928216,1771936826.8756976,-978.02734375,-10.7421875,-89.84375,-304.19921875,0.0,0,0
1771936826.928247,1771936826.8795643,722.16796875,-37.59765625,-67.87109375,-317.3828125,0.0,0,0
1771936826.928274,1771936826.8834312,-394.04296875,-42.48046875,0.9765625,26.3671875,0.0,0,0
1771936826.928301,1771936826.887298,-1000.0,-34.66796875,28.80859375,276.85546875,0.0,0,0
1771936826.9283268,1771936826.891165,-152.34375,-32.2265625,-39.55078125,78.61328125,0.0,0,0
1771936826.959424,1771936826.8953834,962.890625,-42.96875,-90.8203125,-248.53515625,0.0,0,0
1771936826.959614,1771936826.8992505,812.98828125,-39.0625,-70.80078125,-313.96484375,0.0,0,0
1771936826.9596622,1771936826.9031177,-291.9921875,-24.4140625,-7.8125,-12.20703125,0.0,0,0
1771936826.9597068,1771936826.9069846,-1000.0,-29.296875,21.484375,270.99609375,0.0,0,0
1771936826.959775,1771936826.9108517,-350.5859375,-32.2265625,-41.015625,135.7421875,0.0,0,0
1771936826.9598248,1771936826.9147189,863.28125,-20.99609375,-99.12109375,-224.12109375,0.0,0,0
1771936826.959856,1771936826.918586,886.23046875,-8.7890625,-86.9140625,-326.66015625,0.0,0,0
1771936826.959884,1771936826.922453,-208.0078125,-23.92578125,-22.4609375,-0.9765625,0.0,0,0
1771936826.959947,1771936826.92632,-1000.0,-39.55078125,14.16015625,281.73828125,0.0,0,0
1771936826.959981,1771936826.9301872,-492.67578125,-20.5078125,-20.01953125,201.171875,0.0,0,0
1771936826.960026,1771936826.9340541,720.21484375,-15.625,-84.9609375,-175.29296875,0.0,0,0
1771936826.960093,1771936826.9379213,938.96484375,-36.1328125,-97.16796875,-367.67578125,0.0,0,0
1771936827.034695,1771936826.9426627,-125.48828125,-50.78125,-34.66796875,-63.4765625,0.0,0,0
1771936827.0347881,1771936826.94653,-1000.0,-47.8515625,13.671875,250.9765625,0.0,0,0
1771936827.034818,1771936826.9503977,-611.328125,-25.390625,-10.7421875,237.3046875,0.0,0,0
1771936827.034847,1771936826.9542654,562.98828125,-18.5546875,-85.9375,-141.6015625,0.0,0,0
1771936827.0348742,1771936826.958133,-965.8203125,-31.25,-103.02734375,-389.16015625,0.0,0,0
1771936827.034901,1771936826.9620004,194.82421875,-8.7890625,-19.04296875,-117.67578125,0.0,0,0
1771936827.0349288,1771936826.965868,-983.3984375,-12.6953125,19.53125,210.44921875,0.0,0,0
1771936827.034955,1771936826.9697356,-794.921875,-39.55078125,-15.625,249.51171875,0.0,0,0
1771936827.0349839,1771936826.9736032,371.58203125,-33.69140625,-81.54296875,-87.890625,0.0,0,0
1771936827.035011,1771936826.9774706,-915.52734375,-35.15625,-105.46875,-353.02734375,0.0,0,0
1771936827.035038,1771936826.9813383,304.19921875,-37.109375,-38.0859375,-171.38671875,0.0,0,0
1771936827.035073,1771936826.985206,-929.19921875,-43.45703125,8.7890625,162.59765625,0.0,0,0
1771936827.064228,1771936826.9896445,-789.55078125,-29.296875,-0.9765625,272.94921875,0.0,0,0
1771936827.064327,1771936826.9935124,366.69921875,-16.11328125,-75.68359375,-57.6171875,0.0,0,0
1771936827.064359,1771936826.9973803,-926.26953125,-39.0625,-120.60546875,-357.91015625,0.0,0,0
1771936827.0643892,1771936827.0012481,437.01171875,-53.7109375,-57.6171875,-223.6328125,0.0,0,0
1771936827.064416,1771936827.005116,-804.19921875,-37.109375,2.9296875,142.08984375,0.0,0,0
1771936827.0644438,1771936827.0089839,-841.796875,-15.13671875,5.37109375,332.03125,0.0,0,0
1771936827.064471,1771936827.0128517,329.58984375,-21.97265625,-68.359375,-1.46484375,0.0,0,0
1771936827.064631,1771936827.0167196,-946.77734375,-48.828125,-118.65234375,-336.42578125,0.0,0,0
1771936827.064662,1771936827.0205877,582.03125,-57.12890625,-64.453125,-227.05078125,0.0,0,0
1771936827.064689,1771936827.0244555,-616.69921875,-51.7578125,2.44140625,118.65234375,0.0,0,0
1771936827.064716,1771936827.0283234,-984.86328125,-40.52734375,7.32421875,302.24609375,0.0,0,0
1771936827.0647428,1771936827.0321913,112.79296875,-43.45703125,-64.453125,25.390625,0.0,0,0
1771936827.109947,1771936827.0365746,-964.35546875,-49.8046875,-105.95703125,-281.25,0.0,0,0
1771936827.110111,1771936827.0404427,734.86328125,-25.390625,-70.3125,-277.83203125,0.0,0,0
1771936827.1101818,1771936827.0443108,-431.15234375,-35.64453125,-8.30078125,45.41015625,0.0,0,0
1771936827.110249,1771936827.0481791,-1000.0,-58.10546875,6.34765625,284.1796875,0.0,0,0
1771936827.110316,1771936827.0520473,-114.74609375,-53.7109375,-75.1953125,30.2734375,0.0,0,0
1771936827.1103811,1771936827.0559154,971.19140625,-49.31640625,-123.046875,-312.5,0.0,0,0
1771936827.110446,1771936827.0597835,749.0234375,-58.10546875,-94.7265625,-338.8671875,0.0,0,0
1771936827.11051,1771936827.0636518,-386.71875,-67.87109375,-35.15625,-9.27734375,0.0,0,0
1771936827.110573,1771936827.06752,-1000.0,-51.7578125,-3.90625,270.99609375,0.0,0,0
1771936827.1106439,1771936827.071388,-311.03515625,-30.2734375,-64.94140625,107.91015625,0.0,0,0
1771936827.1107259,1771936827.075256,874.51171875,-40.52734375,-122.0703125,-267.578125,0.0,0,0
1771936827.1107998,1771936827.0791245,865.234375,-56.640625,-104.98046875,-363.76953125,0.0,0,0
1771936827.155481,1771936827.083463,-246.09375,-61.03515625,-30.2734375,-35.64453125,0.0,0,0
1771936827.155605,1771936827.0873313,-1000.0,-64.453125,11.23046875,270.5078125,0.0,0,0
1771936827.155652,1771936827.0911999,-476.5625,-65.4296875,-39.55078125,191.40625,0.0,0,0
1771936827.1556962,1771936827.0950682,714.35546875,-59.08203125,-114.2578125,-200.68359375,0.0,0,0
1771936827.155741,1771936827.0989366,967.28515625,-54.6875,-105.95703125,-383.7890625,0.0,0,0
1771936827.155784,1771936827.1028051,-72.75390625,-49.8046875,-22.4609375,-66.40625,0.0,0,0
1771936827.1558259,1771936827.1066735,-1000.0,-42.48046875,11.71875,250.9765625,0.0,0,0
1771936827.1558678,1771936827.1105418,-650.87890625,-46.875,-31.25,189.94140625,0.0,0,0
1771936827.1559098,1771936827.1144104,502.44140625,-49.8046875,-111.81640625,-210.9375,0.0,0,0
1771936827.1559522,1771936827.1182787,-947.75390625,-52.734375,-122.0703125,-410.15625,0.0,0,0
1771936827.1559942,1771936827.122147,129.39453125,-55.6640625,-42.48046875,-130.859375,0.0,0,0
1771936827.1560361,1771936827.1260157,-1000.0,-51.26953125,3.41796875,208.49609375,0.0,0,0
1771936827.198997,1771936827.1303177,-697.75390625,-46.38671875,-18.06640625,249.0234375,0.0,0,0
1771936827.199091,1771936827.1341865,469.23828125,-50.29296875,-89.35546875,-112.3046875,0.0,0,0
1771936827.199122,1771936827.138055,-958.984375,-61.5234375,-112.79296875,-373.046875,0.0,0,0
1771936827.19915,1771936827.1419237,225.09765625,-61.5234375,-54.19921875,-164.55078125,0.0,0,0
1771936827.199179,1771936827.1457925,-980.46875,-55.17578125,-4.8828125,185.05859375,0.0,0,0
1771936827.1992059,1771936827.149661,-698.73046875,-40.52734375,-10.25390625,285.64453125,0.0,0,0
1771936827.199233,1771936827.1535296,460.44921875,-45.41015625,-91.30859375,-60.546875,0.0,0,0
1771936827.19926,1771936827.1573985,-945.3125,-42.96875,-134.765625,-345.21484375,0.0,0,0
1771936827.199287,1771936827.161267,482.421875,-17.08984375,-59.5703125,-189.94140625,0.0,0,0
1771936827.1993139,1771936827.1651356,-764.16015625,-26.85546875,9.765625,152.83203125,0.0,0,0
1771936827.19934,1771936827.1690044,-965.8203125,-40.0390625,-2.44140625,283.203125,0.0,0,0
1771936827.1993668,1771936827.172873,174.31640625,-53.7109375,-80.078125,-41.50390625,0.0,0,0
1771936827.2440052,1771936827.177141,-927.24609375,-53.7109375,-116.2109375,-354.98046875,0.0,0,0
1771936827.2441149,1771936827.1810098,638.18359375,-48.828125,-68.84765625,-261.71875,0.0,0,0
1771936827.244147,1771936827.1848786,-632.32421875,-50.29296875,-11.23046875,98.14453125,0.0,0,0
1771936827.244176,1771936827.1887474,-952.63671875,-35.64453125,4.39453125,304.19921875,0.0,0,0
1771936827.244204,1771936827.1926165,225.5859375,-31.25,-57.6171875,39.55078125,0.0,0,0
1771936827.244232,1771936827.1964853,-948.2421875,-37.59765625,-104.98046875,-289.55078125,0.0,0,0
1771936827.24426,1771936827.200354,654.296875,-41.50390625,-73.2421875,-283.203125,0.0,0,0
1771936827.244288,1771936827.204223,-506.8359375,-43.45703125,-13.671875,55.6640625,0.0,0,0
1771936827.2443142,1771936827.208092,-1000.0,-34.1796875,3.90625,286.1328125,0.0,0,0
1771936827.244341,1771936827.2119608,10.7421875,-33.69140625,-55.6640625,39.0625,0.0,0,0
1771936827.2443688,1771936827.2158296,-982.421875,-41.015625,-99.609375,-289.55078125,0.0,0,0
1771936827.244396,1771936827.2196984,738.28125,-55.17578125,-78.61328125,-294.43359375,0.0,0,0
1771936827.332823,1771936827.2239294,-378.41796875,-46.875,-9.27734375,48.828125,0.0,0,0
1771936827.33298,1771936827.2277985,-1000.0,-39.0625,27.83203125,300.29296875,0.0,0,0
1771936827.333044,1771936827.2316675,-241.69921875,-37.59765625,-46.38671875,98.14453125,0.0,0,0
1771936827.3331058,1771936827.2355366,941.89453125,-40.0390625,-111.81640625,-262.20703125,0.0,0,0
1771936827.33324,1771936827.2394056,808.10546875,-48.828125,-85.44921875,-314.94140625,0.0,0,0
1771936827.333309,1771936827.2432747,-298.828125,-38.57421875,-1.953125,32.71484375,0.0,0,0
1771936827.3333728,1771936827.2471437,-1000.0,-33.203125,20.99609375,309.5703125,0.0,0,0
1771936827.333431,1771936827.2510128,-465.8203125,-19.53125,-41.015625,172.36328125,0.0,0,0
1771936827.33349,1771936827.2548819,778.80859375,-34.66796875,-92.28515625,-217.28515625,0.0,0,0
1771936827.333548,1771936827.258751,885.7421875,-53.7109375,-83.984375,-361.81640625,0.0,0,0
1771936827.333652,1771936827.26262,-238.76953125,-56.15234375,-18.06640625,-68.84765625,0.0,0,0
1771936827.3337479,1771936827.266489,-1000.0,-48.828125,21.97265625,240.234375,0.0,0,0
1771936827.33477,1771936827.2707217,-540.52734375,-34.1796875,-15.13671875,204.1015625,0.0,0,0
1771936827.3348238,1771936827.2745907,647.94921875,-39.0625,-84.9609375,-173.828125,0.0,0,0
1771936827.3348532,1771936827.27846,997.0703125,-42.96875,-93.75,-373.046875,0.0,0,0
1771936827.33488,1771936827.2823293,-25.390625,-38.0859375,-20.01953125,-95.21484375,0.0,0,0
1771936827.3349068,1771936827.2861986,-1000.0,-35.64453125,31.25,225.09765625,0.0,0,0
1771936827.3349361,1771936827.290068,-633.7890625,-35.64453125,5.859375,246.09375,0.0,0,0
1771936827.334964,1771936827.2939372,513.18359375,-32.2265625,-75.68359375,-126.46484375,0.0,0,0
1771936827.334992,1771936827.2978065,-959.47265625,-34.1796875,-94.23828125,-364.74609375,0.0,0,0
1771936827.33502,1771936827.3016758,124.0234375,-43.45703125,-25.87890625,-133.30078125,0.0,0,0
1771936827.335048,1771936827.3055449,-1000.0,-37.59765625,19.53125,205.078125,0.0,0,0
1771936827.335074,1771936827.3094141,-744.140625,-32.71484375,5.859375,296.38671875,0.0,0,0
1771936827.335101,1771936827.3132834,407.2265625,-37.59765625,-67.87109375,-73.2421875,0.0,0,0
1771936827.3930109,1771936827.3174624,-939.453125,-39.0625,-100.5859375,-381.34765625,0.0,0,0
1771936827.393088,1771936827.3213317,378.41796875,-44.921875,-32.71484375,-172.36328125,0.0,0,0
1771936827.393122,1771936827.3252013,-876.46484375,-45.41015625,27.83203125,173.828125,0.0,0,0
1771936827.393152,1771936827.3290706,-810.05859375,-28.3203125,22.4609375,266.11328125,0.0,0,0
1771936827.3931808,1771936827.33294,383.30078125,-27.34375,-50.29296875,-54.6875,0.0,0,0
1771936827.393211,1771936827.3368096,-933.59375,-31.25,-96.19140625,-351.07421875,0.0,0,0
1771936827.393239,1771936827.340679,581.0546875,-16.6015625,-37.109375,-206.0546875,0.0,0,0
1771936827.3932679,1771936827.3445485,-671.38671875,-37.109375,24.4140625,151.3671875,0.0,0,0
1771936827.3932958,1771936827.3484178,-939.453125,-48.33984375,22.4609375,291.9921875,0.0,0,0
1771936827.3933241,1771936827.3522873,213.37890625,-33.203125,-38.57421875,-9.765625,0.0,0,0
1771936827.393352,1771936827.3561566,-940.91796875,-17.08984375,-68.84765625,-311.03515625,0.0,0,0
1771936827.393462,1771936827.3600261,664.0625,-29.296875,-34.1796875,-269.53125,0.0,0,0
1771936827.439352,1771936827.364417,-550.78125,-39.55078125,23.4375,83.49609375,0.0,0,0
1771936827.439411,1771936827.3682868,-1000.0,-18.5546875,41.015625,297.36328125,0.0,0,0
1771936827.439429,1771936827.3721564,59.08203125,-16.11328125,-31.73828125,33.69140625,0.0,0,0
1771936827.439445,1771936827.3760262,-981.4453125,-27.34375,-76.66015625,-303.22265625,0.0,0,0
1771936827.4394612,1771936827.379896,767.578125,-32.71484375,-45.8984375,-305.6640625,0.0,0,0
1771936827.439477,1771936827.3837655,-359.86328125,-23.4375,16.11328125,56.640625,0.0,0,0
1771936827.439492,1771936827.3876352,-1000.0,-20.99609375,40.52734375,308.10546875,0.0,0,0
1771936827.439507,1771936827.391505,-185.546875,-22.94921875,-39.55078125,103.02734375,0.0,0,0
1771936827.439564,1771936827.3953748,929.6875,-34.1796875,-101.07421875,-242.67578125,0.0,0,0
1771936827.439596,1771936827.3992443,823.73046875,-34.66796875,-63.96484375,-321.2890625,0.0,0,0
1771936827.439614,1771936827.403114,-274.4140625,-31.73828125,4.8828125,-7.8125,0.0,0,0
1771936827.43963,1771936827.4069839,-1000.0,-43.9453125,31.73828125,291.50390625,0.0,0,0
1771936827.483724,1771936827.4113417,-373.046875,-39.0625,-24.90234375,157.2265625,0.0,0,0
1771936827.483787,1771936827.4152117,820.80078125,-28.3203125,-85.44921875,-233.3984375,0.0,0,0
1771936827.483804,1771936827.4190817,921.875,-30.2734375,-79.1015625,-339.84375,0.0,0,0
1771936827.483819,1771936827.4229515,-172.8515625,-33.203125,-13.671875,-27.83203125,0.0,0,0
1771936827.483835,1771936827.4268215,-1000.0,-29.78515625,21.97265625,239.74609375,0.0,0,0
1771936827.48385,1771936827.4306915,-416.015625,-18.06640625,-22.4609375,187.01171875,0.0,0,0
1771936827.4838662,1771936827.4345615,790.0390625,-25.87890625,-91.796875,-182.12890625,0.0,0,0
1771936827.483881,1771936827.4384315,910.64453125,-48.828125,-97.65625,-377.44140625,0.0,0,0
1771936827.483896,1771936827.4423013,-130.37109375,-24.4140625,-23.4375,-69.3359375,0.0,0,0
1771936827.4839108,1771936827.4461713,-1000.0,4.39453125,20.99609375,255.859375,0.0,0,0
1771936827.483925,1771936827.4500413,-624.51171875,-19.04296875,-14.16015625,231.4453125,0.0,0,0
1771936827.483941,1771936827.4539113,557.12890625,-31.25,-89.35546875,-155.76171875,0.0,0,0
1771936827.528707,1771936827.4582288,-967.7734375,-29.296875,-107.91015625,-387.6953125,0.0,0,0
1771936827.5287611,1771936827.462099,95.21484375,-35.15625,-36.62109375,-122.0703125,0.0,0,0
1771936827.528824,1771936827.4659693,-1000.0,-37.59765625,10.25390625,217.28515625,0.0,0,0
1771936827.528853,1771936827.4698393,-672.36328125,-21.484375,-1.46484375,291.015625,0.0,0,0
1771936827.5288708,1771936827.4737096,501.953125,-30.2734375,-71.2890625,-62.98828125,0.0,0,0
1771936827.5289211,1771936827.4775798,-938.4765625,-36.62109375,-99.609375,-361.328125,0.0,0,0
1771936827.52896,1771936827.48145,368.65234375,-22.4609375,-29.78515625,-165.0390625,0.0,0,0
1771936827.528995,1771936827.48532,-884.765625,-30.76171875,18.5546875,195.80078125,0.0,0,0
1771936827.529014,1771936827.4891903,-839.35546875,-20.99609375,0.9765625,293.45703125,0.0,0,0
1771936827.529057,1771936827.4930606,351.07421875,-10.7421875,-71.77734375,-34.66796875,0.0,0,0
1771936827.529122,1771936827.4969308,-937.01171875,-28.3203125,-106.93359375,-338.8671875,0.0,0,0
1771936827.529144,1771936827.5008008,463.37890625,-41.50390625,-61.03515625,-233.88671875,0.0,0,0
1771936827.574361,1771936827.5050824,-758.30078125,-38.0859375,3.41796875,153.3203125,0.0,0,0
1771936827.574399,1771936827.5089526,-912.109375,-20.99609375,11.23046875,303.7109375,0.0,0,0
1771936827.574412,1771936827.512823,248.53515625,-19.53125,-58.10546875,-30.2734375,0.0,0,0
1771936827.574424,1771936827.5166936,-933.59375,-19.04296875,-96.19140625,-323.2421875,0.0,0,0
1771936827.574435,1771936827.5205638,596.19140625,-33.203125,-59.08203125,-250.9765625,0.0,0,0
1771936827.574446,1771936827.5244343,-609.86328125,-40.0390625,4.39453125,104.98046875,0.0,0,0
1771936827.5744572,1771936827.5283048,-1000.0,-35.64453125,18.5546875,329.1015625,0.0,0,0
1771936827.5744681,1771936827.532175,89.35546875,-28.3203125,-55.17578125,35.15625,0.0,0,0
1771936827.574479,1771936827.5360456,-964.35546875,-22.4609375,-106.93359375,-329.1015625,0.0,0,0
1771936827.57449,1771936827.539916,721.19140625,-35.64453125,-70.80078125,-299.8046875,0.0,0,0
1771936827.574501,1771936827.5437863,-437.98828125,-38.0859375,6.8359375,63.96484375,0.0,0,0
1771936827.574511,1771936827.5476568,-1000.0,-31.73828125,34.1796875,318.359375,0.0,0,0
1771936827.633632,1771936827.5521612,-67.87109375,-28.80859375,-33.69140625,80.56640625,0.0,0,0
1771936827.633667,1771936827.556032,972.65625,-33.69140625,-91.796875,-280.2734375,0.0,0,0
1771936827.6336792,1771936827.5599027,802.734375,-36.1328125,-69.82421875,-300.29296875,0.0,0,0
1771936827.6336892,1771936827.5637734,-307.12890625,-43.9453125,-5.37109375,43.9453125,0.0,0,0
1771936827.6337001,1771936827.5676441,-1000.0,-36.1328125,22.94921875,280.2734375,0.0,0,0
1771936827.6337101,1771936827.5715148,-231.4453125,-7.32421875,-28.80859375,111.81640625,0.0,0,0
1771936827.633774,1771936827.5753856,939.453125,-19.04296875,-86.9140625,-224.12109375,0.0,0,0
1771936827.633787,1771936827.5792565,872.55859375,-16.11328125,-73.2421875,-343.75,0.0,0,0
1771936827.6337972,1771936827.5831273,-235.3515625,-25.87890625,-13.671875,-49.31640625,0.0,0,0
1771936827.6338072,1771936827.586998,-1000.0,-53.7109375,18.06640625,257.32421875,0.0,0,0
1771936827.6338172,1771936827.5908687,-425.29296875,-37.59765625,-24.4140625,185.05859375,0.0,0,0
1771936827.633827,1771936827.5947394,773.4375,-34.66796875,-85.44921875,-192.3828125,0.0,0,0
1771936827.66397,1771936827.5989501,937.5,-44.43359375,-85.9375,-359.375,0.0,0,0
1771936827.664012,1771936827.602821,-136.23046875,-37.109375,-4.8828125,-51.26953125,0.0,0,0
1771936827.664024,1771936827.606692,-1000.0,-31.25,35.15625,250.0,0.0,0,0
1771936827.6640341,1771936827.610563,-634.765625,-47.36328125,-21.484375,217.7734375,0.0,0,0
1771936827.664045,1771936827.6144338,533.203125,-48.828125,-88.8671875,-147.4609375,0.0,0,0
1771936827.664067,1771936827.6183047,-950.1953125,-21.97265625,-84.9609375,-356.93359375,0.0,0,0
1771936827.664086,1771936827.6221757,50.78125,-31.73828125,-15.13671875,-108.3984375,0.0,0,0
1771936827.664097,1771936827.6260467,-1000.0,-58.10546875,20.99609375,204.1015625,0.0,0,0
1771936827.664107,1771936827.6299174,-646.97265625,-39.0625,0.0,264.16015625,0.0,0,0
1771936827.664117,1771936827.6337883,515.13671875,-29.296875,-61.5234375,-92.28515625,0.0,0,0
1771936827.6641269,1771936827.6376593,-975.5859375,-23.92578125,-86.9140625,-380.859375,0.0,0,0
1771936827.664137,1771936827.6415303,150.390625,-23.4375,-30.76171875,-166.50390625,0.0,0,0
1771936827.709116,1771936827.6457095,-1000.0,-39.55078125,19.53125,198.73046875,0.0,0,0
1771936827.709153,1771936827.6495807,-753.90625,-44.921875,10.7421875,292.96875,0.0,0,0
1771936827.709166,1771936827.6534517,393.5546875,-40.0390625,-58.10546875,-57.12890625,0.0,0,0
1771936827.709179,1771936827.657323,-928.7109375,-35.15625,-93.75,-344.7265625,0.0,0,0
1771936827.709194,1771936827.6611938,435.05859375,-41.015625,-40.52734375,-172.8515625,0.0,0,0
1771936827.709207,1771936827.665065,-841.796875,-29.296875,15.13671875,158.69140625,0.0,0,0
1771936827.7092211,1771936827.668936,-824.70703125,8.30078125,10.7421875,278.3203125,0.0,0,0
1771936827.709234,1771936827.672807,336.42578125,-0.9765625,-62.98828125,-35.64453125,0.0,0,0
1771936827.709246,1771936827.6766782,-958.0078125,-38.57421875,-93.75,-331.0546875,0.0,0,0
1771936827.709259,1771936827.6805491,551.26953125,-42.96875,-43.45703125,-237.79296875,0.0,0,0
1771936827.709271,1771936827.6844203,-655.76171875,-35.64453125,15.13671875,110.83984375,0.0,0,0
1771936827.709283,1771936827.6882913,-950.68359375,-32.71484375,22.4609375,300.78125,0.0,0,0
1771936827.7675772,1771936827.6924365,204.1015625,-31.25,-42.48046875,25.390625,0.0,0,0
1771936827.767627,1771936827.6963077,-933.59375,-30.2734375,-85.44921875,-294.921875,0.0,0,0
1771936827.767648,1771936827.7001789,619.140625,-39.0625,-62.98828125,-282.2265625,0.0,0,0
1771936827.767728,1771936827.70405,-540.0390625,-36.62109375,9.765625,86.9140625,0.0,0,0
1771936827.767749,1771936827.7079213,-1000.0,-29.296875,35.64453125,332.03125,0.0,0,0
1771936827.767766,1771936827.7117925,-24.90234375,-26.3671875,-50.29296875,61.03515625,0.0,0,0
1771936827.7677839,1771936827.7156637,-977.05078125,-18.5546875,-109.86328125,-295.41015625,0.0,0,0
1771936827.767801,1771936827.7195349,750.0,-43.45703125,-76.171875,-313.96484375,0.0,0,0
1771936827.767818,1771936827.723406,-383.7890625,-44.43359375,10.7421875,59.08203125,0.0,0,0
1771936827.767835,1771936827.7272773,-1000.0,-7.8125,60.05859375,322.265625,0.0,0,0
1771936827.767851,1771936827.7311485,-193.359375,6.34765625,-13.18359375,106.93359375,0.0,0,0
1771936827.7678678,1771936827.7350197,905.76171875,-27.34375,-96.6796875,-270.99609375,0.0,0,0
1771936827.827799,1771936827.7393994,858.88671875,-44.43359375,-79.58984375,-342.28515625,0.0,0,0
1771936827.8278558,1771936827.743271,-241.2109375,-31.73828125,2.44140625,-1.46484375,0.0,0,0
1771936827.827879,1771936827.7471426,-1000.0,-32.2265625,40.0390625,292.48046875,0.0,0,0
1771936827.827899,1771936827.751014,-292.96875,-20.01953125,-3.41796875,201.171875,0.0,0,0
1771936827.82792,1771936827.7548854,848.6328125,-27.83203125,-66.40625,-201.66015625,0.0,0,0
1771936827.82794,1771936827.7587569,960.9375,-17.08984375,-68.84765625,-366.69921875,0.0,0,0
1771936827.82796,1771936827.7626283,-92.28515625,-13.18359375,-9.27734375,-48.828125,0.0,0,0
1771936827.827979,1771936827.7664998,-1000.0,-45.41015625,24.4140625,244.62890625,0.0,0,0
1771936827.828,1771936827.7703712,-582.03125,-27.83203125,-11.23046875,197.75390625,0.0,0,0
1771936827.8280199,1771936827.7742426,614.2578125,-11.71875,-73.73046875,-177.734375,0.0,0,0
1771936827.828039,1771936827.778114,-983.3984375,-23.92578125,-78.125,-364.2578125,0.0,0,0
1771936827.828058,1771936827.7819855,-7.32421875,-29.296875,-18.5546875,-82.03125,0.0,0,0
1771936827.859513,1771936827.7863245,-1000.0,-24.90234375,31.25,239.74609375,0.0,0,0
1771936827.859575,1771936827.7901962,-617.1875,-20.5078125,15.625,269.04296875,0.0,0,0
1771936827.8595982,1771936827.7940679,558.10546875,-36.1328125,-62.98828125,-109.86328125,0.0,0,0
1771936827.8596191,1771936827.7979395,-953.125,-36.62109375,-92.28515625,-358.88671875,0.0,0,0
1771936827.8596401,1771936827.8018112,166.015625,-24.90234375,-16.11328125,-117.67578125,0.0,0,0
1771936827.859661,1771936827.805683,-1000.0,-12.6953125,48.33984375,220.21484375,0.0,0,0
1771936827.8596811,1771936827.8095546,-699.70703125,2.44140625,28.80859375,295.8984375,0.0,0,0
1771936827.859701,1771936827.8134263,461.9140625,-22.4609375,-59.08203125,-63.96484375,0.0,0,0
1771936827.859722,1771936827.817298,-934.08203125,-32.71484375,-92.28515625,-344.7265625,0.0,0,0
1771936827.859741,1771936827.8211696,384.765625,-14.6484375,-17.08984375,-156.25,0.0,0,0
1771936827.859761,1771936827.8250413,-883.7890625,-24.4140625,34.66796875,191.40625,0.0,0,0
1771936827.85978,1771936827.828913,-842.28515625,-20.01953125,13.18359375,307.6171875,0.0,0,0
1771936827.933836,1771936827.8337085,341.30859375,-5.37109375,-56.15234375,-29.78515625,0.0,0,0
1771936827.933928,1771936827.8375807,-927.24609375,-11.71875,-83.984375,-337.40234375,0.0,0,0
1771936827.93396,1771936827.8414528,521.97265625,-17.578125,-27.34375,-208.0078125,0.0,0,0
1771936827.933989,1771936827.845325,-721.19140625,-22.94921875,26.3671875,160.15625,0.0,0,0
1771936827.934016,1771936827.8491971,-959.9609375,-18.5546875,21.484375,319.82421875,0.0,0,0
1771936827.934043,1771936827.8530693,204.58984375,-8.30078125,-41.015625,7.8125,0.0,0,0
1771936827.934071,1771936827.8569415,-921.875,-20.01953125,-70.3125,-306.640625,0.0,0,0
1771936827.9340968,1771936827.8608136,605.46875,-38.0859375,-31.25,-251.46484375,0.0,0,0
1771936827.9341261,1771936827.8646858,-610.3515625,-22.4609375,24.90234375,112.79296875,0.0,0,0
1771936827.9341528,1771936827.868558,-994.62890625,2.9296875,42.48046875,327.63671875,0.0,0,0
1771936827.93418,1771936827.87243,29.78515625,-7.8125,-36.62109375,26.3671875,0.0,0,0
1771936827.934207,1771936827.8763022,-995.60546875,-18.06640625,-83.49609375,-335.44921875,0.0,0,0
1771936827.949101,1771936827.8805854,735.3515625,-15.625,-44.43359375,-345.21484375,0.0,0,0
1771936827.949194,1771936827.8844578,-441.40625,-22.94921875,8.30078125,-7.8125,0.0,0,0
1771936827.9492311,1771936827.8883302,-1000.0,-18.06640625,30.76171875,240.234375,0.0,0,0
1771936827.949265,1771936827.8922024,-127.9296875,3.90625,-31.25,13.18359375,0.0,0,0
1771936827.949298,1771936827.8960748,984.86328125,5.859375,-86.9140625,-350.09765625,0.0,0,0
1771936827.949332,1771936827.8999472,800.29296875,-10.25390625,-64.94140625,-409.66796875,0.0,0,0
1771936827.949366,1771936827.9038196,-306.15234375,-26.85546875,-5.859375,-91.796875,0.0,0,0
1771936827.949399,1771936827.907692,-1000.0,-30.76171875,12.6953125,169.921875,0.0,0,0
1771936827.949433,1771936827.9115644,-463.37890625,-22.94921875,-47.8515625,-0.9765625,0.0,0,0
1771936827.949465,1771936827.9154365,835.9375,-17.578125,-94.23828125,-375.0,0.0,0,0
1771936827.949497,1771936827.919309,908.203125,-22.94921875,-82.03125,-499.0234375,0.0,0,0
1771936827.9495292,1771936827.9231813,-237.79296875,-38.0859375,-29.78515625,-216.30859375,0.0,0,0
1771936828.002054,1771936827.9274752,-1000.0,-27.83203125,11.23046875,79.1015625,0.0,0,0
1771936828.003175,1771936827.9313478,-546.875,-15.625,-33.203125,7.32421875,0.0,0,0
1771936828.003219,1771936827.9352202,696.2890625,-20.99609375,-99.609375,-370.60546875,0.0,0,0
1771936828.003299,1771936827.9390929,-965.8203125,-13.671875,-99.12109375,-534.1796875,0.0,0,0
1771936828.003347,1771936827.9429655,-47.8515625,-20.99609375,-42.48046875,-255.859375,0.0,0,0
1771936828.0034392,1771936827.946838,-1000.0,-26.85546875,-9.765625,33.69140625,0.0,0,0
1771936828.003484,1771936827.9507105,-610.83984375,-11.23046875,-35.64453125,37.59765625,0.0,0,0
1771936828.003514,1771936827.9545832,620.1171875,-11.71875,-101.07421875,-304.19921875,0.0,0,0
1771936828.003581,1771936827.9584556,-931.640625,-26.3671875,-123.53515625,-515.13671875,0.0,0,0
1771936828.003653,1771936827.9623282,59.08203125,-39.0625,-65.91796875,-276.85546875,0.0,0,0
1771936828.003773,1771936827.9662008,-1000.0,-43.9453125,-29.78515625,28.3203125,0.0,0,0
1771936828.003823,1771936827.9700732,-782.2265625,-34.1796875,-51.7578125,97.16796875,0.0,0,0
1771936828.049175,1771936827.9744222,361.81640625,-23.92578125,-115.234375,-198.2421875,0.0,0,0
1771936828.0492249,1771936827.978295,-865.72265625,-23.4375,-125.9765625,-400.87890625,0.0,0,0
1771936828.04924,1771936827.982168,319.82421875,-31.73828125,-73.73046875,-199.70703125,0.0,0,0
1771936828.0493271,1771936827.9860406,-992.1875,-42.48046875,-32.71484375,70.3125,0.0,0,0
1771936828.049354,1771936827.9899135,-906.25,-46.38671875,-39.0625,152.34375,0.0,0,0
1771936828.049418,1771936827.9937863,262.6953125,-31.73828125,-76.171875,-66.40625,0.0,0,0
1771936828.049435,1771936827.997659,-868.1640625,-30.2734375,-95.703125,-256.8359375,0.0,0,0
1771936828.049448,1771936828.0015318,382.32421875,-55.6640625,-70.80078125,-137.6953125,0.0,0,0
1771936828.049462,1771936828.0054047,-918.45703125,-74.21875,-32.71484375,147.4609375,0.0,0,0
1771936828.049475,1771936828.0092773,-941.40625,-64.453125,-31.73828125,278.3203125,0.0,0,0
1771936828.049529,1771936828.0131502,217.7734375,-39.55078125,-59.08203125,70.3125,0.0,0,0
1771936828.049577,1771936828.017023,-897.4609375,-35.15625,-71.2890625,-143.5546875,0.0,0,0
1771936828.083529,1771936828.0211809,575.1953125,-47.8515625,-36.62109375,-83.984375,0.0,0,0
1771936828.0835688,1771936828.0250537,-697.75390625,-63.96484375,-10.25390625,172.8515625,0.0,0,0
1771936828.083582,1771936828.0289266,-1000.0,-65.4296875,-5.859375,320.80078125,0.0,0,0
1771936828.083592,1771936828.0327995,71.2890625,-49.8046875,-29.296875,147.4609375,0.0,0,0
1771936828.083602,1771936828.0366726,-906.25,-43.9453125,-49.31640625,-83.0078125,0.0,0,0
1771936828.083612,1771936828.0405455,672.36328125,-48.33984375,-32.71484375,-83.984375,0.0,0,0
1771936828.083622,1771936828.0444183,-540.0390625,-66.89453125,-6.8359375,150.87890625,0.0,0,0
1771936828.083702,1771936828.0482912,-1000.0,-77.1484375,13.18359375,318.359375,0.0,0,0
1771936828.083714,1771936828.0521643,-124.51171875,-71.2890625,-8.30078125,189.453125,0.0,0,0
1771936828.083724,1771936828.0560372,-941.89453125,-58.59375,-33.203125,-43.45703125,0.0,0,0
1771936828.083734,1771936828.05991,719.7265625,-50.78125,-19.53125,-95.703125,0.0,0,0
1771936828.083744,1771936828.063783,-462.40234375,-70.80078125,1.46484375,70.3125,0.0,0,0
1771936828.1433249,1771936828.0679064,-1000.0,-83.0078125,10.7421875,220.21484375,0.0,0,0
1771936828.1433642,1771936828.0717795,-153.80859375,-57.6171875,5.37109375,148.92578125,0.0,0,0
1771936828.14338,1771936828.0756526,-951.66015625,-38.57421875,-14.6484375,-41.50390625,0.0,0,0
1771936828.143393,1771936828.0795257,774.90234375,-50.78125,-16.6015625,-94.23828125,0.0,0,0
1771936828.1434062,1771936828.0833986,-370.1171875,-78.125,-2.9296875,62.01171875,0.0,0,0
1771936828.143418,1771936828.0872717,-1000.0,-72.75390625,8.7890625,210.44921875,0.0,0,0
1771936828.14343,1771936828.0911448,-274.90234375,-41.9921875,-2.9296875,163.57421875,0.0,0,0
1771936828.1434429,1771936828.095018,948.2421875,-43.45703125,-18.06640625,-18.06640625,0.0,0,0
1771936828.143455,1771936828.0988908,879.8828125,-49.31640625,-10.7421875,-95.21484375,0.0,0,0
1771936828.143467,1771936828.102764,-256.34765625,-55.6640625,1.953125,12.6953125,0.0,0,0
1771936828.14348,1771936828.106637,-1000.0,-73.2421875,12.6953125,145.99609375,0.0,0,0
1771936828.143492,1771936828.11051,-422.8515625,-69.82421875,12.6953125,149.4140625,0.0,0,0
1771936828.1889138,1771936828.1148517,854.4921875,-42.48046875,-2.9296875,-5.37109375,0.0,0,0
1771936828.188948,1771936828.1187248,967.28515625,-37.59765625,-8.30078125,-107.421875,0.0,0,0
1771936828.188967,1771936828.1225982,-158.69140625,-67.87109375,-2.9296875,-6.34765625,0.0,0,0
1771936828.1889842,1771936828.1264715,-1000.0,-87.890625,0.9765625,117.1875,0.0,0,0
1771936828.188999,1771936828.1303449,-498.046875,-77.63671875,2.44140625,142.08984375,0.0,0,0
1771936828.189016,1771936828.134218,779.78515625,-45.41015625,-3.90625,15.625,0.0,0,0
1771936828.189031,1771936828.1380913,-960.44921875,-28.80859375,-4.8828125,-97.65625,0.0,0,0
1771936828.189046,1771936828.1419647,-21.484375,-63.4765625,-10.25390625,-22.4609375,0.0,0,0
1771936828.1890619,1771936828.1458378,-1000.0,-89.84375,-8.7890625,91.30859375,0.0,0,0
1771936828.189076,1771936828.1497111,-548.828125,-58.10546875,-0.48828125,127.9296875,0.0,0,0
1771936828.189091,1771936828.1535845,694.3359375,-35.15625,-13.18359375,8.30078125,0.0,0,0
1771936828.189106,1771936828.1574576,-907.71484375,-40.0390625,-21.484375,-103.02734375,0.0,0,0
1771936828.233498,1771936828.1617625,215.33203125,-56.15234375,-16.11328125,-49.31640625,0.0,0,0
1771936828.233542,1771936828.165636,-1000.0,-87.890625,-19.04296875,42.48046875,0.0,0,0
1771936828.2335649,1771936828.1695094,-636.23046875,-69.3359375,-10.25390625,109.86328125,0.0,0,0
1771936828.233587,1771936828.173383,633.7890625,-41.9921875,-10.25390625,27.83203125,0.0,0,0
1771936828.233608,1771936828.1772563,-892.578125,-34.1796875,-21.484375,-95.703125,0.0,0,0
1771936828.233629,1771936828.18113,411.1328125,-29.78515625,-16.11328125,-69.82421875,0.0,0,0
1771936828.233648,1771936828.1850035,-929.19921875,-62.98828125,-22.94921875,28.80859375,0.0,0,0
1771936828.233669,1771936828.1888769,-793.45703125,-75.1953125,-24.4140625,105.95703125,0.0,0,0
1771936828.233689,1771936828.1927505,502.44140625,-25.390625,-12.20703125,36.62109375,0.0,0,0
1771936828.233709,1771936828.1966238,-890.13671875,0.48828125,-18.06640625,-95.21484375,0.0,0,0
1771936828.2337291,1771936828.2004974,466.30859375,-34.66796875,-25.87890625,-95.703125,0.0,0,0
1771936828.233749,1771936828.2043707,-792.96875,-67.3828125,-29.78515625,15.625,0.0,0,0
1771936828.279299,1771936828.2086432,-958.49609375,-74.70703125,-23.4375,89.84375,0.0,0,0
1771936828.27933,1771936828.2125168,264.6484375,-47.36328125,-14.16015625,21.484375,0.0,0,0
1771936828.2793531,1771936828.2163906,-897.4609375,-33.203125,-18.06640625,-83.984375,0.0,0,0
1771936828.279377,1771936828.2202642,630.859375,-37.109375,-17.08984375,-95.21484375,0.0,0,0
1771936828.2793999,1771936828.2241378,-620.60546875,-66.40625,-18.5546875,-22.94921875,0.0,0,0
1771936828.279423,1771936828.2280116,-1000.0,-66.40625,-10.25390625,55.17578125,0.0,0,0
1771936828.279445,1771936828.2318852,214.35546875,-27.83203125,4.39453125,35.64453125,0.0,0,0
1771936828.27947,1771936828.2357588,-907.71484375,-36.62109375,-8.7890625,-64.453125,0.0,0,0
1771936828.279493,1771936828.2396326,715.8203125,-32.71484375,-27.34375,-97.65625,0.0,0,0
1771936828.279516,1771936828.2435062,-428.7109375,-44.43359375,-35.15625,-46.875,0.0,0,0
1771936828.2795389,1771936828.2473798,-1000.0,-74.70703125,-29.78515625,28.80859375,0.0,0,0
1771936828.279561,1771936828.2512536,-79.58984375,-52.734375,-13.671875,38.57421875,0.0,0,0
1771936828.323661,1771936828.2554939,-957.03125,-34.66796875,-9.27734375,-44.43359375,0.0,0,0
1771936828.32374,1771936828.2593677,867.67578125,-39.55078125,-19.04296875,-84.9609375,0.0,0,0
1771936828.323783,1771936828.2632418,-212.890625,-62.98828125,-32.71484375,-66.89453125,0.0,0,0
1771936828.323821,1771936828.2671156,-1000.0,-83.49609375,-34.66796875,-19.04296875,0.0,0,0
1771936828.3238568,1771936828.2709894,-240.72265625,-63.96484375,-25.390625,10.7421875,0.0,0,0
1771936828.323894,1771936828.2748632,976.5625,-18.06640625,-7.8125,-29.78515625,0.0,0,0
1771936828.323929,1771936828.278737,976.5625,-13.671875,-6.8359375,-60.546875,0.0,0,0
1771936828.3239639,1771936828.282611,-89.84375,-61.03515625,-32.71484375,-35.15625,0.0,0,0
1771936828.324,1771936828.2864847,-1000.0,-74.70703125,-44.921875,-12.6953125,0.0,0,0
1771936828.3240361,1771936828.2903585,-425.78125,-52.734375,-29.78515625,-3.41796875,0.0,0,0
1771936828.324073,1771936828.2942324,832.03125,-20.99609375,-9.27734375,-20.01953125,0.0,0,0
1771936828.32411,1771936828.2981062,-952.1484375,-20.01953125,-17.578125,-57.12890625,0.0,0,0
1771936828.368981,1771936828.3023272,43.45703125,-20.99609375,-49.31640625,-64.94140625,0.0,0,0
1771936828.369081,1771936828.3062012,-1000.0,-21.97265625,-67.87109375,-50.78125,0.0,0,0
1771936828.369112,1771936828.310075,-479.00390625,-30.76171875,-49.31640625,8.30078125,0.0,0,0
1771936828.369142,1771936828.313949,780.76171875,-9.765625,-17.08984375,28.3203125,0.0,0,0
1771936828.369171,1771936828.3178232,-895.01953125,-11.23046875,-19.04296875,3.90625,0.0,0,0
1771936828.369199,1771936828.3216972,290.52734375,-29.78515625,-41.9921875,-16.11328125,0.0,0,0
1771936828.369238,1771936828.325571,-1000.0,-61.03515625,-59.08203125,-39.0625,0.0,0,0
1771936828.3692758,1771936828.3294451,-746.58203125,-46.38671875,-48.33984375,-9.765625,0.0,0,0
1771936828.369312,1771936828.3333192,493.1640625,-27.83203125,-22.94921875,12.6953125,0.0,0,0
1771936828.369339,1771936828.3371933,-875.0,-32.71484375,-15.13671875,11.23046875,0.0,0,0
1771936828.369369,1771936828.341067,343.26171875,-47.8515625,-39.55078125,-4.39453125,0.0,0,0
1771936828.369405,1771936828.3449411,-980.95703125,-87.40234375,-70.80078125,-46.875,0.0,0,0
1771936828.4153101,1771936828.3491275,-836.42578125,-75.68359375,-54.6875,-27.34375,0.0,0,0
1771936828.415479,1771936828.3530016,402.34375,-35.64453125,-10.7421875,32.2265625,0.0,0,0
1771936828.415547,1771936828.356876,-881.8359375,-18.06640625,0.0,40.0390625,0.0,0,0
1771936828.415606,1771936828.36075,491.2109375,-35.64453125,-20.5078125,15.13671875,0.0,0,0
1771936828.415665,1771936828.364624,-818.84765625,-80.56640625,-59.5703125,-35.64453125,0.0,0,0
1771936828.415723,1771936828.3684983,-957.51953125,-68.359375,-51.7578125,-25.390625,0.0,0,0
1771936828.415777,1771936828.3723724,279.296875,-23.4375,1.46484375,50.29296875,0.0,0,0
1771936828.41581,1771936828.3762465,-893.06640625,-16.6015625,5.37109375,55.6640625,0.0,0,0
1771936828.415842,1771936828.3801208,614.2578125,-29.78515625,-12.6953125,13.671875,0.0,0,0
1771936828.415875,1771936828.3839948,-624.0234375,-65.4296875,-48.828125,-51.7578125,0.0,0,0
1771936828.4159071,1771936828.3878691,-1000.0,-79.58984375,-64.453125,-62.5,0.0,0,0
1771936828.4160671,1771936828.3917432,34.1796875,-41.9921875,-28.80859375,3.41796875,0.0,0,0
1771936828.4595299,1771936828.3959005,-913.57421875,-12.20703125,-4.8828125,34.66796875,0.0,0,0
1771936828.459699,1771936828.3997748,716.30859375,-26.3671875,-10.7421875,12.20703125,0.0,0,0
1771936828.459767,1771936828.403649,-454.58984375,-62.5,-42.96875,-54.6875,0.0,0,0
1771936828.459827,1771936828.4075232,-1000.0,-84.47265625,-52.24609375,-70.80078125,0.0,0,0
1771936828.459886,1771936828.4113975,-104.98046875,-58.59375,-20.5078125,-13.671875,0.0,0,0
1771936828.459945,1771936828.4152718,-962.40234375,-19.53125,6.34765625,31.25,0.0,0,0
1771936828.460004,1771936828.419146,884.765625,5.37109375,-2.9296875,20.01953125,0.0,0,0
1771936828.460062,1771936828.4230204,-202.63671875,-46.875,-64.453125,-51.26953125,0.0,0,0
1771936828.4601212,1771936828.4268947,-1000.0,-104.98046875,-83.0078125,-75.1953125,0.0,0,0
1771936828.4601789,1771936828.430769,-240.234375,-58.10546875,-29.78515625,-10.25390625,0.0,0,0
1771936828.460237,1771936828.4346433,-999.51171875,-16.11328125,0.48828125,41.50390625,0.0,0,0
1771936828.4602938,1771936828.4385176,947.265625,-24.4140625,-10.7421875,32.2265625,0.0,0,0
1771936828.5342212,1771936828.4431076,-136.23046875,-74.70703125,-59.08203125,-38.57421875,0.0,0,0
1771936828.534326,1771936828.4469821,-1000.0,-95.703125,-75.68359375,-87.890625,0.0,0,0
1771936828.5343611,1771936828.450857,-343.26171875,-59.5703125,-44.43359375,-44.43359375,0.0,0,0
1771936828.53439,1771936828.4547315,914.0625,-17.08984375,-1.46484375,41.015625,0.0,0,0
1771936828.534419,1771936828.458606,-977.05078125,-20.99609375,0.0,43.9453125,0.0,0,0
1771936828.5344489,1771936828.4624805,14.6484375,-47.36328125,-48.828125,-34.1796875,0.0,0,0
1771936828.534477,1771936828.4663553,-1000.0,-61.5234375,-83.49609375,-89.84375,0.0,0,0
1771936828.534505,1771936828.4702299,-522.94921875,-63.96484375,-55.6640625,-49.31640625,0.0,0,0
1771936828.534533,1771936828.4741044,738.76953125,-31.25,3.90625,36.1328125,0.0,0,0
1771936828.534559,1771936828.4779792,-896.484375,-21.484375,4.8828125,39.0625,0.0,0,0
1771936828.534585,1771936828.4818537,178.22265625,-52.24609375,-42.96875,-26.85546875,0.0,0,0
1771936828.534612,1771936828.4857283,-1000.0,-80.078125,-77.1484375,-98.14453125,0.0,0,0
1771936828.565491,1771936828.490052,-658.69140625,-67.3828125,-64.94140625,-80.56640625,0.0,0,0
1771936828.565661,1771936828.4939268,596.19140625,-28.3203125,-6.8359375,6.34765625,0.0,0,0
1771936828.5657291,1771936828.4978018,-868.65234375,-10.25390625,11.23046875,34.66796875,0.0,0,0
1771936828.56579,1771936828.5016766,272.94921875,-40.0390625,-39.0625,-16.6015625,0.0,0,0
1771936828.565851,1771936828.5055513,-1000.0,-78.125,-78.125,-92.7734375,0.0,0,0
1771936828.565909,1771936828.509426,-790.0390625,-67.87109375,-55.6640625,-82.03125,0.0,0,0
1771936828.565967,1771936828.513301,434.5703125,-19.53125,-1.953125,5.859375,0.0,0,0
1771936828.566025,1771936828.5171757,-875.9765625,3.41796875,13.671875,35.15625,0.0,0,0
1771936828.5661042,1771936828.5210505,411.1328125,-31.25,-23.92578125,-18.06640625,0.0,0,0
1771936828.5661702,1771936828.5249255,-887.20703125,-65.4296875,-64.94140625,-91.30859375,0.0,0,0
1771936828.56623,1771936828.5288002,-960.44921875,-60.546875,-59.08203125,-89.35546875,0.0,0,0
1771936828.566305,1771936828.532675,247.0703125,-21.484375,-10.7421875,2.44140625,0.0,0,0
1771936828.609386,1771936828.536973,-880.859375,-1.46484375,7.8125,43.45703125,0.0,0,0
1771936828.609548,1771936828.540848,568.84765625,-0.9765625,-16.11328125,0.48828125,0.0,0,0
1771936828.609615,1771936828.544723,-703.125,-44.43359375,-63.96484375,-90.8203125,0.0,0,0
1771936828.6096761,1771936828.548598,-1000.0,-76.66015625,-76.171875,-106.93359375,0.0,0,0
1771936828.609737,1771936828.552473,82.03125,-33.69140625,-19.04296875,-15.625,0.0,0,0
1771936828.609793,1771936828.556348,-876.953125,-0.48828125,8.7890625,49.31640625,0.0,0,0
1771936828.6098502,1771936828.560223,573.2421875,-26.85546875,-19.53125,2.44140625,0.0,0,0
1771936828.609907,1771936828.5640981,-666.015625,-75.1953125,-68.84765625,-107.91015625,0.0,0,0
1771936828.6100092,1771936828.5679731,-1000.0,-68.84765625,-70.80078125,-122.0703125,0.0,0,0
1771936828.610122,1771936828.5718482,-31.73828125,-25.390625,-20.01953125,-44.43359375,0.0,0,0
1771936828.610198,1771936828.5757232,-925.29296875,-17.08984375,1.953125,15.625,0.0,0,0
1771936828.610246,1771936828.579598,774.90234375,-32.71484375,-14.16015625,10.7421875,0.0,0,0
1771936828.6540868,1771936828.58386,-368.65234375,-65.4296875,-65.4296875,-93.75,0.0,0,0
1771936828.654183,1771936828.5877352,-1000.0,-86.42578125,-83.984375,-151.3671875,0.0,0,0
1771936828.654214,1771936828.5916104,-150.390625,-54.6875,-34.66796875,-72.75390625,0.0,0,0
1771936828.6542442,1771936828.5954854,-953.125,-9.765625,8.7890625,19.53125,0.0,0,0
1771936828.654271,1771936828.5993607,848.6328125,-10.25390625,-2.44140625,16.6015625,0.0,0,0
1771936828.6542988,1771936828.603236,-252.9296875,-59.08203125,-59.5703125,-84.9609375,0.0,0,0
1771936828.654326,1771936828.607111,-1000.0,-87.890625,-77.63671875,-141.11328125,0.0,0,0
1771936828.654357,1771936828.6109862,-332.51953125,-54.19921875,-37.59765625,-70.80078125,0.0,0,0
1771936828.6543841,1771936828.6148615,935.546875,-31.25,5.37109375,34.1796875,0.0,0,0
1771936828.65441,1771936828.6187367,974.12109375,-35.15625,4.8828125,35.64453125,0.0,0,0
1771936828.654437,1771936828.6226118,-124.51171875,-56.15234375,-48.828125,-58.10546875,0.0,0,0
1771936828.654465,1771936828.626487,-1000.0,-81.0546875,-76.171875,-112.3046875,0.0,0,0
1771936828.699826,1771936828.6307168,-442.87109375,-61.03515625,-43.9453125,-67.87109375,0.0,0,0
1771936828.699926,1771936828.634592,806.640625,-21.97265625,8.7890625,19.53125,0.0,0,0
1771936828.699958,1771936828.6384676,-941.40625,1.953125,18.06640625,44.921875,0.0,0,0
1771936828.699987,1771936828.6423428,35.15625,-41.50390625,-46.875,-33.69140625,0.0,0,0
1771936828.700016,1771936828.646218,-1000.0,-89.35546875,-84.47265625,-118.1640625,0.0,0,0
1771936828.700044,1771936828.6500936,-539.0625,-59.5703125,-52.734375,-82.51953125,0.0,0,0
1771936828.7000709,1771936828.6539688,724.609375,-19.04296875,1.46484375,22.94921875,0.0,0,0
1771936828.700098,1771936828.657844,-887.20703125,-7.8125,10.7421875,34.1796875,0.0,0,0
1771936828.700125,1771936828.6617196,205.56640625,-33.69140625,-37.59765625,-30.2734375,0.0,0,0
1771936828.7001522,1771936828.6655948,-1000.0,-79.1015625,-74.70703125,-106.93359375,0.0,0,0
1771936828.7001789,1771936828.66947,-753.41796875,-64.453125,-56.15234375,-100.09765625,0.0,0,0
1771936828.700206,1771936828.6733456,472.65625,-22.4609375,-3.90625,-0.48828125,0.0,0,0
1771936828.74449,1771936828.677553,-869.140625,-11.71875,5.37109375,34.1796875,0.0,0,0
1771936828.7446458,1771936828.6814284,385.25390625,-33.69140625,-33.203125,-9.27734375,0.0,0,0
1771936828.744707,1771936828.6853037,-944.3359375,-74.21875,-70.80078125,-103.02734375,0.0,0,0
1771936828.744767,1771936828.6891792,-862.3046875,-74.21875,-58.10546875,-107.91015625,0.0,0,0
1771936828.744819,1771936828.6930547,359.375,-32.2265625,-2.44140625,5.859375,0.0,0,0
1771936828.744861,1771936828.6969302,-883.30078125,-4.39453125,20.5078125,65.4296875,0.0,0,0
1771936828.744915,1771936828.7008057,501.46484375,-15.625,-10.25390625,30.76171875,0.0,0,0
1771936828.7449589,1771936828.7046812,-799.31640625,-79.58984375,-71.77734375,-87.890625,0.0,0,0
1771936828.745006,1771936828.7085567,-998.53515625,-94.7265625,-74.70703125,-103.02734375,0.0,0,0
1771936828.745054,1771936828.7124321,217.7734375,-25.390625,0.0,16.6015625,0.0,0,0
1771936828.7450938,1771936828.7163076,-886.23046875,12.6953125,30.2734375,77.1484375,0.0,0,0
1771936828.745135,1771936828.7201831,597.16796875,-12.6953125,-4.8828125,31.73828125,0.0,0,0
1771936828.7891881,1771936828.7243557,-644.53125,-59.08203125,-55.17578125,-69.3359375,0.0,0,0
1771936828.78929,1771936828.7282312,-1000.0,-62.98828125,-56.640625,-99.609375,0.0,0,0
1771936828.7893372,1771936828.732107,53.7109375,-22.4609375,-1.953125,-20.99609375,0.0,0,0
1771936828.789381,1771936828.7359824,-900.87890625,0.9765625,26.85546875,56.640625,0.0,0,0
1771936828.789644,1771936828.7398582,676.7578125,-19.04296875,-1.46484375,32.2265625,0.0,0,0
1771936828.78969,1771936828.7437336,-498.53515625,-54.19921875,-59.08203125,-78.61328125,0.0,0,0
1771936828.7897332,1771936828.7476094,-1000.0,-60.05859375,-75.68359375,-124.51171875,0.0,0,0
1771936828.7897751,1771936828.7514849,-135.7421875,-36.1328125,-35.15625,-36.62109375,0.0,0,0
1771936828.7898161,1771936828.7553606,-950.68359375,-20.5078125,12.6953125,67.3828125,0.0,0,0
1771936828.789858,1771936828.759236,820.3125,-23.4375,6.8359375,51.7578125,0.0,0,0
1771936828.789899,1771936828.7631118,-311.03515625,-49.8046875,-52.734375,-64.94140625,0.0,0,0
1771936828.7899399,1771936828.7669873,-1000.0,-69.82421875,-72.75390625,-120.1171875,0.0,0,0
1771936828.835686,1771936828.771131,-250.0,-50.29296875,-31.73828125,-54.6875,0.0,0,0
1771936828.83584,1771936828.7750068,989.2578125,-5.37109375,22.4609375,41.50390625,0.0,0,0
1771936828.835906,1771936828.7788825,940.4296875,5.859375,23.4375,58.10546875,0.0,0,0
1771936828.835965,1771936828.7827582,-166.9921875,-40.52734375,-46.38671875,-46.38671875,0.0,0,0
1771936828.836024,1771936828.786634,-1000.0,-71.77734375,-71.77734375,-135.25390625,0.0,0,0
1771936828.8360808,1771936828.7905097,-330.078125,-43.45703125,-27.83203125,-72.265625,0.0,0,0
1771936828.836139,1771936828.7943854,959.47265625,0.48828125,25.87890625,51.26953125,0.0,0,0
1771936828.8361971,1771936828.7982612,947.265625,-15.13671875,13.18359375,50.29296875,0.0,0,0
1771936828.836297,1771936828.802137,-163.57421875,-62.98828125,-54.19921875,-53.7109375,0.0,0,0
1771936828.836392,1771936828.8060126,-1000.0,-75.68359375,-75.68359375,-119.62890625,0.0,0,0
1771936828.8364558,1771936828.8098884,-550.29296875,-57.12890625,-42.96875,-70.80078125,0.0,0,0
1771936828.836517,1771936828.813764,695.80078125,-26.3671875,4.8828125,30.2734375,0.0,0,0
1771936828.895082,1771936828.8178751,-907.71484375,-13.671875,13.18359375,47.36328125,0.0,0,0
1771936828.8952162,1771936828.821751,103.02734375,-35.64453125,-35.15625,-26.3671875,0.0,0,0
1771936828.895264,1771936828.8256269,-1000.0,-64.94140625,-72.75390625,-121.58203125,0.0,0,0
1771936828.895309,1771936828.8295028,-696.77734375,-57.12890625,-51.26953125,-102.05078125,0.0,0,0
1771936828.895353,1771936828.8333786,515.625,-20.01953125,0.9765625,10.25390625,0.0,0,0
1771936828.8953989,1771936828.8372545,-870.1171875,8.30078125,22.4609375,50.78125,0.0,0,0
1771936828.8954408,1771936828.8411303,283.69140625,-21.97265625,-26.3671875,-17.578125,0.0,0,0
1771936828.895493,1771936828.8450062,-1000.0,-75.1953125,-83.49609375,-134.27734375,0.0,0,0
1771936828.895542,1771936828.848882,-842.7734375,-73.2421875,-70.80078125,-135.25390625,0.0,0,0
1771936828.895603,1771936828.852758,375.9765625,-35.64453125,-4.8828125,5.859375,0.0,0,0
1771936828.895663,1771936828.8566337,-868.1640625,-11.23046875,11.23046875,63.4765625,0.0,0,0
1771936828.895723,1771936828.8605096,405.76171875,-21.97265625,-29.296875,-6.34765625,0.0,0,0
1771936828.9392278,1771936828.8648252,-875.0,-51.26953125,-70.3125,-101.07421875,0.0,0,0
1771936828.939355,1771936828.8687012,-982.421875,-67.87109375,-74.70703125,-118.65234375,0.0,0,0
1771936828.939407,1771936828.8725774,201.171875,-36.1328125,-14.6484375,-20.5078125,0.0,0,0
1771936828.93945,1771936828.8764534,-880.859375,-9.765625,9.765625,51.7578125,0.0,0,0
1771936828.939492,1771936828.8803294,569.82421875,-27.34375,-18.5546875,29.78515625,0.0,0,0
1771936828.9395342,1771936828.8842056,-697.265625,-59.08203125,-66.40625,-85.9375,0.0,0,0
1771936828.9395761,1771936828.8880816,-1000.0,-63.96484375,-71.77734375,-129.8828125,0.0,0,0
1771936828.939626,1771936828.8919575,66.40625,-41.015625,-16.11328125,-24.90234375,0.0,0,0
1771936828.939679,1771936828.8958335,-914.0625,-23.4375,4.39453125,57.6171875,0.0,0,0
1771936828.939732,1771936828.8997097,713.37890625,-13.671875,-18.06640625,38.57421875,0.0,0,0
1771936828.939792,1771936828.9035857,-484.375,-45.41015625,-61.5234375,-75.68359375,0.0,0,0
1771936828.9398432,1771936828.9074616,-1000.0,-76.171875,-78.125,-128.41796875,0.0,0,0
1771936828.985429,1771936828.9117432,-38.0859375,-38.0859375,-22.94921875,-23.4375,0.0,0,0
1771936828.985551,1771936828.9156194,-983.88671875,-9.765625,15.13671875,65.91796875,0.0,0,0
1771936828.985615,1771936828.9194956,652.34375,-17.578125,-6.8359375,44.43359375,0.0,0,0
1771936828.985674,1771936828.9233718,-354.00390625,-50.29296875,-64.453125,-64.453125,0.0,0,0
1771936828.985733,1771936828.927248,-1000.0,-74.70703125,-81.0546875,-128.90625,0.0,0,0
1771936828.98579,1771936828.9311242,-213.8671875,-36.62109375,-25.87890625,-63.4765625,0.0,0,0
1771936828.985848,1771936828.9350004,-976.07421875,-4.8828125,12.6953125,35.15625,0.0,0,0
1771936828.985906,1771936828.9388766,852.5390625,-20.01953125,8.7890625,47.8515625,0.0,0,0
1771936828.985972,1771936828.9427528,-280.76171875,-52.24609375,-46.875,-66.40625,0.0,0,0
1771936828.986038,1771936828.946629,-1000.0,-71.77734375,-74.21875,-142.578125,0.0,0,0
1771936828.986093,1771936828.9505053,-347.16796875,-62.01171875,-41.015625,-76.66015625,0.0,0,0
1771936828.9861498,1771936828.9543815,919.43359375,-24.4140625,-0.48828125,29.296875,0.0,0,0
1771936829.029547,1771936828.9586356,990.234375,-3.90625,3.90625,53.7109375,0.0,0,0
1771936829.0296772,1771936828.9625118,-92.28515625,-33.203125,-48.33984375,-47.36328125,0.0,0,0
1771936829.029723,1771936828.9663882,-1000.0,-67.3828125,-82.51953125,-157.2265625,0.0,0,0
1771936829.0297658,1771936828.9702647,-475.5859375,-52.734375,-51.7578125,-114.2578125,0.0,0,0
1771936829.029809,1771936828.974141,805.17578125,-14.6484375,7.32421875,10.25390625,0.0,0,0
1771936829.029851,1771936828.9780173,-935.546875,-5.859375,21.97265625,54.19921875,0.0,0,0
1771936829.029897,1771936828.9818938,35.64453125,-35.64453125,-29.78515625,-24.4140625,0.0,0,0
1771936829.029959,1771936828.9857702,-1000.0,-73.2421875,-72.75390625,-129.39453125,0.0,0,0
1771936829.0300028,1771936828.9896464,-674.31640625,-62.98828125,-59.08203125,-109.375,0.0,0,0
1771936829.030046,1771936828.993523,554.6875,-23.92578125,-7.8125,12.6953125,0.0,0,0
1771936829.0300858,1771936828.9973993,-877.44140625,-15.13671875,16.6015625,53.22265625,0.0,0,0
1771936829.0301282,1771936829.0012755,205.078125,-38.0859375,-25.390625,-23.4375,0.0,0,0
1771936829.074053,1771936829.0054965,-1000.0,-75.68359375,-79.58984375,-133.30078125,0.0,0,0
1771936829.074174,1771936829.0093732,-793.45703125,-69.3359375,-63.96484375,-128.41796875,0.0,0,0
1771936829.074212,1771936829.0132496,422.8515625,-17.08984375,4.39453125,3.90625,0.0,0,0
1771936829.074309,1771936829.017126,-867.1875,-1.953125,23.92578125,54.6875,0.0,0,0
1771936829.0743868,1771936829.0210028,346.6796875,-30.2734375,-11.23046875,0.0,0.0,0,0
1771936829.074429,1771936829.0248792,-939.453125,-59.5703125,-60.05859375,-112.3046875,0.0,0,0
1771936829.074477,1771936829.0287557,-926.7578125,-65.4296875,-57.12890625,-135.7421875,0.0,0,0
1771936829.0745192,1771936829.0326324,266.6015625,-24.90234375,3.90625,-10.7421875,0.0,0,0
1771936829.074752,1771936829.0365088,-876.953125,6.34765625,20.5078125,50.29296875,0.0,0,0
1771936829.074831,1771936829.0403852,542.48046875,-15.13671875,-17.578125,4.8828125,0.0,0,0
1771936829.074878,1771936829.044262,-745.60546875,-53.7109375,-63.96484375,-99.12109375,0.0,0,0
1771936829.07497,1771936829.0481384,-1000.0,-62.5,-62.5,-137.20703125,0.0,0,0
1771936829.134827,1771936829.052549,111.81640625,-41.015625,-12.20703125,-33.203125,0.0,0,0
1771936829.134933,1771936829.0564256,-902.83203125,-8.7890625,18.5546875,49.31640625,0.0,0,0
1771936829.134965,1771936829.0603023,670.8984375,-13.18359375,-9.27734375,15.13671875,0.0,0,0
1771936829.1349928,1771936829.064179,-557.12890625,-60.546875,-67.3828125,-98.6328125,0.0,0,0
1771936829.135021,1771936829.0680559,-1000.0,-78.61328125,-77.63671875,-144.04296875,0.0,0,0
1771936829.1350489,1771936829.0719326,44.43359375,-27.83203125,-15.13671875,-20.99609375,0.0,0,0
1771936829.1350799,1771936829.0758092,-905.76171875,6.34765625,18.5546875,62.5,0.0,0,0
1771936829.135107,1771936829.0796862,740.234375,-6.8359375,-13.18359375,23.92578125,0.0,0,0
1771936829.135134,1771936829.0835629,-401.3671875,-43.9453125,-63.96484375,-76.66015625,0.0,0,0
1771936829.13536,1771936829.0874395,-1000.0,-71.77734375,-74.70703125,-129.39453125,0.0,0,0
1771936829.1353931,1771936829.0913165,-94.7265625,-37.109375,-24.4140625,-50.78125,0.0,0,0
1771936829.1354198,1771936829.0951931,-941.89453125,0.0,13.671875,45.8984375,0.0,0,0
1771936829.1652951,1771936829.099376,858.3984375,-3.41796875,-3.41796875,47.36328125,0.0,0,0
1771936829.16543,1771936829.103253,-243.65234375,-51.7578125,-68.84765625,-62.5,0.0,0,0
1771936829.165479,1771936829.1071298,-1000.0,-72.75390625,-86.9140625,-130.859375,0.0,0,0
1771936829.165524,1771936829.1110067,-230.46875,-41.015625,-44.43359375,-61.5234375,0.0,0,0
1771936829.165567,1771936829.1148834,979.00390625,-9.765625,1.953125,54.6875,0.0,0,0
1771936829.165611,1771936829.1187603,-991.2109375,7.32421875,9.765625,83.49609375,0.0,0,0
1771936829.1656551,1771936829.1226373,-22.4609375,-36.1328125,-58.10546875,-40.0390625,0.0,0,0
1771936829.165697,1771936829.1265142,-1000.0,-82.03125,-86.42578125,-131.8359375,0.0,0,0
1771936829.165751,1771936829.1303911,-419.921875,-48.33984375,-45.8984375,-68.84765625,0.0,0,0
1771936829.165793,1771936829.134268,856.93359375,-4.39453125,3.90625,53.7109375,0.0,0,0
1771936829.165853,1771936829.1381447,-939.94140625,19.53125,15.625,94.23828125,0.0,0,0
1771936829.165905,1771936829.1420217,61.5234375,-0.9765625,-42.96875,6.34765625,0.0,0,0
1771936829.209423,1771936829.1461587,-1000.0,-65.91796875,-81.0546875,-97.16796875,0.0,0,0
1771936829.209573,1771936829.1500356,-546.875,-64.453125,-52.734375,-67.87109375,0.0,0,0
1771936829.20964,1771936829.1539128,733.88671875,-13.18359375,7.32421875,64.94140625,0.0,0,0
1771936829.209704,1771936829.1577897,-899.90234375,2.9296875,19.53125,91.30859375,0.0,0,0
1771936829.209876,1771936829.1616666,143.5546875,-37.109375,-38.0859375,1.953125,0.0,0,0
1771936829.209971,1771936829.1655438,-1000.0,-68.359375,-75.68359375,-94.23828125,0.0,0,0
1771936829.210022,1771936829.1694207,-666.9921875,-38.0859375,-58.59375,-87.890625,0.0,0,0
1771936829.2100658,1771936829.1732976,572.265625,-4.8828125,-4.39453125,25.87890625,0.0,0,0
1771936829.21011,1771936829.1771748,-874.51171875,-16.11328125,10.7421875,87.890625,0.0,0,0
1771936829.2101529,1771936829.1810517,334.47265625,-38.57421875,-28.3203125,19.04296875,0.0,0,0
1771936829.210198,1771936829.1849287,-986.328125,-66.40625,-70.3125,-106.93359375,0.0,0,0
1771936829.21024,1771936829.1888056,-834.9609375,-65.4296875,-62.98828125,-104.00390625,0.0,0,0
1771936829.29988,1771936829.192931,410.64453125,-38.0859375,-6.34765625,18.06640625,0.0,0,0
1771936829.300043,1771936829.1968079,-881.34765625,-22.94921875,14.16015625,71.77734375,0.0,0,0
1771936829.300108,1771936829.200685,492.1875,-29.78515625,-14.16015625,18.5546875,0.0,0,0
1771936829.300168,1771936829.2045622,-801.26953125,-70.80078125,-68.84765625,-91.30859375,0.0,0,0
1771936829.300229,1771936829.2084394,-987.3046875,-81.54296875,-72.265625,-113.76953125,0.0,0,0
1771936829.300286,1771936829.2123163,239.2578125,-16.6015625,-2.9296875,3.90625,0.0,0,0
1771936829.3003461,1771936829.2161934,-883.7890625,25.87890625,11.71875,77.1484375,0.0,0,0
1771936829.3004029,1771936829.2200706,582.51953125,-14.16015625,-22.4609375,38.57421875,0.0,0,0
1771936829.300462,1771936829.2239478,-656.25,-71.77734375,-68.359375,-72.265625,0.0,0,0
1771936829.3005178,1771936829.2278247,-1000.0,-77.63671875,-77.63671875,-115.234375,0.0,0,0
1771936829.3005729,1771936829.2317019,68.84765625,-31.25,-20.5078125,-20.5078125,0.0,0,0
1771936829.300629,1771936829.235579,-904.78515625,-0.9765625,12.6953125,63.96484375,0.0,0,0
1771936829.3128378,1771936829.239718,689.94140625,-16.11328125,-6.34765625,47.8515625,0.0,0,0
1771936829.313024,1771936829.2435954,-486.81640625,-58.10546875,-65.4296875,-67.3828125,0.0,0,0
1771936829.3131058,1771936829.2474725,-1000.0,-71.77734375,-74.21875,-112.3046875,0.0,0,0
1771936829.3131678,1771936829.2513497,-62.5,-41.9921875,-23.92578125,-36.1328125,0.0,0,0
1771936829.313226,1771936829.2552269,-943.359375,-15.13671875,4.8828125,63.4765625,0.0,0,0
1771936829.3132842,1771936829.259104,850.09765625,7.32421875,0.0,70.3125,0.0,0,0
1771936829.31338,1771936829.2629814,-278.80859375,-27.34375,-50.78125,-61.03515625,0.0,0,0
1771936829.313451,1771936829.2668586,-1000.0,-80.56640625,-75.68359375,-127.44140625,0.0,0,0
1771936829.31351,1771936829.2707357,-182.6171875,-53.7109375,-29.78515625,-50.78125,0.0,0,0
1771936829.313568,1771936829.274613,982.421875,-12.20703125,7.8125,50.78125,0.0,0,0
1771936829.3136241,1771936829.27849,914.55078125,-15.625,-11.71875,67.3828125,0.0,0,0
1771936829.313681,1771936829.2823675,-192.3828125,-58.59375,-67.87109375,-40.0390625,0.0,0,0
1771936829.360617,1771936829.2866561,-1000.0,-92.7734375,-86.42578125,-123.046875,0.0,0,0
1771936829.36078,1771936829.2905335,-386.23046875,-70.80078125,-44.43359375,-82.03125,0.0,0,0
1771936829.3608341,1771936829.294411,877.9296875,-18.06640625,8.30078125,25.87890625,0.0,0,0
1771936829.3608792,1771936829.2982883,-993.1640625,-4.8828125,12.20703125,63.4765625,0.0,0,0
1771936829.360924,1771936829.3021657,-51.26953125,-42.96875,-40.52734375,-38.57421875,0.0,0,0
1771936829.360967,1771936829.3060431,-1000.0,-23.4375,-69.3359375,-132.32421875,0.0,0,0
1771936829.361009,1771936829.3099205,-555.6640625,-22.4609375,-45.41015625,-90.33203125,0.0,0,0
1771936829.361053,1771936829.313798,709.9609375,-30.2734375,4.8828125,31.25,0.0,0,0
1771936829.361094,1771936829.3176754,-907.71484375,-4.8828125,11.71875,71.2890625,0.0,0,0
1771936829.361135,1771936829.3215528,103.515625,-41.50390625,-48.33984375,-13.671875,0.0,0,0
1771936829.361176,1771936829.3254302,-1000.0,-92.7734375,-84.9609375,-116.2109375,0.0,0,0
1771936829.361217,1771936829.3293076,-640.13671875,-73.73046875,-57.12890625,-88.8671875,0.0,0,0
1771936829.4045398,1771936829.3335495,613.76953125,-26.85546875,-7.8125,31.25,0.0,0,0
1771936829.404671,1771936829.337427,-872.55859375,-20.5078125,5.37109375,68.359375,0.0,0,0
1771936829.4047182,1771936829.3413045,270.01953125,-40.0390625,-31.25,-6.34765625,0.0,0,0
1771936829.404763,1771936829.345182,-1000.0,-74.21875,-78.125,-119.62890625,0.0,0,0
1771936829.404803,1771936829.3490596,-791.015625,-67.87109375,-68.359375,-113.28125,0.0,0,0
1771936829.404845,1771936829.352937,448.73046875,-12.6953125,-1.953125,14.16015625,0.0,0,0
1771936829.404887,1771936829.3568146,-863.76953125,16.11328125,14.6484375,70.80078125,0.0,0,0
1771936829.404929,1771936829.3606923,363.76953125,-1.953125,-28.80859375,16.11328125,0.0,0,0
1771936829.404981,1771936829.3645697,-933.10546875,-43.9453125,-78.125,-95.21484375,0.0,0,0
1771936829.4050229,1771936829.3684473,-928.7109375,-56.640625,-71.77734375,-104.4921875,0.0,0,0
1771936829.405076,1771936829.3723247,269.53125,-39.0625,-14.6484375,6.8359375,0.0,0,0
1771936829.405117,1771936829.3762023,-877.44140625,-11.71875,11.71875,65.4296875,0.0,0,0
1771936829.4492211,1771936829.3804154,533.203125,-28.80859375,-15.13671875,19.53125,0.0,0,0
1771936829.4493492,1771936829.384293,-748.53515625,-75.68359375,-69.3359375,-100.09765625,0.0,0,0
1771936829.4494011,1771936829.3881707,-1000.0,-74.70703125,-62.5,-132.8125,0.0,0,0
1771936829.449444,1771936829.3920486,166.015625,-31.25,-5.37109375,-25.390625,0.0,0,0
1771936829.449488,1771936829.3959262,-901.3671875,-18.06640625,17.578125,60.05859375,0.0,0,0
1771936829.4495308,1771936829.3998039,694.82421875,-19.04296875,-2.44140625,39.0625,0.0,0,0
1771936829.449572,1771936829.4036815,-506.8359375,-66.40625,-61.5234375,-87.890625,0.0,0,0
1771936829.449614,1771936829.4075592,-1000.0,-85.44921875,-74.21875,-131.8359375,0.0,0,0
1771936829.449654,1771936829.4114368,-32.71484375,-29.78515625,-19.04296875,-23.4375,0.0,0,0
1771936829.449696,1771936829.4153147,-921.875,-12.20703125,11.23046875,64.94140625,0.0,0,0
1771936829.449737,1771936829.4191923,752.44140625,-22.94921875,-10.25390625,55.17578125,0.0,0,0
1771936829.449779,1771936829.42307,-392.578125,-64.453125,-70.3125,-58.10546875,0.0,0,0
1771936829.494137,1771936829.427255,-1000.0,-84.47265625,-84.47265625,-123.046875,0.0,0,0
1771936829.4942951,1771936829.4311328,-230.95703125,-50.78125,-35.15625,-53.7109375,0.0,0,0
1771936829.4943428,1771936829.4350107,-990.234375,-5.37109375,7.8125,51.26953125,0.0,0,0
1771936829.494571,1771936829.4388883,866.2109375,2.44140625,-4.39453125,51.26953125,0.0,0,0
1771936829.4946182,1771936829.4427662,-259.765625,-42.48046875,-59.08203125,-59.08203125,0.0,0,0
1771936829.494664,1771936829.446644,-1000.0,-69.82421875,-79.58984375,-127.44140625,0.0,0,0
1771936829.494711,1771936829.450522,-366.69921875,-45.8984375,-47.8515625,-74.70703125,0.0,0,0
1771936829.494754,1771936829.4543996,941.89453125,-3.90625,-1.46484375,32.71484375,0.0,0,0
1771936829.494796,1771936829.4582775,896.97265625,-19.53125,-7.32421875,39.0625,0.0,0,0
1771936829.494837,1771936829.4621553,-265.625,-66.89453125,-64.94140625,-73.2421875,0.0,0,0
1771936829.494878,1771936829.466033,-1000.0,-76.171875,-84.9609375,-150.87890625,0.0,0,0
1771936829.4949179,1771936829.4699109,-475.09765625,-53.22265625,-51.26953125,-96.19140625,0.0,0,0
1771936829.5399702,1771936829.4740667,773.4375,-24.90234375,-0.9765625,17.578125,0.0,0,0
1771936829.540083,1771936829.4779446,-930.6640625,-14.6484375,5.37109375,35.64453125,0.0,0,0
1771936829.5401149,1771936829.4818225,59.5703125,-39.55078125,-50.78125,-39.55078125,0.0,0,0
1771936829.5401442,1771936829.4857004,-1000.0,-80.078125,-87.40234375,-122.55859375,0.0,0,0
1771936829.540171,1771936829.4895782,-643.5546875,-73.73046875,-68.359375,-97.65625,0.0,0,0
1771936829.5401978,1771936829.4934564,597.65625,-18.06640625,-7.8125,9.765625,0.0,0,0
1771936829.540224,1771936829.4973342,-879.8828125,15.13671875,7.8125,47.8515625,0.0,0,0
1771936829.5402508,1771936829.5012121,206.0546875,-6.34765625,-44.921875,-15.13671875,0.0,0,0
1771936829.5402792,1771936829.50509,-1000.0,-57.12890625,-75.1953125,-120.60546875,0.0,0,0
1771936829.540305,1771936829.5089679,-829.1015625,-69.82421875,-54.6875,-119.140625,0.0,0,0
1771936829.540332,1771936829.5128458,366.2109375,-31.25,-3.41796875,-6.34765625,0.0,0,0
1771936829.5403578,1771936829.5167239,-864.2578125,-6.34765625,14.16015625,49.31640625,0.0,0,0
1771936829.584546,1771936829.520858,343.75,-33.69140625,-20.01953125,-6.8359375,0.0,0,0
1771936829.5847092,1771936829.5247362,-952.1484375,-75.68359375,-68.359375,-120.60546875,0.0,0,0
1771936829.584775,1771936829.528614,-905.2734375,-75.1953125,-67.87109375,-133.7890625,0.0,0,0
1771936829.584836,1771936829.5324922,302.24609375,-35.15625,-6.34765625,-11.23046875,0.0,0,0
1771936829.58488,1771936829.53637,-882.32421875,-19.53125,12.6953125,48.828125,0.0,0,0
1771936829.5849211,1771936829.5402482,547.8515625,-24.4140625,-6.8359375,3.41796875,0.0,0,0
1771936829.58521,1771936829.5441263,-729.98046875,-31.73828125,-51.7578125,-113.76953125,0.0,0,0
1771936829.5853062,1771936829.5480042,-1000.0,-52.24609375,-69.82421875,-140.625,0.0,0,0
1771936829.585474,1771936829.5518823,140.625,-48.33984375,-12.20703125,-25.87890625,0.0,0,0
1771936829.585526,1771936829.5557601,-895.5078125,-16.6015625,21.97265625,53.7109375,0.0,0,0
1771936829.585571,1771936829.5596383,652.83203125,-17.578125,1.953125,36.62109375,0.0,0,0
1771936829.585614,1771936829.5635164,-563.4765625,-54.6875,-55.17578125,-73.2421875,0.0,0,0
1771936829.659319,1771936829.5680382,-1000.0,-70.80078125,-66.89453125,-115.234375,0.0,0,0
1771936829.659497,1771936829.5719166,4.39453125,-37.59765625,-13.671875,-25.390625,0.0,0,0
1771936829.659564,1771936829.575795,-909.1796875,-5.37109375,19.53125,72.265625,0.0,0,0
1771936829.659626,1771936829.579673,706.54296875,-14.6484375,0.9765625,54.19921875,0.0,0,0
1771936829.6596851,1771936829.5835514,-460.44921875,-52.24609375,-61.03515625,-76.66015625,0.0,0,0
1771936829.6597471,1771936829.5874298,-1000.0,-57.6171875,-73.73046875,-123.53515625,0.0,0,0
1771936829.6598248,1771936829.591308,-131.34765625,-18.5546875,-29.78515625,-41.50390625,0.0,0,0
1771936829.659894,1771936829.5951862,-966.30859375,-9.27734375,3.41796875,51.7578125,0.0,0,0
1771936829.659957,1771936829.5990646,851.07421875,-20.5078125,-2.44140625,56.640625,0.0,0,0
1771936829.660094,1771936829.602943,-254.39453125,-48.828125,-53.7109375,-47.36328125,0.0,0,0
1771936829.660144,1771936829.606821,-1000.0,-70.80078125,-71.77734375,-115.72265625,0.0,0,0
1771936829.6601999,1771936829.6106994,-333.0078125,-51.7578125,-35.15625,-56.15234375,0.0,0,0
1771936829.690337,1771936829.6149797,948.73046875,-22.4609375,7.8125,52.24609375,0.0,0,0
1771936829.690479,1771936829.618858,896.97265625,-23.4375,1.46484375,60.546875,0.0,0,0
1771936829.6905441,1771936829.6227365,-250.0,-49.31640625,-52.734375,-49.31640625,0.0,0,0
1771936829.690603,1771936829.626615,-1000.0,-68.84765625,-71.77734375,-115.72265625,0.0,0,0
1771936829.6906612,1771936829.6304934,-479.4921875,-64.94140625,-50.29296875,-68.84765625,0.0,0,0
1771936829.690719,1771936829.634372,785.15625,-19.04296875,5.859375,40.52734375,0.0,0,0
1771936829.690777,1771936829.6382504,-954.58984375,0.48828125,21.97265625,70.80078125,0.0,0,0
1771936829.690835,1771936829.6421287,-45.8984375,-42.48046875,-42.48046875,-20.99609375,0.0,0,0
1771936829.6908998,1771936829.6460073,-1000.0,-80.078125,-76.171875,-120.1171875,0.0,0,0
1771936829.690973,1771936829.6498857,-620.1171875,-58.59375,-46.38671875,-94.7265625,0.0,0,0
1771936829.691041,1771936829.653764,615.72265625,-9.27734375,3.90625,27.83203125,0.0,0,0
1771936829.691097,1771936829.6576426,-904.78515625,-3.90625,16.11328125,62.5,0.0,0,0
1771936829.7342951,1771936829.6618967,62.98828125,-46.875,-31.73828125,-23.4375,0.0,0,0
1771936829.7344608,1771936829.6657753,-1000.0,-45.41015625,-70.3125,-135.25390625,0.0,0,0
1771936829.7345269,1771936829.669654,-740.234375,-35.15625,-51.7578125,-131.34765625,0.0,0,0
1771936829.7345889,1771936829.6735325,452.1484375,-16.6015625,6.34765625,-5.37109375,0.0,0,0
1771936829.734655,1771936829.677411,-867.67578125,7.8125,25.390625,44.43359375,0.0,0,0
1771936829.734713,1771936829.6812897,249.0234375,-14.6484375,-13.671875,-21.97265625,0.0,0,0
1771936829.734814,1771936829.6851683,-991.2109375,-51.26953125,-63.96484375,-124.51171875,0.0,0,0
1771936829.7348638,1771936829.689047,-952.63671875,-69.3359375,-69.82421875,-137.6953125,0.0,0,0
1771936829.7349088,1771936829.6929257,187.5,-25.87890625,-14.16015625,-37.109375,0.0,0,0
1771936829.7349539,1771936829.6968043,-861.328125,20.99609375,8.30078125,31.73828125,0.0,0,0
1771936829.734996,1771936829.7006829,405.2734375,-19.53125,-22.4609375,-6.8359375,0.0,0,0
1771936829.735038,1771936829.7045615,-884.765625,-74.21875,-70.80078125,-121.09375,0.0,0,0
1771936829.779325,1771936829.7087839,-974.12109375,-70.3125,-71.77734375,-139.6484375,0.0,0,0
1771936829.7794309,1771936829.7126627,215.33203125,-22.4609375,-6.8359375,-16.6015625,0.0,0,0
1771936829.779478,1771936829.7165415,-892.578125,-4.39453125,18.5546875,52.734375,0.0,0,0
1771936829.779521,1771936829.7204201,624.0234375,-20.99609375,2.9296875,21.97265625,0.0,0,0
1771936829.7795641,1771936829.724299,-635.25390625,-53.7109375,-43.45703125,-84.9609375,0.0,0,0
1771936829.779607,1771936829.7281775,-1000.0,-55.6640625,-57.6171875,-106.4453125,0.0,0,0
1771936829.779659,1771936829.7320564,144.04296875,-22.94921875,-5.859375,-3.41796875,0.0,0,0
1771936829.779711,1771936829.7359352,-932.6171875,-16.11328125,21.97265625,66.40625,0.0,0,0
1771936829.779781,1771936829.7398138,810.05859375,6.8359375,2.44140625,62.01171875,0.0,0,0
1771936829.779834,1771936829.7436926,-312.01171875,-26.3671875,-59.08203125,-53.22265625,0.0,0,0
1771936829.779884,1771936829.7475712,-1000.0,-82.03125,-78.61328125,-117.67578125,0.0,0,0
1771936829.779943,1771936829.75145,2.44140625,-38.0859375,-15.13671875,-20.5078125,0.0,0,0
1771936829.840373,1771936829.755853,-936.03515625,-3.90625,19.53125,69.82421875,0.0,0,0
1771936829.840569,1771936829.759732,886.23046875,-11.71875,3.90625,69.82421875,0.0,0,0
1771936829.840657,1771936829.7636108,-174.31640625,-52.24609375,-44.921875,-25.390625,0.0,0,0
1771936829.840721,1771936829.7674897,-1000.0,-82.03125,-70.3125,-110.3515625,0.0,0,0
1771936829.8407779,1771936829.7713687,-172.36328125,-50.78125,-25.87890625,-45.8984375,0.0,0,0
1771936829.840837,1771936829.7752476,-963.37890625,3.41796875,29.78515625,71.77734375,0.0,0,0
1771936829.840894,1771936829.7791266,908.69140625,-1.46484375,23.4375,77.1484375,0.0,0,0
1771936829.840951,1771936829.7830055,-164.0625,-43.9453125,-40.52734375,-29.296875,0.0,0,0
1771936829.8412092,1771936829.7868845,-1000.0,-61.5234375,-68.359375,-100.5859375,0.0,0,0
1771936829.841273,1771936829.7907634,-328.61328125,-48.33984375,-30.2734375,-53.22265625,0.0,0,0
1771936829.8413188,1771936829.7946424,912.109375,-12.20703125,22.94921875,53.22265625,0.0,0,0
1771936829.841362,1771936829.7985213,-945.3125,0.9765625,24.90234375,77.63671875,0.0,0,0
1771936829.870496,1771936829.8027077,108.3984375,-37.59765625,-34.1796875,-14.16015625,0.0,0,0
1771936829.870647,1771936829.8065867,-1000.0,-82.51953125,-74.21875,-104.98046875,0.0,0,0
1771936829.8707159,1771936829.8104658,-422.8515625,-54.19921875,-40.52734375,-53.22265625,0.0,0,0
1771936829.8707762,1771936829.814345,852.5390625,-7.32421875,15.625,58.10546875,0.0,0,0
1771936829.8708348,1771936829.818224,-912.59765625,2.9296875,16.6015625,88.37890625,0.0,0,0
1771936829.870893,1771936829.822103,275.390625,-16.6015625,-30.2734375,24.4140625,0.0,0,0
1771936829.87095,1771936829.8259819,-1000.0,-47.8515625,-67.3828125,-82.03125,0.0,0,0
1771936829.871009,1771936829.829861,-652.83203125,-56.640625,-57.6171875,-68.84765625,0.0,0,0
1771936829.8710668,1771936829.83374,632.32421875,-27.34375,-1.46484375,47.8515625,0.0,0,0
1771936829.871213,1771936829.837619,-883.7890625,-10.7421875,19.04296875,84.47265625,0.0,0,0
1771936829.8712718,1771936829.8414981,369.140625,-30.76171875,-23.4375,27.34375,0.0,0,0
1771936829.871316,1771936829.8453772,-981.93359375,-43.45703125,-67.3828125,-77.63671875,0.0,0,0
1771936829.958666,1771936829.8495262,-757.8125,-39.0625,-53.22265625,-81.54296875,0.0,0,0
1771936829.958835,1771936829.8534055,530.76171875,-15.13671875,3.90625,41.015625,0.0,0,0
1771936829.9589021,1771936829.8572845,-879.8828125,7.8125,20.01953125,77.63671875,0.0,0,0
1771936829.9589639,1771936829.8611639,419.43359375,-16.11328125,-17.578125,19.04296875,0.0,0,0
1771936829.9590259,1771936829.865043,-909.1796875,-64.453125,-73.73046875,-72.75390625,0.0,0,0
1771936829.959085,1771936829.8689222,-867.1875,-54.6875,-65.91796875,-82.03125,0.0,0,0
1771936829.959142,1771936829.8728013,430.17578125,-6.34765625,-6.8359375,11.71875,0.0,0,0
1771936829.959199,1771936829.8766804,-859.375,7.8125,4.39453125,57.6171875,0.0,0,0
1771936829.959264,1771936829.8805597,426.26953125,-25.390625,-29.296875,10.25390625,0.0,0,0
1771936829.959371,1771936829.8844388,-833.0078125,-71.2890625,-77.63671875,-89.35546875,0.0,0,0
1771936829.9594738,1771936829.888318,-1000.0,-69.82421875,-78.61328125,-117.1875,0.0,0,0
1771936829.9595158,1771936829.8921971,137.20703125,-26.3671875,-14.6484375,-15.625,0.0,0,0
1771936829.961167,1771936829.8963466,-906.73828125,-2.9296875,15.13671875,69.82421875,0.0,0,0
1771936829.961227,1771936829.9002259,708.49609375,-8.7890625,-10.7421875,48.33984375,0.0,0,0
1771936829.961269,1771936829.904105,-476.5625,-37.59765625,-60.546875,-59.5703125,0.0,0,0
1771936829.961312,1771936829.9079843,-1000.0,-65.4296875,-75.68359375,-104.98046875,0.0,0,0
1771936829.961353,1771936829.9118636,-23.92578125,-42.96875,-27.83203125,-26.3671875,0.0,0,0
1771936829.9614038,1771936829.9157429,-933.59375,1.953125,11.71875,50.78125,0.0,0,0
1771936829.961445,1771936829.9196222,804.19921875,14.16015625,5.37109375,44.43359375,0.0,0,0
1771936829.961494,1771936829.9235015,-312.01171875,-31.73828125,-51.7578125,-68.84765625,0.0,0,0
1771936829.961535,1771936829.9273808,-1000.0,-74.70703125,-77.1484375,-121.58203125,0.0,0,0
1771936829.961577,1771936829.93126,-185.546875,-46.38671875,-28.3203125,-44.921875,0.0,0,0
1771936829.961623,1771936829.9351394,-966.30859375,-10.25390625,13.671875,43.9453125,0.0,0,0
1771936829.961684,1771936829.9390185,853.02734375,-10.7421875,2.9296875,43.45703125,0.0,0,0
1771936830.019861,1771936829.9431102,-261.71875,-47.8515625,-57.12890625,-65.91796875,0.0,0,0
1771936830.020038,1771936829.9469898,-1000.0,-79.1015625,-81.0546875,-135.25390625,0.0,0,0
1771936830.0201159,1771936829.950869,-290.0390625,-41.9921875,-33.69140625,-66.89453125,0.0,0,0
1771936830.020176,1771936829.9547484,963.37890625,-0.48828125,8.7890625,32.71484375,0.0,0,0
1771936830.020236,1771936829.9586277,959.47265625,-11.71875,-3.41796875,41.015625,0.0,0,0
1771936830.0202932,1771936829.962507,-85.9375,-33.203125,-48.33984375,-47.8515625,0.0,0,0
1771936830.020351,1771936829.9663866,-1000.0,-50.78125,-76.171875,-127.44140625,0.0,0,0
1771936830.020407,1771936829.9702659,-419.921875,-49.8046875,-53.22265625,-77.1484375,0.0,0,0
1771936830.0204532,1771936829.9741452,867.67578125,-5.37109375,5.859375,40.0390625,0.0,0,0
1771936830.0204952,1771936829.9780245,-958.49609375,1.46484375,10.25390625,64.94140625,0.0,0,0
1771936830.0205371,1771936829.981904,29.78515625,-43.9453125,-46.875,-23.92578125,0.0,0,0
1771936830.020579,1771936829.9857833,-1000.0,-73.73046875,-75.1953125,-111.328125,0.0,0,0
1771936830.0641239,1771936829.990051,-598.6328125,-59.08203125,-51.26953125,-76.171875,0.0,0,0
1771936830.064254,1771936829.9939306,649.90234375,-6.8359375,7.32421875,27.34375,0.0,0,0
1771936830.064304,1771936829.9978101,-883.7890625,7.8125,17.08984375,54.6875,0.0,0,0
1771936830.0643468,1771936830.0016897,216.30859375,-23.92578125,-38.0859375,-7.8125,0.0,0,0
1771936830.06439,1771936830.005569,-1000.0,-56.15234375,-75.68359375,-98.6328125,0.0,0,0
1771936830.0644338,1771936830.0094485,-677.24609375,-38.57421875,-54.19921875,-83.0078125,0.0,0,0
1771936830.064476,1771936830.013328,573.73046875,4.8828125,6.34765625,25.87890625,0.0,0,0
1771936830.064524,1771936830.0172076,-883.7890625,1.46484375,13.18359375,55.17578125,0.0,0,0
1771936830.064565,1771936830.0210872,283.69140625,-36.62109375,-33.203125,-1.46484375,0.0,0,0
1771936830.064616,1771936830.0249667,-980.46875,-52.24609375,-73.2421875,-101.5625,0.0,0,0
1771936830.064657,1771936830.0288463,-884.27734375,-47.36328125,-70.3125,-111.328125,0.0,0,0
1771936830.0647092,1771936830.0327258,320.3125,-15.13671875,-7.8125,10.25390625,0.0,0,0
1771936830.110508,1771936830.0369675,-874.0234375,5.37109375,16.11328125,71.77734375,0.0,0,0
1771936830.1106791,1771936830.0408473,480.46875,-21.97265625,-20.99609375,14.16015625,0.0,0,0
1771936830.1107452,1771936830.0447268,-797.8515625,-58.59375,-65.91796875,-95.703125,0.0,0,0
1771936830.110809,1771936830.0486064,-1000.0,-65.91796875,-68.84765625,-108.3984375,0.0,0,0
1771936830.110871,1771936830.0524862,158.69140625,-30.76171875,-13.671875,-10.25390625,0.0,0,0
1771936830.110934,1771936830.0563657,-865.234375,11.23046875,12.6953125,59.5703125,0.0,0,0
1771936830.110999,1771936830.0602455,495.1171875,-11.71875,-20.5078125,35.64453125,0.0,0,0
1771936830.1110559,1771936830.064125,-762.6953125,-73.2421875,-74.21875,-88.37890625,0.0,0,0
1771936830.111113,1771936830.0680048,-1000.0,-67.87109375,-84.9609375,-132.32421875,0.0,0,0
1771936830.111169,1771936830.0718844,7.32421875,-14.6484375,-36.1328125,-34.1796875,0.0,0,0
1771936830.1112251,1771936830.0757642,-912.59765625,-0.48828125,0.48828125,42.96875,0.0,0,0
1771936830.1112819,1771936830.0796437,694.82421875,-19.04296875,-18.06640625,27.83203125,0.0,0,0
1771936830.153999,1771936830.0838547,-460.44921875,-53.22265625,-67.3828125,-70.80078125,0.0,0,0
1771936830.154121,1771936830.0877345,-1000.0,-72.75390625,-78.61328125,-127.44140625,0.0,0,0
1771936830.154158,1771936830.0916142,-187.98828125,-33.69140625,-26.85546875,-56.640625,0.0,0,0
1771936830.1541948,1771936830.095494,-943.84765625,5.859375,11.23046875,38.0859375,0.0,0,0
1771936830.15423,1771936830.0993738,771.97265625,-15.13671875,-7.8125,22.4609375,0.0,0,0
1771936830.154263,1771936830.1032536,-378.90625,-44.921875,-58.59375,-85.44921875,0.0,0,0
1771936830.1542962,1771936830.1071334,-1000.0,-53.7109375,-69.3359375,-129.8828125,0.0,0,0
1771936830.154329,1771936830.1110132,-304.19921875,-43.9453125,-29.78515625,-60.546875,0.0,0,0
1771936830.154361,1771936830.114893,953.61328125,8.30078125,2.44140625,34.66796875,0.0,0,0
1771936830.1543949,1771936830.1187725,913.57421875,19.04296875,0.0,34.1796875,0.0,0,0
1771936830.1544268,1771936830.1226523,-221.19140625,-41.015625,-53.7109375,-60.546875,0.0,0,0
1771936830.15446,1771936830.126532,-1000.0,-71.2890625,-84.47265625,-127.44140625,0.0,0,0
1771936830.199312,1771936830.1307209,-464.35546875,-56.15234375,-52.24609375,-84.47265625,0.0,0,0
1771936830.199594,1771936830.1346009,814.453125,-15.13671875,-8.7890625,25.390625,0.0,0,0
1771936830.199648,1771936830.1384807,-992.1875,-11.23046875,-8.7890625,41.9921875,0.0,0,0
1771936830.199693,1771936830.1423607,-79.58984375,-41.50390625,-63.4765625,-48.33984375,0.0,0,0
1771936830.199736,1771936830.1462405,-1000.0,-67.87109375,-90.8203125,-128.41796875,0.0,0,0
1771936830.1997828,1771936830.1501205,-543.9453125,-49.8046875,-53.22265625,-103.515625,0.0,0,0
1771936830.1998248,1771936830.1540003,727.05078125,-13.671875,0.9765625,10.25390625,0.0,0,0
1771936830.199868,1771936830.1578803,-923.33984375,-3.90625,1.953125,39.55078125,0.0,0,0
1771936830.1999092,1771936830.16176,52.734375,-17.578125,-43.9453125,-27.34375,0.0,0,0
1771936830.199952,1771936830.1656399,-1000.0,-69.82421875,-74.21875,-115.72265625,0.0,0,0
1771936830.1999931,1771936830.16952,-726.07421875,-64.94140625,-61.5234375,-124.51171875,0.0,0,0
1771936830.200035,1771936830.1733997,476.5625,-19.53125,-18.5546875,-9.765625,0.0,0,0
1771936830.2601411,1771936830.1777568,-876.953125,-1.46484375,-8.30078125,33.203125,0.0,0,0
1771936830.26027,1771936830.1816368,276.3671875,-21.484375,-47.36328125,-39.0625,0.0,0,0
1771936830.260316,1771936830.185517,-989.74609375,-58.10546875,-85.44921875,-126.953125,0.0,0,0
1771936830.26036,1771936830.189397,-868.65234375,-58.10546875,-79.1015625,-124.51171875,0.0,0,0
1771936830.260402,1771936830.1932771,338.8671875,-20.5078125,-24.90234375,-11.71875,0.0,0,0
1771936830.260444,1771936830.1971571,-865.72265625,11.71875,7.32421875,47.36328125,0.0,0,0
1771936830.260488,1771936830.2010374,427.734375,-12.20703125,-26.3671875,0.48828125,0.0,0,0
1771936830.26053,1771936830.2049174,-875.9765625,-45.8984375,-85.9375,-110.3515625,0.0,0,0
1771936830.260572,1771936830.2087975,-943.84765625,-33.69140625,-75.1953125,-130.859375,0.0,0,0
1771936830.260614,1771936830.2126775,253.41796875,-21.484375,-14.6484375,-14.6484375,0.0,0,0
1771936830.260656,1771936830.2165577,-893.06640625,-10.7421875,3.41796875,47.8515625,0.0,0,0
1771936830.2606971,1771936830.2204378,579.58984375,-17.578125,-14.6484375,12.20703125,0.0,0,0
1771936830.302874,1771936830.224586,-664.55078125,-54.6875,-65.91796875,-94.7265625,0.0,0,0
1771936830.302989,1771936830.228466,-1000.0,-67.87109375,-79.58984375,-123.53515625,0.0,0,0
1771936830.3030221,1771936830.2323463,26.85546875,-40.0390625,-26.3671875,-31.73828125,0.0,0,0
1771936830.303068,1771936830.2362266,-895.99609375,-9.27734375,12.6953125,33.69140625,0.0,0,0
1771936830.303137,1771936830.2401066,627.44140625,-17.578125,-8.7890625,15.625,0.0,0,0
1771936830.303205,1771936830.2439868,-569.82421875,-46.875,-59.5703125,-78.125,0.0,0,0
1771936830.3032699,1771936830.247867,-1000.0,-62.5,-68.359375,-121.09375,0.0,0,0
1771936830.303333,1771936830.2517471,-130.859375,-43.45703125,-25.87890625,-54.6875,0.0,0,0
1771936830.303391,1771936830.2556274,-932.6171875,42.48046875,14.6484375,42.96875,0.0,0,0
1771936830.303421,1771936830.2595077,728.02734375,30.76171875,4.8828125,38.0859375,0.0,0,0
1771936830.303453,1771936830.2633877,-449.70703125,-62.01171875,-51.7578125,-65.91796875,0.0,0,0
1771936830.3034859,1771936830.267268,-1000.0,-56.640625,-63.4765625,-116.2109375,0.0,0,0
1771936830.334052,1771936830.2713747,-235.3515625,-35.64453125,-20.99609375,-47.8515625,0.0,0,0
1771936830.334162,1771936830.275255,995.60546875,-11.71875,14.6484375,40.52734375,0.0,0,0
1771936830.334193,1771936830.2791352,906.73828125,-4.39453125,9.27734375,54.6875,0.0,0,0
1771936830.33422,1771936830.2830155,-196.2890625,-44.43359375,-44.43359375,-29.296875,0.0,0,0
1771936830.334249,1771936830.2868958,-1000.0,-79.58984375,-65.91796875,-106.93359375,0.0,0,0
1771936830.3342772,1771936830.290776,-253.41796875,-52.734375,-20.99609375,-41.50390625,0.0,0,0
1771936830.334306,1771936830.2946563,-994.140625,19.53125,24.4140625,62.5,0.0,0,0
1771936830.334332,1771936830.2985365,947.265625,14.6484375,11.71875,58.59375,0.0,0,0
1771936830.334361,1771936830.3024168,-114.2578125,-51.26953125,-44.921875,-29.78515625,0.0,0,0
1771936830.334388,1771936830.306297,-1000.0,-76.171875,-67.3828125,-101.5625,0.0,0,0
1771936830.3344178,1771936830.3101773,-434.08203125,-48.828125,-35.64453125,-54.6875,0.0,0,0
1771936830.3344462,1771936830.3140576,850.09765625,-7.8125,12.20703125,49.8046875,0.0,0,0
1771936830.39369,1771936830.3181431,-950.1953125,-13.671875,13.671875,64.453125,0.0,0,0
1771936830.393802,1771936830.3220236,56.15234375,-47.36328125,-39.55078125,-18.5546875,0.0,0,0
1771936830.393833,1771936830.325904,-1000.0,-68.84765625,-70.80078125,-100.5859375,0.0,0,0
1771936830.393863,1771936830.3297844,-639.6484375,-57.12890625,-51.7578125,-78.125,0.0,0,0
1771936830.393891,1771936830.3336647,589.35546875,-25.390625,-3.41796875,30.2734375,0.0,0,0
1771936830.393918,1771936830.337545,-876.46484375,11.71875,21.97265625,67.87109375,0.0,0,0
1771936830.3939571,1771936830.3414254,248.53515625,6.8359375,-20.01953125,1.46484375,0.0,0,0
1771936830.393984,1771936830.3453057,-1000.0,-52.734375,-69.3359375,-98.14453125,0.0,0,0
1771936830.3940191,1771936830.349186,-779.78515625,-67.3828125,-55.6640625,-83.984375,0.0,0,0
1771936830.394047,1771936830.3530664,446.2890625,-25.87890625,3.90625,21.97265625,0.0,0,0
1771936830.394083,1771936830.3569467,-877.44140625,-4.39453125,16.6015625,40.52734375,0.0,0,0
1771936830.39411,1771936830.360827,387.6953125,-32.71484375,-19.04296875,-0.48828125,0.0,0,0
1771936830.439753,1771936830.3648841,-900.87890625,-74.70703125,-62.98828125,-98.6328125,0.0,0,0
1771936830.439919,1771936830.3687644,-916.9921875,-67.87109375,-56.640625,-113.76953125,0.0,0,0
1771936830.439986,1771936830.372645,295.8984375,-26.85546875,1.46484375,-3.41796875,0.0,0,0
1771936830.440047,1771936830.3765254,-872.55859375,-7.8125,21.97265625,49.31640625,0.0,0,0
1771936830.440107,1771936830.3804057,472.65625,-20.01953125,-8.7890625,15.13671875,0.0,0,0
1771936830.440166,1771936830.3842862,-784.1796875,-47.36328125,-59.08203125,-87.890625,0.0,0,0
1771936830.440235,1771936830.3881667,-1000.0,-58.59375,-62.98828125,-125.48828125,0.0,0,0
1771936830.44031,1771936830.392047,80.56640625,-27.83203125,-9.765625,-27.83203125,0.0,0,0
1771936830.440385,1771936830.3959274,-872.55859375,-11.23046875,8.30078125,41.015625,0.0,0,0
1771936830.440455,1771936830.399808,520.01953125,-5.859375,-9.27734375,3.41796875,0.0,0,0
1771936830.440534,1771936830.4036882,-712.40234375,-33.203125,-54.6875,-105.46875,0.0,0,0
1771936830.440613,1771936830.4075687,-1000.0,-70.3125,-71.77734375,-143.06640625,0.0,0,0
1771936830.4847481,1771936830.4117985,-115.234375,-43.45703125,-25.87890625,-52.24609375,0.0,0,0
1771936830.484876,1771936830.415679,-930.6640625,-13.671875,2.9296875,20.5078125,0.0,0,0
1771936830.4849348,1771936830.4195595,706.0546875,-15.625,-7.8125,6.8359375,0.0,0,0
1771936830.484992,1771936830.42344,-481.4453125,-57.6171875,-61.5234375,-84.9609375,0.0,0,0
1771936830.485049,1771936830.4273205,-1000.0,-71.77734375,-73.73046875,-135.7421875,0.0,0,0
1771936830.4851048,1771936830.4312012,-119.62890625,-27.34375,-23.4375,-53.7109375,0.0,0,0
1771936830.485164,1771936830.4350817,-969.7265625,-6.34765625,7.8125,43.45703125,0.0,0,0
1771936830.4852211,1771936830.4389622,885.7421875,-14.16015625,3.90625,57.6171875,0.0,0,0
1771936830.485277,1771936830.4428427,-203.125,-23.4375,-43.45703125,-26.3671875,0.0,0,0
1771936830.485332,1771936830.4467232,-1000.0,-35.15625,-68.84765625,-85.44921875,0.0,0,0
1771936830.485388,1771936830.450604,-272.94921875,-40.52734375,-37.59765625,-36.1328125,0.0,0,0
1771936830.485494,1771936830.4544845,974.12109375,-21.484375,12.20703125,47.36328125,0.0,0,0
1771936830.5603042,1771936830.4590712,966.796875,-15.625,10.7421875,65.91796875,0.0,0,0
1771936830.560478,1771936830.462952,-102.5390625,-49.8046875,-52.734375,-19.04296875,0.0,0,0
1771936830.5605462,1771936830.4668329,-1000.0,-72.265625,-74.70703125,-86.9140625,0.0,0,0
1771936830.560607,1771936830.4707136,-328.61328125,-49.8046875,-45.8984375,-46.875,0.0,0,0
1771936830.560666,1771936830.4745944,919.43359375,-10.25390625,10.7421875,51.7578125,0.0,0,0
1771936830.560725,1771936830.478475,-943.84765625,5.37109375,20.99609375,78.125,0.0,0,0
1771936830.560961,1771936830.482356,141.6015625,-26.85546875,-40.52734375,-3.90625,0.0,0,0
1771936830.561024,1771936830.4862368,-1000.0,-72.75390625,-71.2890625,-93.26171875,0.0,0,0
1771936830.5610812,1771936830.4901175,-524.4140625,-46.38671875,-49.8046875,-71.2890625,0.0,0,0
1771936830.561146,1771936830.4939985,743.65234375,4.8828125,-1.46484375,38.57421875,0.0,0,0
1771936830.561203,1771936830.4978793,-904.78515625,-10.25390625,13.671875,80.078125,0.0,0,0
1771936830.56126,1771936830.50176,359.86328125,-25.87890625,-24.4140625,21.484375,0.0,0,0
1771936830.574831,1771936830.505946,-1000.0,-60.546875,-66.89453125,-80.56640625,0.0,0,0
1771936830.574923,1771936830.509827,-671.38671875,-67.3828125,-52.734375,-75.68359375,0.0,0,0
1771936830.574972,1771936830.5137079,646.97265625,-24.90234375,4.39453125,42.48046875,0.0,0,0
1771936830.575017,1771936830.5175889,-896.97265625,-13.671875,12.20703125,73.73046875,0.0,0,0
1771936830.575061,1771936830.5214696,410.64453125,-33.69140625,-25.87890625,18.5546875,0.0,0,0
1771936830.575104,1771936830.5253506,-889.16015625,-63.4765625,-65.4296875,-72.75390625,0.0,0,0
1771936830.575146,1771936830.5292315,-848.6328125,-66.89453125,-62.5,-81.54296875,0.0,0,0
1771936830.575187,1771936830.5331125,410.64453125,-34.66796875,-5.859375,17.578125,0.0,0,0
1771936830.575229,1771936830.5369933,-896.484375,-14.16015625,9.765625,57.6171875,0.0,0,0
1771936830.5752692,1771936830.5408742,566.40625,-25.87890625,-23.92578125,20.99609375,0.0,0,0
1771936830.57531,1771936830.5447552,-722.65625,-59.5703125,-65.91796875,-82.51953125,0.0,0,0
1771936830.575352,1771936830.5486362,-975.09765625,-62.98828125,-71.2890625,-109.86328125,0.0,0,0
1771936830.619292,1771936830.5527842,280.76171875,-23.4375,-12.6953125,-16.6015625,0.0,0,0
1771936830.6194172,1771936830.5566652,-910.64453125,-1.953125,14.6484375,49.31640625,0.0,0,0
1771936830.6194649,1771936830.5605464,682.6171875,-8.7890625,-8.30078125,28.80859375,0.0,0,0
1771936830.619509,1771936830.5644274,-514.16015625,-28.80859375,-59.08203125,-81.0546875,0.0,0,0
1771936830.619553,1771936830.5683084,-1000.0,-38.0859375,-75.1953125,-117.1875,0.0,0,0
1771936830.619597,1771936830.5721893,111.328125,-18.06640625,-16.11328125,-20.01953125,0.0,0,0
1771936830.6196392,1771936830.5760703,-890.13671875,5.37109375,18.5546875,64.453125,0.0,0,0
1771936830.619682,1771936830.5799515,671.38671875,10.7421875,-7.8125,37.109375,0.0,0,0
1771936830.619724,1771936830.5838325,-483.88671875,-34.66796875,-59.5703125,-71.77734375,0.0,0,0
1771936830.619785,1771936830.5877135,-1000.0,-73.2421875,-71.2890625,-109.375,0.0,0,0
1771936830.6198258,1771936830.5915945,-73.73046875,-32.2265625,-26.3671875,-39.0625,0.0,0,0
1771936830.6198668,1771936830.5954754,-933.10546875,0.9765625,9.27734375,51.26953125,0.0,0,0
1771936830.665041,1771936830.5995984,809.5703125,-6.8359375,-6.8359375,44.921875,0.0,0,0
1771936830.665153,1771936830.6034794,-308.10546875,-45.8984375,-60.546875,-57.6171875,0.0,0,0
1771936830.665184,1771936830.6073606,-1000.0,-65.4296875,-76.66015625,-117.67578125,0.0,0,0
1771936830.6652129,1771936830.6112418,-176.26953125,-30.76171875,-33.69140625,-52.734375,0.0,0,0
1771936830.665241,1771936830.6151228,-986.328125,-0.48828125,5.37109375,43.9453125,0.0,0,0
1771936830.665269,1771936830.619004,971.6796875,5.859375,9.765625,58.59375,0.0,0,0
1771936830.6652958,1771936830.622885,-57.12890625,-17.578125,-44.921875,-34.1796875,0.0,0,0
1771936830.665322,1771936830.6267662,-1000.0,-55.17578125,-85.44921875,-117.1875,0.0,0,0
1771936830.665348,1771936830.6306472,-399.4140625,-52.24609375,-49.31640625,-71.2890625,0.0,0,0
1771936830.665375,1771936830.6345284,877.44140625,-12.6953125,8.7890625,29.78515625,0.0,0,0
1771936830.665401,1771936830.6384094,-981.4453125,-4.8828125,7.32421875,55.17578125,0.0,0,0
1771936830.665431,1771936830.6422906,-17.08984375,-40.52734375,-44.921875,-14.16015625,0.0,0,0
1771936830.709405,1771936830.6463943,-1000.0,-66.40625,-66.89453125,-93.26171875,0.0,0,0
1771936830.7095501,1771936830.6502755,-542.96875,-57.12890625,-49.8046875,-78.61328125,0.0,0,0
1771936830.709611,1771936830.6541567,706.0546875,-21.484375,-0.48828125,19.04296875,0.0,0,0
1771936830.709669,1771936830.658038,-900.390625,-10.25390625,11.71875,51.7578125,0.0,0,0
1771936830.709721,1771936830.661919,195.3125,-35.64453125,-37.109375,-16.6015625,0.0,0,0
1771936830.709763,1771936830.6658003,-1000.0,-64.453125,-72.75390625,-113.28125,0.0,0,0
1771936830.709803,1771936830.6696815,-613.28125,-37.59765625,-61.03515625,-92.28515625,0.0,0,0
1771936830.709845,1771936830.6735625,658.69140625,-4.8828125,-17.08984375,11.71875,0.0,0,0
1771936830.709892,1771936830.6774437,-890.625,-11.71875,-2.44140625,36.1328125,0.0,0,0
1771936830.709933,1771936830.681325,257.32421875,-34.1796875,-38.57421875,-17.08984375,0.0,0,0
1771936830.709974,1771936830.6852062,-1000.0,-66.89453125,-80.078125,-102.5390625,0.0,0,0
1771936830.710015,1771936830.6890874,-817.87109375,-62.98828125,-68.84765625,-91.30859375,0.0,0,0
1771936830.768961,1771936830.693167,414.0625,-28.80859375,-2.9296875,15.625,0.0,0,0
1771936830.769202,1771936830.6970482,-883.30078125,-10.25390625,17.08984375,51.26953125,0.0,0,0
1771936830.76929,1771936830.7009296,466.30859375,-25.87890625,-13.671875,15.625,0.0,0,0
1771936830.7693539,1771936830.7048109,-816.40625,-60.546875,-62.98828125,-80.078125,0.0,0,0
1771936830.7694159,1771936830.708692,-958.984375,-68.84765625,-64.453125,-102.05078125,0.0,0,0
1771936830.76948,1771936830.7125733,281.73828125,-25.390625,2.9296875,15.625,0.0,0,0
1771936830.769535,1771936830.7164545,-872.55859375,-0.9765625,13.671875,73.2421875,0.0,0,0
1771936830.769593,1771936830.720336,515.13671875,-33.203125,-17.08984375,23.92578125,0.0,0,0
1771936830.76965,1771936830.7242172,-729.4921875,-68.359375,-57.12890625,-85.44921875,0.0,0,0
1771936830.769706,1771936830.7280984,-1000.0,-69.3359375,-64.94140625,-114.2578125,0.0,0,0
1771936830.769771,1771936830.7319796,103.515625,-32.71484375,-12.20703125,-29.78515625,0.0,0,0
1771936830.769829,1771936830.7358608,-888.671875,0.9765625,21.97265625,46.875,0.0,0,0
1771936830.8587651,1771936830.7399156,611.328125,-17.578125,-9.27734375,29.296875,0.0,0,0
1771936830.858922,1771936830.743797,-589.35546875,-65.91796875,-69.82421875,-83.984375,0.0,0,0
1771936830.8591151,1771936830.7476783,-1000.0,-79.58984375,-82.03125,-132.32421875,0.0,0,0
1771936830.85921,1771936830.7515597,-71.2890625,-46.875,-35.15625,-45.41015625,0.0,0,0
1771936830.859287,1771936830.755441,-940.91796875,-14.16015625,9.765625,46.38671875,0.0,0,0
1771936830.859335,1771936830.7593224,800.78125,0.9765625,0.48828125,39.55078125,0.0,0,0
1771936830.8594198,1771936830.7632036,-322.75390625,-31.25,-58.59375,-49.8046875,0.0,0,0
1771936830.859508,1771936830.767085,-1000.0,-75.1953125,-83.0078125,-106.93359375,0.0,0,0
1771936830.859582,1771936830.7709663,-250.9765625,-49.8046875,-45.41015625,-58.10546875,0.0,0,0
1771936830.859669,1771936830.7748475,978.02734375,-9.765625,-5.37109375,22.4609375,0.0,0,0
1771936830.859782,1771936830.778729,920.41015625,-5.859375,-4.39453125,22.4609375,0.0,0,0
1771936830.85984,1771936830.7826102,-186.5234375,-50.78125,-58.10546875,-65.91796875,0.0,0,0
1771936830.8614988,1771936830.7868652,-1000.0,-81.0546875,-77.63671875,-130.37109375,0.0,0,0
1771936830.861591,1771936830.7907467,-450.1953125,-57.12890625,-45.41015625,-92.7734375,0.0,0,0
1771936830.8616378,1771936830.7946281,813.96484375,-9.27734375,1.46484375,12.6953125,0.0,0,0
1771936830.861682,1771936830.7985096,-998.046875,2.44140625,10.7421875,52.734375,0.0,0,0
1771936830.8617249,1771936830.802391,-93.26171875,-35.15625,-49.31640625,-48.828125,0.0,0,0
1771936830.8617668,1771936830.8062725,-1000.0,-55.17578125,-74.21875,-131.8359375,0.0,0,0
1771936830.861808,1771936830.810154,-520.99609375,-48.828125,-45.41015625,-95.21484375,0.0,0,0
1771936830.861851,1771936830.8140354,739.2578125,-19.53125,-2.9296875,0.48828125,0.0,0,0
1771936830.8618932,1771936830.8179169,-923.828125,-3.41796875,-0.9765625,27.83203125,0.0,0,0
1771936830.8619342,1771936830.8217983,86.42578125,-23.4375,-45.41015625,-30.2734375,0.0,0,0
1771936830.861975,1771936830.8256798,-1000.0,-64.94140625,-75.1953125,-116.69921875,0.0,0,0
1771936830.8621209,1771936830.8295612,-641.11328125,-61.03515625,-58.59375,-97.65625,0.0,0,0
1771936830.904057,1771936830.833753,612.79296875,-19.53125,-1.46484375,15.625,0.0,0,0
1771936830.9041762,1771936830.8376346,-877.9296875,1.46484375,15.13671875,51.26953125,0.0,0,0
1771936830.904217,1771936830.8415163,229.00390625,-16.6015625,-32.71484375,-24.4140625,0.0,0,0
1771936830.9042518,1771936830.8453977,-1000.0,-49.8046875,-77.1484375,-124.51171875,0.0,0,0
1771936830.904286,1771936830.8492794,-770.01953125,-51.7578125,-70.3125,-105.95703125,0.0,0,0
1771936830.904319,1771936830.8531609,453.61328125,-9.27734375,-14.6484375,6.8359375,0.0,0,0
1771936830.904352,1771936830.8570426,-880.37109375,23.92578125,6.8359375,54.19921875,0.0,0,0
1771936830.904385,1771936830.860924,417.48046875,-1.953125,-24.90234375,19.53125,0.0,0,0
1771936830.904421,1771936830.8648057,-877.44140625,-40.52734375,-78.125,-87.40234375,0.0,0,0
1771936830.904454,1771936830.8686872,-929.19921875,-39.55078125,-81.54296875,-109.86328125,0.0,0,0
1771936830.90449,1771936830.8725688,296.875,-21.97265625,-19.04296875,-8.30078125,0.0,0,0
1771936830.904522,1771936830.8764503,-875.9765625,-4.39453125,-1.953125,49.31640625,0.0,0,0
1771936830.950161,1771936830.880616,508.7890625,-11.71875,-29.78515625,15.13671875,0.0,0,0
1771936830.950271,1771936830.8844976,-756.34765625,-50.29296875,-74.70703125,-83.49609375,0.0,0,0
1771936830.950305,1771936830.8883793,-1000.0,-61.03515625,-79.58984375,-99.12109375,0.0,0,0
1771936830.9503338,1771936830.892261,137.6953125,-29.296875,-21.97265625,-11.23046875,0.0,0,0
1771936830.9503949,1771936830.8961427,-912.59765625,-5.37109375,5.37109375,51.26953125,0.0,0,0
1771936830.950437,1771936830.9000244,704.1015625,-2.9296875,-12.20703125,31.25,0.0,0,0
1771936830.950469,1771936830.903906,-494.62890625,-54.6875,-67.87109375,-77.1484375,0.0,0,0
1771936830.950498,1771936830.9077876,-1000.0,-77.1484375,-87.890625,-121.09375,0.0,0,0
1771936830.950525,1771936830.9116693,32.2265625,-8.30078125,-25.390625,-29.78515625,0.0,0,0
1771936830.950552,1771936830.915551,-899.4140625,-7.8125,11.71875,53.22265625,0.0,0,0
1771936830.950578,1771936830.9194326,711.42578125,-35.64453125,-5.37109375,33.203125,0.0,0,0
1771936830.950606,1771936830.9233143,-431.640625,-55.6640625,-62.5,-72.75390625,0.0,0,0
1771936830.993898,1771936830.927457,-1000.0,-83.984375,-78.125,-117.67578125,0.0,0,0
1771936830.9940019,1771936830.931339,-156.73828125,-51.7578125,-27.83203125,-43.45703125,0.0,0,0
1771936830.9940329,1771936830.9352207,-949.70703125,-0.9765625,13.671875,36.62109375,0.0,0,0
1771936830.9940622,1771936830.9391024,852.5390625,-3.41796875,0.9765625,37.109375,0.0,0,0
1771936830.99409,1771936830.9429843,-263.18359375,-44.921875,-57.6171875,-68.84765625,0.0,0,0
1771936830.994117,1771936830.946866,-1000.0,-63.4765625,-76.66015625,-128.41796875,0.0,0,0
1771936830.994143,1771936830.9507477,-302.734375,-46.38671875,-41.50390625,-60.546875,0.0,0,0
1771936830.9941702,1771936830.9546297,977.05078125,12.20703125,-1.46484375,33.69140625,0.0,0,0
1771936830.994199,1771936830.9585114,915.52734375,20.01953125,-4.39453125,46.38671875,0.0,0,0
1771936830.994226,1771936830.962393,-200.1953125,-46.875,-56.640625,-43.9453125,0.0,0,0
1771936830.994252,1771936830.966275,-1000.0,-76.171875,-88.37890625,-132.8125,0.0,0,0
1771936830.994279,1771936830.9701567,-384.27734375,-49.31640625,-52.734375,-84.9609375,0.0,0,0
1771936831.053938,1771936830.9742842,880.859375,-17.578125,0.0,30.76171875,0.0,0,0
1771936831.054104,1771936830.978166,-968.26171875,-14.16015625,4.39453125,55.6640625,0.0,0,0
1771936831.0541692,1771936830.9820478,15.625,-37.109375,-45.41015625,-23.92578125,0.0,0,0
1771936831.0542269,1771936830.9859297,-1000.0,-63.96484375,-76.66015625,-107.91015625,0.0,0,0
1771936831.0542872,1771936830.9898117,-575.68359375,-51.26953125,-58.10546875,-72.75390625,0.0,0,0
1771936831.054346,1771936830.9936934,687.01171875,-8.7890625,-1.953125,35.64453125,0.0,0,0
1771936831.054403,1771936830.9975753,-895.99609375,5.859375,12.20703125,62.5,0.0,0,0
1771936831.0544589,1771936831.0014572,167.96875,-21.484375,-44.921875,-1.46484375,0.0,0,0
1771936831.054515,1771936831.005339,-1000.0,-73.73046875,-87.890625,-100.5859375,0.0,0,0
1771936831.05457,1771936831.0092208,-729.00390625,-72.265625,-64.453125,-94.7265625,0.0,0,0
1771936831.0546272,1771936831.0131028,499.51171875,-19.04296875,-8.30078125,9.27734375,0.0,0,0
1771936831.054683,1771936831.0169845,-878.90625,2.9296875,5.859375,55.17578125,0.0,0,0
1771936831.085361,1771936831.0210807,379.39453125,-21.484375,-30.2734375,13.671875,0.0,0,0
1771936831.0854971,1771936831.0249627,-925.29296875,-61.5234375,-71.77734375,-86.9140625,0.0,0,0
1771936831.085545,1771936831.0288446,-866.2109375,-57.12890625,-61.5234375,-96.6796875,0.0,0,0
1771936831.085589,1771936831.0327265,358.88671875,-27.83203125,-13.18359375,-1.953125,0.0,0,0
1771936831.0856361,1771936831.0366085,-894.53125,-17.08984375,0.0,38.0859375,0.0,0,0
1771936831.085676,1771936831.0404904,562.01171875,-15.13671875,-22.4609375,15.13671875,0.0,0,0
1771936831.085718,1771936831.0443723,-719.7265625,-37.59765625,-68.359375,-84.9609375,0.0,0,0
1771936831.08576,1771936831.0482543,-1000.0,-57.6171875,-77.63671875,-121.09375,0.0,0,0
1771936831.085801,1771936831.0521362,192.87109375,-28.80859375,-16.11328125,-15.625,0.0,0,0
1771936831.085842,1771936831.056018,-883.30078125,0.0,8.30078125,43.9453125,0.0,0,0
1771936831.085883,1771936831.0599,580.56640625,-4.8828125,-18.5546875,10.7421875,0.0,0,0
1771936831.085959,1771936831.063782,-646.484375,-50.29296875,-67.87109375,-81.0546875,0.0,0,0
1771936831.159265,1771936831.0682187,-1000.0,-69.3359375,-76.171875,-110.83984375,0.0,0,0
1771936831.159414,1771936831.0721009,37.59765625,-29.296875,-19.53125,-23.4375,0.0,0,0
1771936831.159462,1771936831.075983,-911.1328125,-1.46484375,16.6015625,57.6171875,0.0,0,0
1771936831.159512,1771936831.0798652,727.5390625,-4.8828125,1.953125,42.96875,0.0,0,0
1771936831.1595562,1771936831.0837474,-416.9921875,-41.50390625,-51.26953125,-57.6171875,0.0,0,0
1771936831.1596,1771936831.0876293,-1000.0,-50.78125,-60.05859375,-104.00390625,0.0,0,0
1771936831.1596422,1771936831.0915115,-102.05078125,-7.8125,-18.06640625,-26.85546875,0.0,0,0
1771936831.159688,1771936831.0953937,-929.19921875,-1.953125,5.37109375,61.03515625,0.0,0,0
1771936831.15973,1771936831.0992758,797.36328125,-18.5546875,0.9765625,47.36328125,0.0,0,0
1771936831.159772,1771936831.103158,-328.61328125,-43.45703125,-49.8046875,-58.10546875,0.0,0,0
1771936831.159814,1771936831.10704,-1000.0,-64.453125,-73.2421875,-115.234375,0.0,0,0
1771936831.1598542,1771936831.110922,-269.04296875,-41.015625,-33.203125,-54.19921875,0.0,0,0
1771936831.189445,1771936831.1151524,990.72265625,6.8359375,16.11328125,47.36328125,0.0,0,0
1771936831.1895711,1771936831.1190345,903.3203125,-1.953125,8.7890625,61.5234375,0.0,0,0
1771936831.189617,1771936831.1229167,-223.14453125,-49.31640625,-52.24609375,-34.66796875,0.0,0,0
1771936831.189661,1771936831.126799,-1000.0,-66.40625,-72.265625,-108.3984375,0.0,0,0
1771936831.189709,1771936831.1306813,-404.296875,-47.8515625,-44.921875,-67.87109375,0.0,0,0
1771936831.189752,1771936831.1345634,866.2109375,2.9296875,6.34765625,34.1796875,0.0,0,0
1771936831.189794,1771936831.1384459,-979.4921875,15.13671875,10.7421875,54.19921875,0.0,0,0
1771936831.189836,1771936831.142328,-40.0390625,-35.15625,-51.26953125,-34.1796875,0.0,0,0
1771936831.189877,1771936831.1462102,-1000.0,-66.40625,-78.125,-108.3984375,0.0,0,0
1771936831.1899168,1771936831.1500926,-530.2734375,-51.26953125,-45.8984375,-76.66015625,0.0,0,0
1771936831.190018,1771936831.1539748,740.72265625,-11.23046875,15.625,26.3671875,0.0,0,0
1771936831.1900659,1771936831.157857,-919.921875,0.9765625,20.5078125,49.8046875,0.0,0,0
1771936831.2354019,1771936831.162064,96.19140625,-39.0625,-34.1796875,-13.671875,0.0,0,0
1771936831.235577,1771936831.1659465,-1000.0,-51.7578125,-69.82421875,-101.07421875,0.0,0,0
1771936831.235703,1771936831.169829,-665.0390625,-42.96875,-50.78125,-95.703125,0.0,0,0
1771936831.235769,1771936831.1737113,562.98828125,-26.3671875,5.859375,9.27734375,0.0,0,0
1771936831.2359948,1771936831.1775937,-881.34765625,-5.859375,22.94921875,53.22265625,0.0,0,0
1771936831.2360861,1771936831.1814759,354.00390625,-16.11328125,-13.671875,6.8359375,0.0,0,0
1771936831.23615,1771936831.1853583,-952.63671875,-57.12890625,-63.96484375,-97.16796875,0.0,0,0
1771936831.236212,1771936831.1892407,-866.2109375,-71.77734375,-61.03515625,-104.98046875,0.0,0,0
1771936831.2362702,1771936831.193123,371.09375,-22.94921875,4.39453125,11.71875,0.0,0,0
1771936831.236327,1771936831.1970055,-870.1171875,13.671875,21.484375,49.8046875,0.0,0,0
1771936831.236385,1771936831.2008877,399.4140625,-19.04296875,-17.578125,-12.6953125,0.0,0,0
1771936831.236442,1771936831.20477,-858.88671875,-63.96484375,-62.98828125,-104.00390625,0.0,0,0
1771936831.279155,1771936831.2089508,-1000.0,-68.84765625,-69.3359375,-113.28125,0.0,0,0
1771936831.279284,1771936831.2128332,167.48046875,-28.80859375,-12.6953125,-26.85546875,0.0,0,0
1771936831.279329,1771936831.2167156,-871.09375,1.953125,14.16015625,41.50390625,0.0,0,0
1771936831.279371,1771936831.220598,521.97265625,-20.01953125,-15.625,14.6484375,0.0,0,0
1771936831.279414,1771936831.2244806,-738.28125,-62.01171875,-69.3359375,-99.12109375,0.0,0,0
1771936831.279458,1771936831.228363,-1000.0,-55.6640625,-74.21875,-123.046875,0.0,0,0
1771936831.279501,1771936831.2322454,54.6875,-18.5546875,-21.97265625,-32.71484375,0.0,0,0
1771936831.279543,1771936831.2361279,-887.6953125,-8.7890625,-3.41796875,43.9453125,0.0,0,0
1771936831.279584,1771936831.2400105,593.26171875,-12.6953125,-16.6015625,20.99609375,0.0,0,0
1771936831.279627,1771936831.243893,-638.671875,-48.828125,-60.05859375,-97.65625,0.0,0,0
1771936831.279669,1771936831.2477753,-1000.0,-71.77734375,-73.73046875,-131.34765625,0.0,0,0
1771936831.2797089,1771936831.2516577,-94.7265625,-35.15625,-27.34375,-42.96875,0.0,0,0
1771936831.3243551,1771936831.2558181,-943.359375,-13.671875,2.9296875,40.52734375,0.0,0,0
1771936831.324498,1771936831.2597008,787.59765625,-14.16015625,-6.8359375,38.0859375,0.0,0,0
1771936831.324594,1771936831.2635832,-346.6796875,-43.9453125,-57.6171875,-54.19921875,0.0,0,0
1771936831.32465,1771936831.2674658,-1000.0,-75.1953125,-80.078125,-112.3046875,0.0,0,0
1771936831.324694,1771936831.2713482,-280.2734375,-47.8515625,-42.48046875,-60.546875,0.0,0,0
1771936831.324739,1771936831.275231,986.81640625,2.9296875,9.27734375,50.29296875,0.0,0,0
1771936831.3247821,1771936831.2791135,875.9765625,-4.39453125,1.953125,62.5,0.0,0,0
1771936831.324836,1771936831.282996,-268.06640625,-44.43359375,-65.91796875,-49.8046875,0.0,0,0
1771936831.324882,1771936831.2868786,-1000.0,-49.8046875,-83.0078125,-115.234375,0.0,0,0
1771936831.3249228,1771936831.2907612,-310.05859375,-38.57421875,-45.41015625,-62.01171875,0.0,0,0
1771936831.3249652,1771936831.2946436,940.4296875,-8.7890625,-5.859375,33.69140625,0.0,0,0
1771936831.3250072,1771936831.2985263,-984.375,-0.48828125,-6.8359375,51.26953125,0.0,0,0
1771936831.3698518,1771936831.3026617,3.41796875,-41.50390625,-59.08203125,-30.2734375,0.0,0,0
1771936831.370006,1771936831.3065443,-1000.0,-72.265625,-85.44921875,-104.98046875,0.0,0,0
1771936831.370053,1771936831.310427,-409.66796875,-48.33984375,-55.6640625,-63.4765625,0.0,0,0
1771936831.3700962,1771936831.3143096,860.3515625,-12.6953125,-4.39453125,40.0390625,0.0,0,0
1771936831.370141,1771936831.3181922,-928.7109375,-3.41796875,5.37109375,52.24609375,0.0,0,0
1771936831.370184,1771936831.322075,182.6171875,-28.3203125,-41.9921875,-24.4140625,0.0,0,0
1771936831.370226,1771936831.3259575,-1000.0,-67.3828125,-77.1484375,-108.3984375,0.0,0,0
1771936831.370267,1771936831.3298402,-586.42578125,-39.0625,-59.5703125,-88.37890625,0.0,0,0
1771936831.3703082,1771936831.3337228,680.17578125,-1.46484375,-12.6953125,14.16015625,0.0,0,0
1771936831.370355,1771936831.3376055,-897.4609375,-19.53125,3.90625,57.6171875,0.0,0,0
1771936831.370396,1771936831.3414881,280.76171875,-43.45703125,-36.1328125,1.953125,0.0,0,0
1771936831.3704488,1771936831.3453708,-1000.0,-74.21875,-75.68359375,-105.95703125,0.0,0,0
1771936831.4578948,1771936831.3494866,-737.79296875,-60.546875,-58.59375,-95.21484375,0.0,0,0
1771936831.458017,1771936831.3533692,530.76171875,-20.99609375,-2.44140625,21.97265625,0.0,0,0
1771936831.4580631,1771936831.3572521,-884.765625,-12.20703125,15.625,66.40625,0.0,0,0
1771936831.458092,1771936831.3611348,453.125,-31.25,-20.99609375,21.484375,0.0,0,0
1771936831.458121,1771936831.3650174,-868.1640625,-74.70703125,-74.70703125,-94.23828125,0.0,0,0
