timestamp,lsl_timestamp,TP9,AF7,AF8,TP10,Right AUX,keypress_A,keypress_B
1766589209.25361,1766589209.1825235,5.37109375,-38.57421875,-21.97265625,111.328125,0.0,0,0
1766589209.2539032,1766589209.1864202,-21.484375,-40.52734375,-24.4140625,43.9453125,0.0,0,0
1766589209.253946,1766589209.1903167,-76.66015625,-41.9921875,-31.25,-98.14453125,0.0,0,0
1766589209.2540002,1766589209.1942132,-96.19140625,-45.8984375,-47.8515625,-152.83203125,0.0,0,0
1766589209.2540312,1766589209.1981096,-38.57421875,-43.9453125,-37.59765625,-2.9296875,0.0,0,0
1766589209.2540631,1766589209.2020063,14.6484375,-31.25,-22.94921875,99.609375,0.0,0,0
1766589209.254092,1766589209.2059028,8.7890625,-22.94921875,-24.4140625,29.78515625,0.0,0,0
1766589209.254122,1766589209.2097993,-53.22265625,-32.71484375,-32.71484375,-130.859375,0.0,0,0
1766589209.2541509,1766589209.2136958,-94.23828125,-45.8984375,-43.45703125,-200.68359375,0.0,0,0
1766589209.2541802,1766589209.2175922,-43.45703125,-42.48046875,-39.55078125,-75.68359375,0.0,0,0
1766589209.25421,1766589209.221489,14.16015625,-32.71484375,-30.76171875,66.89453125,0.0,0,0
1766589209.254239,1766589209.2253854,-3.90625,-30.2734375,-27.83203125,65.4296875,0.0,0,0
1766589209.298144,1766589209.2293932,-58.59375,-31.25,-28.3203125,-72.75390625,0.0,0,0
1766589209.298229,1766589209.23329,-78.125,-31.25,-35.64453125,-122.0703125,0.0,0,0
1766589209.2982569,1766589209.2371864,-39.0625,-28.80859375,-32.2265625,-16.11328125,0.0,0,0
1766589209.298283,1766589209.241083,4.39453125,-28.3203125,-27.83203125,93.26171875,0.0,0,0
1766589209.2983098,1766589209.2449794,8.30078125,-24.4140625,-27.83203125,89.84375,0.0,0,0
1766589209.298346,1766589209.248876,-41.015625,-24.90234375,-31.25,-74.21875,0.0,0,0
1766589209.2983732,1766589209.2527726,-77.1484375,-24.90234375,-35.64453125,-187.01171875,0.0,0,0
1766589209.2984169,1766589209.256669,-45.41015625,-33.203125,-31.73828125,-113.28125,0.0,0,0
1766589209.298462,1766589209.2605658,1.46484375,-42.48046875,-33.69140625,6.34765625,0.0,0,0
1766589209.298552,1766589209.2644622,6.34765625,-33.203125,-33.203125,30.2734375,0.0,0,0
1766589209.2985861,1766589209.2683587,-38.57421875,-31.73828125,-37.109375,-113.76953125,0.0,0,0
1766589209.2986119,1766589209.2722554,-78.125,-36.62109375,-50.78125,-228.02734375,0.0,0,0
1766589209.342858,1766589209.2762556,-62.01171875,-38.57421875,-50.29296875,-180.17578125,0.0,0,0
1766589209.3429601,1766589209.280152,-0.48828125,-30.2734375,-35.64453125,-30.76171875,0.0,0,0
1766589209.342989,1766589209.2840488,10.25390625,-24.4140625,-27.83203125,29.296875,0.0,0,0
1766589209.343015,1766589209.2879453,-44.43359375,-32.71484375,-39.55078125,-118.1640625,0.0,0,0
1766589209.34304,1766589209.291842,-82.51953125,-32.71484375,-40.52734375,-208.49609375,0.0,0,0
1766589209.343067,1766589209.2957385,-78.61328125,-30.2734375,-29.78515625,-163.57421875,0.0,0,0
1766589209.343091,1766589209.299635,-29.78515625,-26.3671875,-25.87890625,-24.4140625,0.0,0,0
1766589209.343116,1766589209.3035316,-2.9296875,-31.73828125,-27.34375,43.45703125,0.0,0,0
1766589209.343141,1766589209.3074281,-41.9921875,-33.203125,-33.69140625,-92.28515625,0.0,0,0
1766589209.343178,1766589209.3113246,-78.125,-26.3671875,-38.0859375,-213.8671875,0.0,0,0
1766589209.34322,1766589209.3152213,-70.80078125,-25.87890625,-36.1328125,-173.33984375,0.0,0,0
1766589209.343244,1766589209.3191178,-27.83203125,-31.73828125,-35.64453125,-17.08984375,0.0,0,0
1766589209.40418,1766589209.3231828,9.27734375,-29.296875,-26.85546875,85.9375,0.0,0,0
1766589209.404323,1766589209.3270793,-17.578125,-28.80859375,-31.25,-20.99609375,0.0,0,0
1766589209.404365,1766589209.330976,-62.01171875,-36.62109375,-46.875,-159.66796875,0.0,0,0
1766589209.404406,1766589209.3348725,-63.4765625,-30.2734375,-38.57421875,-149.4140625,0.0,0,0
1766589209.4045,1766589209.338769,-8.7890625,-26.3671875,-31.73828125,-2.9296875,0.0,0,0
1766589209.4045389,1766589209.3426657,27.34375,-25.87890625,-26.3671875,89.35546875,0.0,0,0
1766589209.404577,1766589209.3465621,5.37109375,-24.90234375,-22.4609375,18.5546875,0.0,0,0
1766589209.404614,1766589209.3504589,-41.9921875,-32.2265625,-40.0390625,-111.328125,0.0,0,0
1766589209.404664,1766589209.3543553,-64.94140625,-30.76171875,-44.921875,-146.484375,0.0,0,0
1766589209.4047098,1766589209.358252,-24.90234375,-30.2734375,-34.66796875,-13.18359375,0.0,0,0
1766589209.404746,1766589209.3621485,11.71875,-25.87890625,-25.390625,93.75,0.0,0,0
1766589209.4048011,1766589209.3660452,-6.8359375,-24.90234375,-22.4609375,41.015625,0.0,0,0
1766589209.433694,1766589209.3700273,-66.89453125,-34.66796875,-28.80859375,-109.375,0.0,0,0
1766589209.433872,1766589209.373924,-84.9609375,-32.2265625,-28.80859375,-153.80859375,0.0,0,0
1766589209.433934,1766589209.3778205,-36.1328125,-27.34375,-30.76171875,-18.06640625,0.0,0,0
1766589209.43407,1766589209.3817172,9.765625,-24.4140625,-26.85546875,91.796875,0.0,0,0
1766589209.434193,1766589209.3856137,-4.8828125,-24.90234375,-26.3671875,59.5703125,0.0,0,0
1766589209.434249,1766589209.3895104,-63.96484375,-27.34375,-33.69140625,-74.70703125,0.0,0,0
1766589209.4343019,1766589209.3934069,-77.1484375,-25.390625,-37.59765625,-145.99609375,0.0,0,0
1766589209.434436,1766589209.3973036,-45.41015625,-29.78515625,-42.96875,-60.546875,0.0,0,0
1766589209.434597,1766589209.4012,-7.8125,-29.296875,-37.109375,71.77734375,0.0,0,0
1766589209.4347641,1766589209.4050968,-1.953125,-25.390625,-25.87890625,94.7265625,0.0,0,0
1766589209.4348469,1766589209.4089932,-53.22265625,-30.2734375,-27.34375,-48.828125,0.0,0,0
1766589209.434905,1766589209.41289,-80.56640625,-27.83203125,-26.85546875,-132.8125,0.0,0,0
1766589209.4949079,1766589209.4168673,-48.828125,-23.92578125,-27.34375,-42.48046875,0.0,0,0
1766589209.495028,1766589209.4207637,-2.44140625,-28.80859375,-31.25,76.171875,0.0,0,0
1766589209.495074,1766589209.4246604,8.30078125,-27.83203125,-23.4375,100.5859375,0.0,0,0
1766589209.495114,1766589209.4285572,-50.78125,-26.3671875,-27.34375,-42.96875,0.0,0,0
1766589209.4952052,1766589209.4324536,-96.6796875,-28.80859375,-32.71484375,-135.25390625,0.0,0,0
1766589209.495251,1766589209.4363503,-51.7578125,-21.484375,-23.92578125,-41.9921875,0.0,0,0
1766589209.49529,1766589209.4402468,6.8359375,-15.13671875,-29.296875,79.1015625,0.0,0,0
1766589209.495328,1766589209.4441435,10.7421875,-15.13671875,-24.4140625,122.0703125,0.0,0,0
1766589209.4953659,1766589209.44804,-44.43359375,-28.80859375,-30.2734375,-22.4609375,0.0,0,0
1766589209.495426,1766589209.4519367,-69.3359375,-32.71484375,-34.66796875,-146.97265625,0.0,0,0
1766589209.495467,1766589209.4558332,-41.9921875,-31.73828125,-25.390625,-83.49609375,0.0,0,0
1766589209.4955049,1766589209.45973,-12.20703125,-33.203125,-18.06640625,49.8046875,0.0,0,0
1766589209.539815,1766589209.4637651,11.71875,-27.34375,-11.23046875,110.83984375,0.0,0,0
1766589209.539933,1766589209.4676616,-24.4140625,-23.4375,-22.4609375,-5.859375,0.0,0,0
1766589209.539976,1766589209.4715583,-91.796875,-24.4140625,-26.85546875,-130.859375,0.0,0,0
1766589209.5400162,1766589209.4754548,-80.56640625,-26.3671875,-27.83203125,-106.4453125,0.0,0,0
1766589209.5400581,1766589209.4793515,-12.6953125,-26.85546875,-24.90234375,19.53125,0.0,0,0
1766589209.540096,1766589209.4832482,11.23046875,-29.78515625,-19.04296875,78.61328125,0.0,0,0
1766589209.5401332,1766589209.4871447,-30.76171875,-33.203125,-31.73828125,-33.203125,0.0,0,0
1766589209.54017,1766589209.4910414,-78.125,-38.0859375,-38.57421875,-144.53125,0.0,0,0
1766589209.5402071,1766589209.4949381,-72.265625,-39.0625,-33.69140625,-132.8125,0.0,0,0
1766589209.5402439,1766589209.4988346,-14.16015625,-29.296875,-22.4609375,22.4609375,0.0,0,0
1766589209.540282,1766589209.5027313,20.99609375,-24.4140625,-22.94921875,105.46875,0.0,0,0
1766589209.540319,1766589209.5066278,-17.578125,-35.15625,-33.69140625,4.39453125,0.0,0,0
1766589209.583429,1766589209.5106585,-74.70703125,-40.0390625,-40.0390625,-125.48828125,0.0,0,0
1766589209.5835478,1766589209.514555,-73.2421875,-37.109375,-41.015625,-158.203125,0.0,0,0
1766589209.583582,1766589209.5184517,-11.71875,-27.34375,-24.4140625,-10.25390625,0.0,0,0
1766589209.584963,1766589209.5223484,22.4609375,-30.2734375,-21.97265625,67.3828125,0.0,0,0
1766589209.585012,1766589209.526245,-8.7890625,-35.15625,-28.3203125,-18.5546875,0.0,0,0
1766589209.585043,1766589209.5301416,-67.87109375,-32.71484375,-30.2734375,-160.15625,0.0,0,0
1766589209.585074,1766589209.5340383,-89.35546875,-35.64453125,-35.64453125,-239.2578125,0.0,0,0
1766589209.585116,1766589209.537935,-38.57421875,-38.0859375,-33.69140625,-104.4921875,0.0,0,0
1766589209.585153,1766589209.5418315,5.859375,-38.57421875,-34.66796875,20.01953125,0.0,0,0
1766589209.585182,1766589209.5457282,-12.20703125,-37.59765625,-33.203125,-29.78515625,0.0,0,0
1766589209.5852108,1766589209.549625,-46.38671875,-28.3203125,-28.3203125,-152.34375,0.0,0,0
1766589209.5852401,1766589209.5535214,-78.125,-27.34375,-32.2265625,-204.58984375,0.0,0,0
1766589209.6283789,1766589209.5575411,-50.78125,-28.80859375,-24.90234375,-90.33203125,0.0,0,0
1766589209.6284611,1766589209.5614378,5.859375,-32.2265625,-24.90234375,24.4140625,0.0,0,0
1766589209.628489,1766589209.5653346,-7.32421875,-38.0859375,-40.52734375,-10.7421875,0.0,0,0
1766589209.628513,1766589209.5692313,-61.03515625,-37.59765625,-42.96875,-116.69921875,0.0,0,0
1766589209.6285381,1766589209.5731277,-81.54296875,-39.0625,-41.50390625,-163.0859375,0.0,0,0
1766589209.628563,1766589209.5770245,-43.9453125,-33.69140625,-28.80859375,-51.7578125,0.0,0,0
1766589209.628587,1766589209.5809212,9.27734375,-26.3671875,-21.484375,108.3984375,0.0,0,0
1766589209.628611,1766589209.584818,7.32421875,-29.296875,-31.73828125,101.07421875,0.0,0,0
1766589209.628636,1766589209.5887146,-45.41015625,-33.69140625,-39.0625,-36.62109375,0.0,0,0
1766589209.62866,1766589209.592611,-73.2421875,-31.25,-39.0625,-120.60546875,0.0,0,0
1766589209.628684,1766589209.5965078,-45.41015625,-26.3671875,-34.1796875,-47.8515625,0.0,0,0
1766589209.6287072,1766589209.6004045,5.859375,-25.390625,-33.203125,82.03125,0.0,0,0
1766589209.675085,1766589209.6044157,15.625,-28.80859375,-30.76171875,99.12109375,0.0,0,0
1766589209.675204,1766589209.6083121,-30.2734375,-31.25,-35.64453125,-51.26953125,0.0,0,0
1766589209.675236,1766589209.6122088,-64.94140625,-27.83203125,-37.109375,-138.671875,0.0,0,0
1766589209.6752682,1766589209.6161056,-53.22265625,-23.92578125,-30.76171875,-57.6171875,0.0,0,0
1766589209.6752992,1766589209.6200023,2.44140625,-19.04296875,-29.78515625,83.0078125,0.0,0,0
1766589209.675328,1766589209.623899,27.83203125,-20.99609375,-24.4140625,120.1171875,0.0,0,0
1766589209.675358,1766589209.6277957,-23.92578125,-20.99609375,-28.80859375,-15.13671875,0.0,0,0
1766589209.675387,1766589209.6316922,-76.171875,-26.85546875,-42.96875,-129.39453125,0.0,0,0
1766589209.675416,1766589209.635589,-58.10546875,-29.296875,-31.25,-75.1953125,0.0,0,0
1766589209.675444,1766589209.6394856,7.32421875,-19.53125,-11.23046875,103.02734375,0.0,0,0
1766589209.675473,1766589209.6433823,29.78515625,-16.11328125,-10.25390625,134.27734375,0.0,0,0
1766589209.6755042,1766589209.647279,-18.06640625,-20.01953125,-18.06640625,-34.1796875,0.0,0,0
1766589209.7188601,1766589209.6512823,-66.40625,-26.85546875,-25.87890625,-134.765625,0.0,0,0
1766589209.7189791,1766589209.6551788,-58.59375,-25.87890625,-27.83203125,-102.5390625,0.0,0,0
1766589209.719008,1766589209.6590755,-7.8125,-20.99609375,-26.85546875,36.1328125,0.0,0,0
1766589209.7190342,1766589209.6629722,22.94921875,-19.04296875,-19.53125,87.890625,0.0,0,0
1766589209.71906,1766589209.666869,-5.859375,-24.4140625,-26.85546875,-19.04296875,0.0,0,0
1766589209.719085,1766589209.6707656,-55.17578125,-21.484375,-27.34375,-117.1875,0.0,0,0
1766589209.719109,1766589209.6746624,-71.2890625,-17.578125,-34.1796875,-141.11328125,0.0,0,0
1766589209.719133,1766589209.678559,-31.25,-31.73828125,-44.43359375,-21.97265625,0.0,0,0
1766589209.719189,1766589209.6824558,0.48828125,-38.57421875,-32.71484375,79.58984375,0.0,0,0
1766589209.7192152,1766589209.6863525,-23.4375,-28.80859375,-23.92578125,19.53125,0.0,0,0
1766589209.719239,1766589209.6902492,-72.75390625,-28.80859375,-34.66796875,-134.27734375,0.0,0,0
1766589209.719265,1766589209.6941457,-94.23828125,-35.15625,-48.828125,-192.87109375,0.0,0,0
1766589209.7780962,1766589209.6982095,-40.0390625,-29.296875,-36.1328125,-39.55078125,0.0,0,0
1766589209.778176,1766589209.7021062,7.8125,-24.4140625,-22.94921875,87.40234375,0.0,0,0
1766589209.778201,1766589209.706003,-19.53125,-32.2265625,-27.83203125,5.37109375,0.0,0,0
1766589209.7782242,1766589209.7098997,-73.73046875,-35.15625,-35.64453125,-160.15625,0.0,0,0
1766589209.778244,1766589209.7137964,-97.16796875,-34.66796875,-35.15625,-214.84375,0.0,0,0
1766589209.778263,1766589209.717693,-59.08203125,-31.73828125,-26.85546875,-53.22265625,0.0,0,0
1766589209.778311,1766589209.7215898,0.9765625,-20.99609375,-21.484375,92.28515625,0.0,0,0
1766589209.778364,1766589209.7254865,-11.23046875,-30.2734375,-32.2265625,24.90234375,0.0,0,0
1766589209.778389,1766589209.7293832,-76.171875,-39.0625,-43.45703125,-136.23046875,0.0,0,0
1766589209.77841,1766589209.73328,-98.14453125,-31.73828125,-46.875,-203.61328125,0.0,0,0
1766589209.77843,1766589209.7371764,-60.05859375,-35.15625,-41.9921875,-102.05078125,0.0,0,0
1766589209.7784488,1766589209.7410731,-3.90625,-35.64453125,-28.80859375,39.0625,0.0,0,0
1766589209.80955,1766589209.7450626,-1.46484375,-31.73828125,-27.83203125,41.015625,0.0,0,0
1766589209.8096042,1766589209.7489593,-58.59375,-37.109375,-31.73828125,-120.1171875,0.0,0,0
1766589209.809623,1766589209.752856,-91.796875,-37.59765625,-36.1328125,-212.40234375,0.0,0,0
1766589209.809639,1766589209.756753,-63.96484375,-28.80859375,-37.109375,-108.3984375,0.0,0,0
1766589209.809654,1766589209.7606497,-16.6015625,-27.83203125,-30.2734375,28.80859375,0.0,0,0
1766589209.80967,1766589209.7645464,-2.9296875,-26.3671875,-29.78515625,53.7109375,0.0,0,0
1766589209.809688,1766589209.768443,-54.6875,-26.85546875,-42.96875,-84.47265625,0.0,0,0
1766589209.8097029,1766589209.7723398,-95.703125,-32.71484375,-43.45703125,-168.9453125,0.0,0,0
1766589209.809719,1766589209.7762365,-67.87109375,-33.203125,-36.1328125,-91.30859375,0.0,0,0
1766589209.8097339,1766589209.7801332,-12.20703125,-26.85546875,-35.64453125,31.25,0.0,0,0
1766589209.809749,1766589209.78403,0.0,-27.34375,-33.203125,72.75390625,0.0,0,0
1766589209.8097641,1766589209.7879267,-45.8984375,-35.64453125,-40.0390625,-72.265625,0.0,0,0
1766589209.867572,1766589209.791899,-76.66015625,-28.80859375,-39.0625,-164.0625,0.0,0,0
1766589209.8676522,1766589209.7957957,-62.01171875,-29.296875,-37.109375,-108.88671875,0.0,0,0
1766589209.867682,1766589209.7996924,-1.953125,-25.87890625,-26.85546875,38.57421875,0.0,0,0
1766589209.867708,1766589209.803589,21.484375,-19.04296875,-19.04296875,100.09765625,0.0,0,0
1766589209.867732,1766589209.8074858,-31.73828125,-29.296875,-26.85546875,-31.73828125,0.0,0,0
1766589209.8677561,1766589209.8113825,-69.82421875,-25.390625,-28.80859375,-131.8359375,0.0,0,0
1766589209.8677802,1766589209.8152792,-62.5,-25.87890625,-35.64453125,-127.44140625,0.0,0,0
1766589209.8678029,1766589209.819176,-1.953125,-31.25,-41.015625,-8.30078125,0.0,0,0
1766589209.867828,1766589209.8230727,36.1328125,-33.203125,-42.96875,54.19921875,0.0,0,0
1766589209.867852,1766589209.8269694,-9.765625,-35.15625,-37.59765625,-46.875,0.0,0,0
1766589209.867875,1766589209.8308663,-61.5234375,-29.78515625,-32.71484375,-145.01953125,0.0,0,0
1766589209.867899,1766589209.834763,-72.265625,-36.62109375,-41.9921875,-155.76171875,0.0,0,0
1766589209.913662,1766589209.8387997,-22.94921875,-48.33984375,-38.0859375,-3.41796875,0.0,0,0
1766589209.913758,1766589209.8426964,12.6953125,-40.52734375,-24.4140625,111.81640625,0.0,0,0
1766589209.9138172,1766589209.8465934,-22.4609375,-32.2265625,-23.4375,25.390625,0.0,0,0
1766589209.91385,1766589209.85049,-64.453125,-32.2265625,-29.296875,-105.95703125,0.0,0,0
1766589209.913877,1766589209.8543868,-73.2421875,-37.109375,-34.66796875,-153.80859375,0.0,0,0
1766589209.913903,1766589209.8582835,-17.08984375,-39.0625,-28.3203125,16.6015625,0.0,0,0
1766589209.913928,1766589209.8621802,16.11328125,-40.0390625,-30.76171875,137.20703125,0.0,0,0
1766589209.914186,1766589209.866077,-4.8828125,-40.52734375,-31.73828125,53.7109375,0.0,0,0
1766589209.914214,1766589209.869974,-53.22265625,-37.59765625,-34.1796875,-79.1015625,0.0,0,0
1766589209.914238,1766589209.8738706,-74.21875,-34.66796875,-39.0625,-125.9765625,0.0,0,0
1766589209.914262,1766589209.8777673,-13.671875,-31.73828125,-30.76171875,15.625,0.0,0,0
1766589209.9142861,1766589209.881664,37.59765625,-25.87890625,-21.484375,123.046875,0.0,0,0
1766589209.958946,1766589209.8856885,13.671875,-21.484375,-23.92578125,74.70703125,0.0,0,0
1766589209.9590862,1766589209.8895853,-43.9453125,-25.390625,-31.73828125,-75.68359375,0.0,0,0
1766589209.959146,1766589209.8934822,-53.22265625,-29.78515625,-30.76171875,-145.99609375,0.0,0,0
1766589209.959201,1766589209.897379,-16.6015625,-30.76171875,-28.80859375,-25.390625,0.0,0,0
1766589209.959253,1766589209.9012756,26.85546875,-29.78515625,-22.4609375,109.375,0.0,0,0
1766589209.959307,1766589209.9051723,27.83203125,-20.99609375,-17.578125,104.98046875,0.0,0,0
1766589209.959359,1766589209.9090693,-40.52734375,-26.3671875,-29.78515625,-37.59765625,0.0,0,0
1766589209.95941,1766589209.912966,-69.3359375,-27.83203125,-30.2734375,-100.09765625,0.0,0,0
1766589209.9594612,1766589209.9168627,-35.15625,-26.85546875,-25.390625,-10.25390625,0.0,0,0
1766589209.959521,1766589209.9207594,5.859375,-31.25,-28.3203125,81.54296875,0.0,0,0
1766589209.95958,1766589209.9246564,17.08984375,-22.94921875,-17.578125,85.9375,0.0,0,0
1766589209.95963,1766589209.928553,-26.3671875,-22.94921875,-21.97265625,-47.36328125,0.0,0,0
1766589210.003618,1766589209.932568,-63.4765625,-22.94921875,-31.73828125,-132.32421875,0.0,0,0
1766589210.003745,1766589209.936465,-40.0390625,-21.97265625,-28.3203125,-46.38671875,0.0,0,0
1766589210.003802,1766589209.9403617,7.8125,-24.4140625,-23.4375,84.47265625,0.0,0,0
1766589210.003854,1766589209.9442585,17.08984375,-19.53125,-18.5546875,112.3046875,0.0,0,0
1766589210.003906,1766589209.9481552,-37.59765625,-23.92578125,-34.1796875,-64.94140625,0.0,0,0
1766589210.003958,1766589209.952052,-79.58984375,-29.78515625,-35.15625,-173.828125,0.0,0,0
1766589210.004009,1766589209.9559488,-59.5703125,-30.76171875,-28.3203125,-111.328125,0.0,0,0
1766589210.0040598,1766589209.9598455,-2.9296875,-27.34375,-28.80859375,25.87890625,0.0,0,0
1766589210.0041118,1766589209.9637425,8.30078125,-33.203125,-28.80859375,76.171875,0.0,0,0
1766589210.004163,1766589209.9676392,-39.0625,-35.64453125,-25.390625,-53.22265625,0.0,0,0
1766589210.004212,1766589209.971536,-71.2890625,-26.85546875,-28.3203125,-162.109375,0.0,0,0
1766589210.004276,1766589209.9754329,-64.453125,-31.25,-32.2265625,-140.625,0.0,0,0
1766589210.050237,1766589209.9794495,-8.30078125,-31.73828125,-25.87890625,-9.765625,0.0,0,0
1766589210.050368,1766589209.9833462,22.94921875,-31.25,-21.97265625,46.875,0.0,0,0
1766589210.050425,1766589209.987243,-21.484375,-32.2265625,-22.4609375,-70.3125,0.0,0,0
1766589210.050477,1766589209.99114,-76.66015625,-32.71484375,-22.4609375,-171.38671875,0.0,0,0
1766589210.05053,1766589209.9950366,-74.21875,-30.76171875,-27.83203125,-151.3671875,0.0,0,0
1766589210.050582,1766589209.9989333,-17.08984375,-28.80859375,-29.296875,-12.20703125,0.0,0,0
1766589210.050633,1766589210.0028303,17.08984375,-29.296875,-24.90234375,70.80078125,0.0,0,0
1766589210.0506828,1766589210.006727,-19.04296875,-41.015625,-28.3203125,-41.50390625,0.0,0,0
1766589210.050733,1766589210.0106237,-63.96484375,-49.8046875,-25.390625,-165.0390625,0.0,0,0
1766589210.050787,1766589210.0145206,-62.5,-42.96875,-24.90234375,-173.33984375,0.0,0,0
1766589210.050905,1766589210.0184174,-9.765625,-34.66796875,-20.5078125,-24.90234375,0.0,0,0
1766589210.050972,1766589210.0223143,33.203125,-35.15625,-15.625,75.1953125,0.0,0,0
1766589210.094198,1766589210.0263152,2.44140625,-37.59765625,-22.4609375,-10.7421875,0.0,0,0
1766589210.094333,1766589210.030212,-76.171875,-39.55078125,-25.87890625,-179.6875,0.0,0,0
1766589210.094391,1766589210.0341086,-97.65625,-40.0390625,-23.4375,-236.328125,0.0,0,0
1766589210.094445,1766589210.0380056,-35.15625,-35.15625,-18.06640625,-62.98828125,0.0,0,0
1766589210.094496,1766589210.0419023,-1.953125,-30.2734375,-13.18359375,57.6171875,0.0,0,0
1766589210.094548,1766589210.0457993,-17.08984375,-23.92578125,-13.671875,14.6484375,0.0,0,0
1766589210.0946,1766589210.049696,-70.3125,-22.94921875,-20.99609375,-133.7890625,0.0,0,0
1766589210.09465,1766589210.053593,-106.93359375,-37.109375,-30.76171875,-213.37890625,0.0,0,0
1766589210.094701,1766589210.0574896,-47.8515625,-40.52734375,-25.390625,-62.5,0.0,0,0
1766589210.094753,1766589210.0613863,12.20703125,-29.78515625,-18.5546875,68.84765625,0.0,0,0
1766589210.094811,1766589210.0652833,-5.37109375,-26.85546875,-18.06640625,35.15625,0.0,0,0
1766589210.094861,1766589210.06918,-56.15234375,-31.73828125,-25.390625,-110.83984375,0.0,0,0
1766589210.1387498,1766589210.0731683,-76.66015625,-38.57421875,-35.64453125,-171.38671875,0.0,0,0
1766589210.138887,1766589210.0770652,-38.57421875,-33.203125,-29.296875,-30.2734375,0.0,0,0
1766589210.138944,1766589210.080962,3.41796875,-27.34375,-24.90234375,77.1484375,0.0,0,0
1766589210.138997,1766589210.084859,7.8125,-22.4609375,-26.3671875,47.36328125,0.0,0,0
1766589210.139049,1766589210.0887556,-43.45703125,-29.296875,-35.64453125,-101.07421875,0.0,0,0
1766589210.1390998,1766589210.0926526,-92.28515625,-39.0625,-42.96875,-194.3359375,0.0,0,0
1766589210.139151,1766589210.0965493,-56.15234375,-33.203125,-33.69140625,-78.61328125,0.0,0,0
1766589210.139202,1766589210.1004462,4.39453125,-34.66796875,-27.83203125,65.4296875,0.0,0,0
1766589210.139253,1766589210.104343,12.6953125,-35.15625,-28.80859375,81.54296875,0.0,0,0
1766589210.139303,1766589210.10824,-33.69140625,-34.1796875,-30.76171875,-44.43359375,0.0,0,0
1766589210.139353,1766589210.1121366,-74.21875,-38.57421875,-37.59765625,-136.23046875,0.0,0,0
1766589210.139404,1766589210.1160333,-41.50390625,-30.76171875,-32.71484375,-54.19921875,0.0,0,0
1766589210.1832168,1766589210.120013,17.578125,-20.01953125,-21.484375,74.70703125,0.0,0,0
1766589210.1833642,1766589210.1239097,31.73828125,-22.94921875,-20.99609375,108.88671875,0.0,0,0
1766589210.183429,1766589210.1278067,-17.578125,-32.2265625,-27.83203125,-13.671875,0.0,0,0
1766589210.183483,1766589210.1317034,-55.17578125,-34.66796875,-33.203125,-123.046875,0.0,0,0
1766589210.183536,1766589210.1356003,-39.0625,-33.69140625,-32.71484375,-101.5625,0.0,0,0
1766589210.183588,1766589210.139497,17.578125,-25.87890625,-22.94921875,58.10546875,0.0,0,0
1766589210.1836421,1766589210.143394,48.33984375,-23.92578125,-17.578125,138.18359375,0.0,0,0
1766589210.1836941,1766589210.1472907,-3.90625,-33.203125,-30.2734375,-3.41796875,0.0,0,0
1766589210.1837518,1766589210.1511877,-52.734375,-28.80859375,-39.0625,-104.00390625,0.0,0,0
1766589210.1838112,1766589210.1550846,-58.10546875,-24.4140625,-37.109375,-97.16796875,0.0,0,0
1766589210.183863,1766589210.1589813,-1.953125,-23.92578125,-21.97265625,49.31640625,0.0,0,0
1766589210.183915,1766589210.1628783,37.109375,-19.04296875,-19.04296875,129.39453125,0.0,0,0
1766589210.24276,1766589210.1668491,1.953125,-20.5078125,-29.296875,7.8125,0.0,0,0
1766589210.242914,1766589210.170746,-52.24609375,-26.85546875,-34.66796875,-126.46484375,0.0,0,0
1766589210.243021,1766589210.1746428,-62.01171875,-28.80859375,-38.57421875,-148.92578125,0.0,0,0
1766589210.243079,1766589210.1785398,-0.48828125,-25.87890625,-27.34375,19.04296875,0.0,0,0
1766589210.2431328,1766589210.1824367,34.1796875,-23.92578125,-20.5078125,126.46484375,0.0,0,0
1766589210.243186,1766589210.1863334,-14.6484375,-25.87890625,-24.90234375,18.5546875,0.0,0,0
1766589210.243238,1766589210.1902304,-73.2421875,-34.66796875,-34.66796875,-130.37109375,0.0,0,0
1766589210.2432902,1766589210.194127,-81.54296875,-36.62109375,-41.50390625,-173.33984375,0.0,0,0
1766589210.24334,1766589210.198024,-27.83203125,-32.2265625,-38.0859375,-28.3203125,0.0,0,0
1766589210.243396,1766589210.2019207,9.765625,-42.96875,-33.203125,83.49609375,0.0,0,0
1766589210.243455,1766589210.2058177,-20.01953125,-49.31640625,-37.109375,21.97265625,0.0,0,0
1766589210.243836,1766589210.2097147,-69.3359375,-45.41015625,-40.52734375,-96.19140625,0.0,0,0
1766589210.288588,1766589210.2137463,-86.9140625,-40.0390625,-38.57421875,-136.23046875,0.0,0,0
1766589210.288702,1766589210.217643,-39.55078125,-34.1796875,-34.1796875,-37.109375,0.0,0,0
1766589210.2887611,1766589210.22154,1.46484375,-34.1796875,-28.80859375,60.05859375,0.0,0,0
1766589210.288815,1766589210.225437,-15.625,-33.203125,-26.3671875,38.57421875,0.0,0,0
1766589210.2888682,1766589210.2293336,-62.01171875,-30.76171875,-34.1796875,-102.5390625,0.0,0,0
1766589210.2889202,1766589210.2332306,-79.58984375,-24.4140625,-29.296875,-140.625,0.0,0,0
1766589210.28897,1766589210.2371275,-48.33984375,-29.78515625,-29.78515625,-36.62109375,0.0,0,0
1766589210.289021,1766589210.2410243,-11.23046875,-36.62109375,-39.0625,33.203125,0.0,0,0
1766589210.289071,1766589210.2449212,-6.34765625,-34.66796875,-32.2265625,33.69140625,0.0,0,0
1766589210.289121,1766589210.248818,-53.22265625,-34.1796875,-26.85546875,-90.8203125,0.0,0,0
1766589210.289171,1766589210.2527149,-79.58984375,-31.25,-22.4609375,-152.83203125,0.0,0,0
1766589210.28922,1766589210.2566118,-47.36328125,-31.73828125,-19.04296875,-50.29296875,0.0,0,0
1766589210.333569,1766589210.260635,0.0,-27.83203125,-20.5078125,69.3359375,0.0,0,0
1766589210.333684,1766589210.2645319,11.23046875,-22.4609375,-22.4609375,87.40234375,0.0,0,0
1766589210.333737,1766589210.2684286,-43.9453125,-23.4375,-27.34375,-63.96484375,0.0,0,0
1766589210.333788,1766589210.2723255,-83.0078125,-29.78515625,-27.83203125,-156.73828125,0.0,0,0
1766589210.333842,1766589210.2762225,-54.19921875,-26.3671875,-29.296875,-74.21875,0.0,0,0
1766589210.333893,1766589210.2801192,0.9765625,-15.625,-25.87890625,63.96484375,0.0,0,0
1766589210.333945,1766589210.2840161,7.32421875,-14.16015625,-24.4140625,98.6328125,0.0,0,0
1766589210.333996,1766589210.287913,-58.10546875,-25.390625,-38.57421875,-49.8046875,0.0,0,0
1766589210.334046,1766589210.29181,-98.6328125,-36.1328125,-44.921875,-148.4375,0.0,0,0
1766589210.334096,1766589210.2957067,-66.89453125,-35.15625,-32.2265625,-86.42578125,0.0,0,0
1766589210.334146,1766589210.2996037,-8.7890625,-25.390625,-20.5078125,48.828125,0.0,0,0
1766589210.3342028,1766589210.3035007,13.671875,-26.3671875,-24.4140625,104.4921875,0.0,0,0
1766589210.379762,1766589210.307519,-38.57421875,-32.2265625,-28.3203125,-18.5546875,0.0,0,0
1766589210.3799,1766589210.311416,-84.9609375,-28.3203125,-29.78515625,-132.32421875,0.0,0,0
1766589210.37996,1766589210.3153126,-56.640625,-20.01953125,-27.34375,-110.83984375,0.0,0,0
1766589210.3800151,1766589210.3192096,0.48828125,-18.5546875,-17.08984375,21.484375,0.0,0,0
1766589210.380069,1766589210.3231065,15.625,-21.484375,-16.11328125,76.171875,0.0,0,0
1766589210.380123,1766589210.3270035,-26.85546875,-19.53125,-21.484375,-40.52734375,0.0,0,0
1766589210.3801742,1766589210.3309004,-75.68359375,-20.99609375,-26.3671875,-139.6484375,0.0,0,0
1766589210.380227,1766589210.3347971,-77.63671875,-31.25,-34.1796875,-140.625,0.0,0,0
1766589210.380278,1766589210.338694,-20.01953125,-29.78515625,-27.34375,20.01953125,0.0,0,0
1766589210.380328,1766589210.342591,10.7421875,-22.4609375,-19.04296875,120.1171875,0.0,0,0
1766589210.380379,1766589210.346488,-24.90234375,-18.5546875,-27.34375,3.90625,0.0,0,0
1766589210.3804312,1766589210.3503847,-72.265625,-19.04296875,-33.203125,-123.046875,0.0,0,0
1766589210.423239,1766589210.3543897,-84.9609375,-20.99609375,-35.64453125,-140.13671875,0.0,0,0
1766589210.423372,1766589210.3582866,-39.0625,-24.4140625,-34.1796875,-17.578125,0.0,0,0
1766589210.423429,1766589210.3621836,0.9765625,-21.97265625,-31.25,87.890625,0.0,0,0
1766589210.423485,1766589210.3660805,-23.4375,-20.99609375,-39.55078125,18.5546875,0.0,0,0
1766589210.423546,1766589210.3699775,-78.61328125,-26.3671875,-49.31640625,-112.3046875,0.0,0,0
1766589210.423597,1766589210.3738742,-83.49609375,-25.390625,-44.43359375,-153.80859375,0.0,0,0
1766589210.423648,1766589210.3777711,-32.2265625,-20.99609375,-33.69140625,-18.06640625,0.0,0,0
1766589210.423698,1766589210.381668,5.859375,-27.34375,-33.203125,80.56640625,0.0,0,0
1766589210.4237492,1766589210.385565,-11.71875,-45.8984375,-36.62109375,13.671875,0.0,0,0
1766589210.423799,1766589210.389462,-65.4296875,-43.45703125,-41.015625,-130.37109375,0.0,0,0
1766589210.4238641,1766589210.393359,-78.61328125,-30.2734375,-35.15625,-166.015625,0.0,0,0
1766589210.4239218,1766589210.3972557,-31.73828125,-28.80859375,-21.484375,-9.27734375,0.0,0,0
1766589210.468787,1766589210.4012518,15.13671875,-31.25,-14.6484375,99.609375,0.0,0,0
1766589210.4689221,1766589210.4051485,14.16015625,-25.87890625,-18.06640625,79.1015625,0.0,0,0
1766589210.468983,1766589210.4090455,-43.45703125,-24.90234375,-28.3203125,-64.94140625,0.0,0,0
1766589210.469038,1766589210.4129424,-77.63671875,-28.80859375,-26.3671875,-148.4375,0.0,0,0
1766589210.4690912,1766589210.4168394,-42.48046875,-25.87890625,-20.5078125,-46.875,0.0,0,0
1766589210.469142,1766589210.4207363,6.8359375,-24.4140625,-17.578125,72.265625,0.0,0,0
1766589210.469195,1766589210.4246333,10.7421875,-27.34375,-24.4140625,56.15234375,0.0,0,0
1766589210.469245,1766589210.4285302,-51.26953125,-41.015625,-35.15625,-97.16796875,0.0,0,0
1766589210.4693031,1766589210.4324272,-84.47265625,-41.9921875,-31.25,-162.109375,0.0,0,0
1766589210.4693592,1766589210.4363241,-50.78125,-31.25,-25.390625,-71.77734375,0.0,0,0
1766589210.469419,1766589210.4402208,-0.9765625,-35.15625,-24.90234375,52.24609375,0.0,0,0
1766589210.469475,1766589210.4441178,13.671875,-36.1328125,-23.92578125,83.984375,0.0,0,0
1766589210.531604,1766589210.44813,-35.64453125,-35.15625,-35.64453125,-79.1015625,0.0,0,0
1766589210.5320508,1766589210.4520268,-77.1484375,-34.1796875,-43.45703125,-197.265625,0.0,0,0
1766589210.532199,1766589210.4559238,-57.6171875,-31.73828125,-34.66796875,-116.2109375,0.0,0,0
1766589210.53235,1766589210.4598207,-0.48828125,-28.3203125,-22.4609375,15.625,0.0,0,0
1766589210.532792,1766589210.4637177,11.71875,-29.78515625,-18.5546875,22.94921875,0.0,0,0
1766589210.532919,1766589210.4676147,-32.71484375,-28.3203125,-25.87890625,-109.375,0.0,0,0
1766589210.53296,1766589210.4715116,-76.66015625,-27.83203125,-31.25,-180.6640625,0.0,0,0
1766589210.533022,1766589210.4754086,-71.2890625,-32.71484375,-34.1796875,-128.90625,0.0,0,0
1766589210.5330791,1766589210.4793055,-16.6015625,-35.15625,-31.25,3.41796875,0.0,0,0
1766589210.533107,1766589210.4832025,3.41796875,-35.64453125,-25.87890625,56.15234375,0.0,0,0
1766589210.533133,1766589210.4870994,-36.62109375,-33.203125,-29.296875,-54.6875,0.0,0,0
1766589210.5331578,1766589210.4909964,-71.77734375,-34.66796875,-37.59765625,-185.546875,0.0,0,0
1766589210.5584488,1766589210.4949768,-57.6171875,-34.1796875,-31.25,-187.5,0.0,0,0
1766589210.5585291,1766589210.4988737,-8.7890625,-36.1328125,-26.85546875,-49.31640625,0.0,0,0
1766589210.558697,1766589210.5027707,20.5078125,-36.1328125,-27.34375,42.48046875,0.0,0,0
1766589210.558859,1766589210.5066676,-13.18359375,-34.1796875,-33.203125,-52.734375,0.0,0,0
1766589210.558987,1766589210.5105646,-67.3828125,-36.62109375,-40.0390625,-183.10546875,0.0,0,0
1766589210.559102,1766589210.5144615,-60.05859375,-26.3671875,-30.2734375,-169.921875,0.0,0,0
1766589210.5591512,1766589210.5183585,-7.32421875,-28.3203125,-30.2734375,-40.0390625,0.0,0,0
1766589210.559366,1766589210.5222554,15.13671875,-42.48046875,-36.1328125,14.16015625,0.0,0,0
1766589210.559781,1766589210.5261524,-12.6953125,-39.0625,-36.62109375,-70.3125,0.0,0,0
1766589210.559811,1766589210.5300493,-71.2890625,-40.0390625,-37.109375,-182.6171875,0.0,0,0
1766589210.559862,1766589210.5339463,-89.35546875,-38.0859375,-39.0625,-193.84765625,0.0,0,0
1766589210.5600371,1766589210.5378432,-34.66796875,-34.66796875,-31.25,-24.4140625,0.0,0,0
1766589210.6342242,1766589210.5419555,6.34765625,-37.59765625,-24.90234375,81.0546875,0.0,0,0
1766589210.634379,1766589210.5458524,-17.08984375,-37.59765625,-25.390625,4.8828125,0.0,0,0
1766589210.634572,1766589210.5497494,-68.359375,-31.73828125,-29.78515625,-135.25390625,0.0,0,0
1766589210.634648,1766589210.5536463,-92.7734375,-30.2734375,-39.55078125,-204.1015625,0.0,0,0
1766589210.634861,1766589210.5575433,-51.7578125,-36.62109375,-36.1328125,-62.01171875,0.0,0,0
1766589210.6348958,1766589210.5614402,0.0,-30.2734375,-21.484375,80.078125,0.0,0,0
1766589210.6349251,1766589210.5653372,-6.8359375,-31.25,-21.484375,37.59765625,0.0,0,0
1766589210.634954,1766589210.5692344,-66.40625,-45.8984375,-39.0625,-120.1171875,0.0,0,0
1766589210.6349828,1766589210.5731313,-91.30859375,-43.45703125,-42.96875,-183.10546875,0.0,0,0
1766589210.6350121,1766589210.5770283,-40.52734375,-33.203125,-29.78515625,-58.59375,0.0,0,0
1766589210.635041,1766589210.5809252,5.37109375,-29.78515625,-26.85546875,58.10546875,0.0,0,0
1766589210.6350698,1766589210.5848222,-4.39453125,-25.87890625,-22.4609375,41.015625,0.0,0,0
1766589210.664052,1766589210.5888567,-59.5703125,-22.4609375,-24.90234375,-125.48828125,0.0,0,0
1766589210.664146,1766589210.5927536,-90.33203125,-23.92578125,-36.62109375,-225.5859375,0.0,0,0
1766589210.664187,1766589210.5966508,-64.453125,-31.25,-34.66796875,-122.55859375,0.0,0,0
1766589210.664226,1766589210.6005478,-19.53125,-32.71484375,-25.390625,24.4140625,0.0,0,0
1766589210.664263,1766589210.6044447,-8.7890625,-25.390625,-20.99609375,47.8515625,0.0,0,0
1766589210.6643012,1766589210.6083417,-65.91796875,-27.83203125,-28.3203125,-119.140625,0.0,0,0
1766589210.6643388,1766589210.6122386,-99.609375,-28.3203125,-34.1796875,-213.8671875,0.0,0,0
1766589210.664377,1766589210.6161358,-70.3125,-34.1796875,-45.41015625,-145.99609375,0.0,0,0
1766589210.664445,1766589210.6200328,-14.16015625,-38.0859375,-45.8984375,-3.90625,0.0,0,0
1766589210.664484,1766589210.6239297,8.7890625,-27.83203125,-25.87890625,39.0625,0.0,0,0
1766589210.66452,1766589210.6278267,-39.0625,-28.3203125,-33.203125,-111.328125,0.0,0,0
1766589210.664556,1766589210.6317236,-78.61328125,-23.4375,-42.48046875,-188.96484375,0.0,0,0
1766589210.708661,1766589210.635745,-67.3828125,-23.4375,-38.0859375,-132.8125,0.0,0,0
1766589210.7087822,1766589210.639642,0.0,-27.83203125,-26.85546875,15.13671875,0.0,0,0
1766589210.708837,1766589210.643539,30.2734375,-22.94921875,-20.01953125,83.49609375,0.0,0,0
1766589210.7088902,1766589210.647436,-24.4140625,-24.90234375,-27.34375,-38.0859375,0.0,0,0
1766589210.708941,1766589210.651333,-67.3828125,-26.3671875,-29.296875,-134.27734375,0.0,0,0
1766589210.7089942,1766589210.65523,-63.4765625,-20.99609375,-31.73828125,-135.25390625,0.0,0,0
1766589210.709044,1766589210.659127,-4.8828125,-9.765625,-27.83203125,-16.11328125,0.0,0,0
1766589210.709095,1766589210.663024,18.06640625,-20.01953125,-29.78515625,45.8984375,0.0,0,0
1766589210.709145,1766589210.6669211,-24.90234375,-31.25,-28.3203125,-52.734375,0.0,0,0
1766589210.709195,1766589210.670818,-70.80078125,-25.87890625,-26.3671875,-156.73828125,0.0,0,0
1766589210.709246,1766589210.674715,-70.80078125,-25.87890625,-38.0859375,-163.57421875,0.0,0,0
1766589210.7092962,1766589210.678612,-11.23046875,-23.92578125,-32.2265625,14.6484375,0.0,0,0
1766589210.753072,1766589210.6826231,22.94921875,-25.87890625,-28.3203125,113.28125,0.0,0,0
1766589210.753214,1766589210.68652,-5.859375,-23.4375,-30.76171875,15.625,0.0,0,0
1766589210.753251,1766589210.6904173,-50.29296875,-20.99609375,-29.78515625,-73.2421875,0.0,0,0
1766589210.753282,1766589210.6943142,-57.12890625,-30.2734375,-32.71484375,-71.2890625,0.0,0,0
1766589210.753313,1766589210.6982112,-17.08984375,-26.85546875,-25.390625,83.0078125,0.0,0,0
1766589210.753342,1766589210.7021084,28.80859375,-14.6484375,-17.08984375,204.1015625,0.0,0,0
1766589210.7534258,1766589210.7060053,22.4609375,-18.5546875,-23.4375,125.48828125,0.0,0,0
1766589210.7535622,1766589210.7099023,-51.26953125,-25.390625,-29.296875,-21.97265625,0.0,0,0
1766589210.753599,1766589210.7137995,-86.9140625,-37.59765625,-38.57421875,-77.63671875,0.0,0,0
1766589210.753629,1766589210.7176964,-36.1328125,-38.0859375,-39.55078125,64.453125,0.0,0,0
1766589210.753658,1766589210.7215934,9.27734375,-23.92578125,-33.203125,177.24609375,0.0,0,0
1766589210.7536871,1766589210.7254906,1.46484375,-19.04296875,-28.80859375,134.27734375,0.0,0,0
1766589210.798456,1766589210.729493,-58.10546875,-25.87890625,-34.66796875,-22.94921875,0.0,0,0
1766589210.798547,1766589210.7333899,-89.35546875,-35.64453125,-41.015625,-117.1875,0.0,0,0
1766589210.798581,1766589210.737287,-23.4375,-24.4140625,-22.4609375,25.390625,0.0,0,0
1766589210.798611,1766589210.741184,32.71484375,-15.625,-20.01953125,133.7890625,0.0,0,0
1766589210.798641,1766589210.7450812,23.4375,-22.4609375,-28.3203125,70.3125,0.0,0,0
1766589210.79867,1766589210.7489781,-33.203125,-29.296875,-27.83203125,-86.42578125,0.0,0,0
1766589210.798699,1766589210.752875,-73.2421875,-26.3671875,-28.80859375,-139.16015625,0.0,0,0
1766589210.798729,1766589210.7567723,-40.0390625,-28.3203125,-29.296875,-27.34375,0.0,0,0
1766589210.7987578,1766589210.7606692,8.7890625,-41.015625,-34.1796875,63.96484375,0.0,0,0
1766589210.798798,1766589210.7645662,21.97265625,-32.2265625,-28.3203125,62.98828125,0.0,0,0
1766589210.798827,1766589210.7684634,-28.3203125,-21.97265625,-32.2265625,-67.3828125,0.0,0,0
1766589210.798862,1766589210.7723603,-63.4765625,-25.87890625,-36.1328125,-130.37109375,0.0,0,0
1766589210.8456728,1766589210.7763548,-31.73828125,-24.90234375,-30.2734375,-44.921875,0.0,0,0
1766589210.84575,1766589210.7802517,25.390625,-16.6015625,-14.6484375,94.23828125,0.0,0,0
1766589210.84578,1766589210.784149,27.34375,-15.13671875,-13.18359375,139.16015625,0.0,0,0
1766589210.8458052,1766589210.788046,-34.1796875,-22.4609375,-28.80859375,2.9296875,0.0,0,0
1766589210.8458638,1766589210.791943,-70.80078125,-30.76171875,-36.1328125,-102.5390625,0.0,0,0
1766589210.845911,1766589210.79584,-41.9921875,-26.3671875,-34.1796875,-40.52734375,0.0,0,0
1766589210.8460002,1766589210.799737,13.671875,-20.01953125,-34.1796875,72.75390625,0.0,0,0
1766589210.8460958,1766589210.8036342,22.94921875,-26.3671875,-29.78515625,88.8671875,0.0,0,0
1766589210.846143,1766589210.807531,-21.97265625,-28.80859375,-21.484375,-43.45703125,0.0,0,0
1766589210.846238,1766589210.8114283,-70.80078125,-29.296875,-23.92578125,-168.45703125,0.0,0,0
1766589210.8462698,1766589210.8153253,-58.59375,-28.80859375,-27.34375,-118.65234375,0.0,0,0
1766589210.8463209,1766589210.8192225,-3.90625,-32.2265625,-23.92578125,35.15625,0.0,0,0
1766589210.8894038,1766589210.8232083,16.6015625,-30.2734375,-18.5546875,92.28515625,0.0,0,0
1766589210.889475,1766589210.8271055,-21.97265625,-28.80859375,-30.76171875,-31.73828125,0.0,0,0
1766589210.889502,1766589210.8310025,-74.70703125,-32.2265625,-45.41015625,-148.92578125,0.0,0,0
1766589210.889528,1766589210.8348997,-72.75390625,-24.4140625,-29.78515625,-115.72265625,0.0,0,0
1766589210.889589,1766589210.8387966,-14.16015625,-24.90234375,-25.390625,27.83203125,0.0,0,0
1766589210.889618,1766589210.8426938,10.7421875,-26.3671875,-24.90234375,88.37890625,0.0,0,0
1766589210.8896441,1766589210.8465908,-22.4609375,-21.97265625,-15.625,-2.9296875,0.0,0,0
1766589210.889668,1766589210.850488,-71.77734375,-31.25,-27.34375,-136.23046875,0.0,0,0
1766589210.8896918,1766589210.854385,-88.37890625,-37.109375,-44.921875,-180.6640625,0.0,0,0
1766589210.889718,1766589210.8582819,-26.85546875,-31.73828125,-36.1328125,-27.34375,0.0,0,0
1766589210.8897421,1766589210.862179,18.06640625,-31.25,-25.87890625,92.7734375,0.0,0,0
1766589210.889766,1766589210.866076,-19.53125,-36.62109375,-24.90234375,14.16015625,0.0,0,0
1766589210.933803,1766589210.8700535,-76.66015625,-41.9921875,-31.25,-155.76171875,0.0,0,0
1766589210.933928,1766589210.8739505,-97.65625,-39.0625,-39.0625,-179.6875,0.0,0,0
1766589210.9340549,1766589210.8778477,-49.8046875,-38.0859375,-39.0625,-17.08984375,0.0,0,0
1766589210.934133,1766589210.8817446,2.9296875,-39.0625,-38.57421875,83.984375,0.0,0,0
1766589210.9341881,1766589210.8856418,-20.99609375,-39.55078125,-46.38671875,18.06640625,0.0,0,0
1766589210.934241,1766589210.8895388,-64.94140625,-31.73828125,-37.109375,-101.07421875,0.0,0,0
1766589210.934293,1766589210.893436,-70.80078125,-33.69140625,-38.0859375,-149.90234375,0.0,0,0
1766589210.934345,1766589210.897333,-31.73828125,-40.0390625,-44.921875,-41.015625,0.0,0,0
1766589210.934679,1766589210.90123,14.16015625,-21.97265625,-28.3203125,104.4921875,0.0,0,0
1766589210.934735,1766589210.905127,-2.9296875,-19.53125,-32.71484375,76.171875,0.0,0,0
1766589210.934786,1766589210.9090242,-68.84765625,-23.4375,-38.57421875,-78.125,0.0,0,0
1766589210.934836,1766589210.9129212,-85.44921875,-20.99609375,-33.69140625,-140.13671875,0.0,0,0
1766589210.9934132,1766589210.9168906,-29.296875,-21.484375,-33.203125,-18.5546875,0.0,0,0
1766589210.993566,1766589210.9207876,17.08984375,-23.92578125,-26.3671875,113.28125,0.0,0,0
1766589210.993661,1766589210.9246848,7.32421875,-23.92578125,-26.85546875,71.77734375,0.0,0,0
1766589210.993694,1766589210.9285817,-47.36328125,-23.92578125,-30.76171875,-78.61328125,0.0,0,0
1766589210.993768,1766589210.932479,-75.1953125,-27.34375,-33.203125,-114.2578125,0.0,0,0
1766589210.993858,1766589210.9363759,-37.109375,-24.90234375,-24.90234375,-4.39453125,0.0,0,0
1766589210.9939651,1766589210.940273,15.625,-20.01953125,-19.53125,132.32421875,0.0,0,0
1766589210.994018,1766589210.9441702,14.6484375,-24.90234375,-29.296875,129.39453125,0.0,0,0
1766589210.994179,1766589210.9480672,-39.55078125,-25.87890625,-36.62109375,-25.87890625,0.0,0,0
1766589210.994287,1766589210.9519644,-73.73046875,-24.4140625,-36.62109375,-110.3515625,0.0,0,0
1766589210.994378,1766589210.9558613,-39.55078125,-21.484375,-20.99609375,-15.625,0.0,0,0
1766589210.99453,1766589210.9597585,25.87890625,-18.06640625,-13.18359375,144.04296875,0.0,0,0
1766589211.0831091,1766589210.9639986,37.59765625,-18.06640625,-25.87890625,164.0625,0.0,0,0
1766589211.083151,1766589210.9678957,-29.78515625,-23.92578125,-33.69140625,-19.53125,0.0,0,0
1766589211.08318,1766589210.9717927,-79.1015625,-30.76171875,-31.73828125,-128.41796875,0.0,0,0
1766589211.083199,1766589210.97569,-55.17578125,-28.3203125,-28.3203125,-50.29296875,0.0,0,0
1766589211.08321,1766589210.979587,2.44140625,-27.34375,-23.92578125,99.609375,0.0,0,0
1766589211.083219,1766589210.9834843,21.97265625,-21.97265625,-15.625,164.55078125,0.0,0,0
1766589211.0832279,1766589210.9873812,-25.87890625,-24.90234375,-24.4140625,32.71484375,0.0,0,0
1766589211.083267,1766589210.9912784,-84.9609375,-38.57421875,-40.0390625,-101.07421875,0.0,0,0
1766589211.08329,1766589210.9951756,-70.80078125,-43.45703125,-41.9921875,-62.01171875,0.0,0,0
1766589211.083301,1766589210.9990728,5.859375,-38.0859375,-30.76171875,97.16796875,0.0,0,0
1766589211.0833411,1766589211.0029697,39.0625,-24.90234375,-20.99609375,166.015625,0.0,0,0
1766589211.0833669,1766589211.006867,-13.18359375,-29.78515625,-33.203125,25.87890625,0.0,0,0
1766589211.08572,1766589211.0108986,-69.82421875,-37.109375,-41.015625,-107.421875,0.0,0,0
1766589211.0857432,1766589211.0147958,-64.453125,-31.73828125,-36.1328125,-96.19140625,0.0,0,0
1766589211.0857542,1766589211.018693,-2.44140625,-23.4375,-23.92578125,62.5,0.0,0,0
1766589211.0857642,1766589211.02259,31.25,-21.97265625,-16.11328125,135.25390625,0.0,0,0
1766589211.085773,1766589211.026487,-11.71875,-32.2265625,-21.484375,19.04296875,0.0,0,0
1766589211.085783,1766589211.0303843,-70.80078125,-40.0390625,-37.109375,-114.2578125,0.0,0,0
1766589211.085792,1766589211.0342815,-72.75390625,-37.109375,-40.0390625,-138.18359375,0.0,0,0
1766589211.085801,1766589211.0381787,-18.5546875,-31.25,-25.87890625,23.92578125,0.0,0,0
1766589211.08581,1766589211.0420756,10.25390625,-37.109375,-29.78515625,108.88671875,0.0,0,0
1766589211.0858188,1766589211.0459728,-10.7421875,-40.0390625,-31.73828125,20.5078125,0.0,0,0
1766589211.08584,1766589211.04987,-60.546875,-32.71484375,-28.3203125,-97.65625,0.0,0,0
1766589211.085856,1766589211.0537672,-80.56640625,-34.66796875,-34.1796875,-139.6484375,0.0,0,0
1766589211.1278248,1766589211.0577745,-36.62109375,-33.203125,-33.69140625,-12.20703125,0.0,0,0
1766589211.127862,1766589211.0616717,8.30078125,-23.4375,-18.06640625,111.328125,0.0,0,0
1766589211.127873,1766589211.065569,0.0,-19.04296875,-11.71875,61.5234375,0.0,0,0
1766589211.127883,1766589211.069466,-59.08203125,-24.4140625,-27.83203125,-109.375,0.0,0,0
1766589211.127892,1766589211.0733633,-88.37890625,-32.71484375,-39.55078125,-169.43359375,0.0,0,0
1766589211.1279209,1766589211.0772605,-36.1328125,-24.90234375,-27.83203125,-13.671875,0.0,0,0
1766589211.1279411,1766589211.0811577,21.484375,-18.5546875,-20.5078125,118.65234375,0.0,0,0
1766589211.1279519,1766589211.0850549,6.8359375,-23.92578125,-27.83203125,88.37890625,0.0,0,0
1766589211.1279612,1766589211.0889518,-55.6640625,-34.66796875,-30.2734375,-67.87109375,0.0,0,0
1766589211.12797,1766589211.092849,-74.70703125,-37.109375,-31.25,-145.99609375,0.0,0,0
1766589211.127978,1766589211.0967462,-28.3203125,-22.94921875,-17.578125,-27.34375,0.0,0,0
1766589211.127987,1766589211.1006434,19.53125,-23.92578125,-16.11328125,92.7734375,0.0,0,0
1766589211.1724658,1766589211.104648,13.671875,-29.78515625,-20.5078125,91.796875,0.0,0,0
1766589211.1724942,1766589211.1085453,-41.015625,-27.34375,-21.484375,-63.96484375,0.0,0,0
1766589211.172504,1766589211.1124425,-88.37890625,-34.1796875,-29.296875,-167.48046875,0.0,0,0
1766589211.172513,1766589211.1163397,-60.546875,-27.83203125,-26.3671875,-61.03515625,0.0,0,0
1766589211.172537,1766589211.1202369,5.859375,-19.53125,-20.5078125,72.75390625,0.0,0,0
1766589211.172557,1766589211.124134,10.25390625,-21.97265625,-17.08984375,83.984375,0.0,0,0
1766589211.1725671,1766589211.1280313,-48.33984375,-20.5078125,-29.296875,-65.91796875,0.0,0,0
1766589211.172576,1766589211.1319284,-83.0078125,-26.85546875,-36.1328125,-173.33984375,0.0,0,0
1766589211.1725838,1766589211.1358256,-59.5703125,-31.25,-23.4375,-121.58203125,0.0,0,0
1766589211.1725929,1766589211.1397226,0.9765625,-24.90234375,-9.765625,3.90625,0.0,0,0
1766589211.1726022,1766589211.1436198,22.4609375,-17.578125,-8.30078125,40.52734375,0.0,0,0
1766589211.172618,1766589211.147517,-31.25,-19.53125,-20.5078125,-101.07421875,0.0,0,0
1766589211.232567,1766589211.1515768,-72.75390625,-27.83203125,-28.80859375,-213.8671875,0.0,0,0
1766589211.232599,1766589211.155474,-61.5234375,-33.69140625,-27.34375,-161.1328125,0.0,0,0
1766589211.232609,1766589211.1593711,-9.765625,-21.97265625,-21.97265625,-0.48828125,0.0,0,0
1766589211.232619,1766589211.1632683,9.27734375,-19.04296875,-21.97265625,59.5703125,0.0,0,0
1766589211.2326279,1766589211.1671655,-33.69140625,-26.85546875,-29.78515625,-65.91796875,0.0,0,0
1766589211.232638,1766589211.1710627,-79.1015625,-22.4609375,-35.15625,-180.6640625,0.0,0,0
1766589211.232682,1766589211.17496,-82.51953125,-22.94921875,-33.69140625,-163.0859375,0.0,0,0
1766589211.232702,1766589211.178857,-25.390625,-30.76171875,-30.2734375,-25.87890625,0.0,0,0
1766589211.232713,1766589211.1827543,10.25390625,-29.296875,-30.2734375,47.36328125,0.0,0,0
1766589211.2327218,1766589211.1866515,-19.53125,-18.5546875,-27.83203125,-70.3125,0.0,0,0
1766589211.2327302,1766589211.1905487,-64.94140625,-17.08984375,-26.3671875,-217.7734375,0.0,0,0
1766589211.232739,1766589211.1944458,-68.359375,-18.06640625,-31.25,-227.05078125,0.0,0,0
1766589211.2631428,1766589211.1984274,-23.4375,-22.94921875,-30.76171875,-78.125,0.0,0,0
1766589211.263189,1766589211.2023246,16.11328125,-36.62109375,-17.08984375,29.296875,0.0,0,0
1766589211.2632031,1766589211.2062218,4.8828125,-40.0390625,-21.97265625,-53.7109375,0.0,0,0
1766589211.263216,1766589211.210119,-61.03515625,-21.484375,-30.76171875,-206.0546875,0.0,0,0
1766589211.263259,1766589211.2140162,-93.26171875,-19.53125,-37.59765625,-260.25390625,0.0,0,0
1766589211.263287,1766589211.2179134,-36.1328125,-18.06640625,-41.015625,-109.86328125,0.0,0,0
1766589211.263354,1766589211.2218106,5.859375,-3.90625,-34.66796875,12.6953125,0.0,0,0
1766589211.2633688,1766589211.2257078,-21.484375,-9.27734375,-42.48046875,-62.01171875,0.0,0,0
1766589211.263381,1766589211.229605,-75.68359375,-11.71875,-49.31640625,-207.51953125,0.0,0,0
1766589211.2634041,1766589211.2335021,-82.51953125,-12.6953125,-52.24609375,-227.05078125,0.0,0,0
1766589211.263417,1766589211.2373993,-21.97265625,-9.765625,-46.875,-70.80078125,0.0,0,0
1766589211.263454,1766589211.2412965,27.34375,-2.9296875,-38.57421875,41.015625,0.0,0,0
1766589211.307922,1766589211.2452717,29.78515625,-5.37109375,-39.0625,6.34765625,0.0,0,0
1766589211.3079731,1766589211.2491689,-33.203125,-12.6953125,-45.41015625,-162.109375,0.0,0,0
1766589211.3080142,1766589211.253066,-74.21875,-21.97265625,-49.31640625,-252.9296875,0.0,0,0
1766589211.308053,1766589211.2569633,-32.71484375,-25.87890625,-47.36328125,-136.23046875,0.0,0,0
1766589211.308065,1766589211.2608604,18.06640625,-25.87890625,-40.0390625,-11.23046875,0.0,0,0
1766589211.308075,1766589211.2647579,15.625,-23.4375,-33.203125,-21.97265625,0.0,0,0
1766589211.308086,1766589211.268655,-41.015625,-31.25,-40.0390625,-158.203125,0.0,0,0
1766589211.308096,1766589211.2725523,-78.125,-38.0859375,-51.26953125,-224.12109375,0.0,0,0
1766589211.3081338,1766589211.2764494,-44.921875,-34.1796875,-43.9453125,-124.51171875,0.0,0,0
1766589211.308182,1766589211.2803466,4.8828125,-31.25,-37.59765625,3.90625,0.0,0,0
1766589211.308193,1766589211.2842438,3.41796875,-25.390625,-37.59765625,30.2734375,0.0,0,0
1766589211.3082361,1766589211.288141,-44.921875,-26.3671875,-42.48046875,-104.98046875,0.0,0,0
1766589211.368557,1766589211.2921057,-90.33203125,-33.69140625,-48.828125,-204.58984375,0.0,0,0
1766589211.368671,1766589211.2960029,-63.4765625,-30.76171875,-39.0625,-126.953125,0.0,0,0
1766589211.3687239,1766589211.2999003,3.90625,-20.01953125,-25.87890625,32.2265625,0.0,0,0
1766589211.3689978,1766589211.3037975,15.13671875,-23.4375,-32.2265625,74.21875,0.0,0,0
1766589211.3690398,1766589211.3076947,-27.34375,-28.80859375,-41.50390625,-56.640625,0.0,0,0
1766589211.370442,1766589211.3115919,-67.87109375,-27.34375,-40.0390625,-158.69140625,0.0,0,0
1766589211.370691,1766589211.315489,-51.26953125,-23.4375,-40.52734375,-119.140625,0.0,0,0
1766589211.370799,1766589211.3193862,9.765625,-21.97265625,-33.69140625,17.578125,0.0,0,0
1766589211.371077,1766589211.3232837,25.87890625,-29.78515625,-32.2265625,74.21875,0.0,0,0
1766589211.3712242,1766589211.3271809,-20.99609375,-33.69140625,-40.0390625,-77.1484375,0.0,0,0
1766589211.371475,1766589211.331078,-65.91796875,-23.92578125,-35.15625,-187.5,0.0,0,0
1766589211.371488,1766589211.3349752,-56.640625,-20.5078125,-33.203125,-122.0703125,0.0,0,0
1766589211.413158,1766589211.3389332,-0.48828125,-26.3671875,-37.59765625,26.85546875,0.0,0,0
1766589211.413321,1766589211.3428304,28.80859375,-25.390625,-33.69140625,93.26171875,0.0,0,0
1766589211.413416,1766589211.3467276,-10.7421875,-27.83203125,-31.25,-25.390625,0.0,0,0
1766589211.413428,1766589211.3506248,-58.10546875,-27.83203125,-32.2265625,-144.04296875,0.0,0,0
1766589211.4135091,1766589211.354522,-53.22265625,-24.4140625,-27.83203125,-116.69921875,0.0,0,0
1766589211.413686,1766589211.3584192,5.37109375,-21.484375,-19.04296875,34.1796875,0.0,0,0
1766589211.413816,1766589211.3623166,39.55078125,-13.18359375,-19.53125,107.91015625,0.0,0,0
1766589211.413999,1766589211.3662138,2.9296875,-18.5546875,-25.87890625,10.25390625,0.0,0,0
1766589211.414083,1766589211.370111,-56.15234375,-26.85546875,-31.73828125,-132.8125,0.0,0,0
1766589211.414112,1766589211.3740082,-65.4296875,-36.62109375,-38.57421875,-171.38671875,0.0,0,0
1766589211.4141939,1766589211.3779054,-10.25390625,-33.69140625,-33.69140625,-26.85546875,0.0,0,0
1766589211.414272,1766589211.3818028,30.76171875,-23.4375,-25.87890625,82.03125,0.0,0,0
1766589211.457335,1766589211.385823,7.32421875,-30.76171875,-27.34375,3.41796875,0.0,0,0
1766589211.457369,1766589211.3897202,-52.24609375,-38.0859375,-36.62109375,-136.71875,0.0,0,0
1766589211.45738,1766589211.3936176,-74.21875,-35.15625,-41.015625,-152.34375,0.0,0,0
1766589211.457389,1766589211.3975148,-20.99609375,-33.203125,-34.66796875,-3.41796875,0.0,0,0
1766589211.457397,1766589211.401412,21.97265625,-32.2265625,-23.4375,118.65234375,0.0,0,0
1766589211.45749,1766589211.4053092,16.11328125,-26.3671875,-16.11328125,88.37890625,0.0,0,0
1766589211.457503,1766589211.4092066,-42.48046875,-29.296875,-23.4375,-62.5,0.0,0,0
1766589211.4575129,1766589211.4131038,-77.1484375,-35.64453125,-38.57421875,-139.16015625,0.0,0,0
1766589211.457522,1766589211.417001,-28.80859375,-36.62109375,-38.57421875,-19.53125,0.0,0,0
1766589211.45753,1766589211.4208982,22.94921875,-35.15625,-27.83203125,95.703125,0.0,0,0
1766589211.457571,1766589211.4247956,24.90234375,-23.4375,-21.484375,87.890625,0.0,0,0
1766589211.457582,1766589211.4286928,-35.64453125,-22.94921875,-27.83203125,-56.15234375,0.0,0,0
1766589211.5343301,1766589211.4328387,-66.40625,-31.25,-34.66796875,-147.94921875,0.0,0,0
1766589211.5343812,1766589211.436736,-31.73828125,-32.71484375,-24.90234375,-57.12890625,0.0,0,0
1766589211.534432,1766589211.4406333,3.90625,-29.296875,-20.01953125,65.4296875,0.0,0,0
1766589211.534456,1766589211.4445307,15.13671875,-22.4609375,-18.5546875,86.9140625,0.0,0,0
1766589211.534474,1766589211.448428,-41.9921875,-29.78515625,-31.25,-69.82421875,0.0,0,0
1766589211.534528,1766589211.452325,-86.9140625,-33.69140625,-30.2734375,-146.484375,0.0,0,0
1766589211.534664,1766589211.4562225,-64.94140625,-27.83203125,-30.76171875,-54.19921875,0.0,0,0
1766589211.53472,1766589211.4601197,-13.18359375,-20.5078125,-31.73828125,82.03125,0.0,0,0
1766589211.534765,1766589211.464017,9.765625,-23.92578125,-25.87890625,114.2578125,0.0,0,0
1766589211.534849,1766589211.4679143,-36.1328125,-31.25,-29.78515625,-67.3828125,0.0,0,0
1766589211.534949,1766589211.4718115,-74.70703125,-25.87890625,-31.25,-187.5,0.0,0,0
1766589211.535012,1766589211.475709,-60.05859375,-21.484375,-38.0859375,-116.2109375,0.0,0,0
1766589211.565826,1766589211.4797175,-0.48828125,-15.13671875,-28.3203125,31.25,0.0,0,0
1766589211.565956,1766589211.483615,22.4609375,-20.99609375,-18.06640625,87.890625,0.0,0,0
1766589211.566357,1766589211.487512,-28.3203125,-25.390625,-28.80859375,-45.41015625,0.0,0,0
1766589211.566494,1766589211.4914093,-80.078125,-26.3671875,-38.57421875,-160.15625,0.0,0,0
1766589211.566549,1766589211.4953067,-66.89453125,-24.90234375,-33.203125,-120.60546875,0.0,0,0
1766589211.566581,1766589211.499204,1.953125,-16.6015625,-19.04296875,37.109375,0.0,0,0
1766589211.567227,1766589211.5031013,33.69140625,-11.71875,-13.18359375,106.93359375,0.0,0,0
1766589211.567283,1766589211.5069985,-10.7421875,-20.5078125,-23.92578125,-39.0625,0.0,0,0
1766589211.567487,1766589211.510896,-60.546875,-23.4375,-29.296875,-155.2734375,0.0,0,0
1766589211.567498,1766589211.5147932,-61.5234375,-21.484375,-27.83203125,-132.32421875,0.0,0,0
1766589211.5676732,1766589211.5186906,-0.9765625,-20.99609375,-22.94921875,36.62109375,0.0,0,0
1766589211.567735,1766589211.5225878,31.25,-21.484375,-18.5546875,130.37109375,0.0,0,0
1766589211.5978189,1766589211.526609,-18.5546875,-33.203125,-26.3671875,13.18359375,0.0,0,0
1766589211.597928,1766589211.5305064,-65.4296875,-35.64453125,-27.34375,-94.7265625,0.0,0,0
1766589211.5979578,1766589211.5344036,-66.89453125,-27.34375,-29.296875,-115.234375,0.0,0,0
1766589211.598012,1766589211.538301,-22.4609375,-34.1796875,-24.90234375,18.5546875,0.0,0,0
1766589211.598054,1766589211.5421982,21.97265625,-34.66796875,-16.6015625,130.37109375,0.0,0,0
1766589211.59809,1766589211.5460956,-5.37109375,-27.34375,-20.99609375,26.85546875,0.0,0,0
1766589211.598125,1766589211.5499928,-69.82421875,-28.3203125,-33.203125,-131.8359375,0.0,0,0
1766589211.598156,1766589211.5538902,-86.9140625,-37.109375,-42.48046875,-179.6875,0.0,0,0
1766589211.598208,1766589211.5577874,-32.2265625,-35.15625,-29.78515625,-24.90234375,0.0,0,0
1766589211.598272,1766589211.5616848,13.671875,-24.90234375,-23.92578125,97.65625,0.0,0,0
1766589211.598312,1766589211.565582,-5.37109375,-21.97265625,-25.87890625,64.453125,0.0,0,0
1766589211.598329,1766589211.5694795,-59.08203125,-25.390625,-30.2734375,-59.5703125,0.0,0,0
1766589211.644436,1766589211.573461,-83.0078125,-33.69140625,-44.43359375,-144.04296875,0.0,0,0
1766589211.644588,1766589211.5773582,-35.15625,-33.69140625,-36.1328125,7.32421875,0.0,0,0
1766589211.644602,1766589211.5812557,13.18359375,-26.3671875,-26.3671875,169.921875,0.0,0,0
1766589211.644612,1766589211.5851529,2.44140625,-26.85546875,-30.2734375,139.6484375,0.0,0,0
1766589211.6446211,1766589211.5890503,-48.828125,-30.2734375,-35.64453125,-13.18359375,0.0,0,0
1766589211.644802,1766589211.5929475,-75.1953125,-29.78515625,-41.50390625,-74.21875,0.0,0,0
1766589211.6448681,1766589211.596845,-50.29296875,-27.34375,-34.66796875,51.7578125,0.0,0,0
1766589211.644903,1766589211.6007423,0.48828125,-32.71484375,-30.76171875,166.015625,0.0,0,0
1766589211.644966,1766589211.6046395,4.39453125,-32.71484375,-34.66796875,157.2265625,0.0,0,0
1766589211.6449852,1766589211.608537,-58.59375,-28.3203125,-40.52734375,0.9765625,0.0,0,0
1766589211.645128,1766589211.6124341,-90.8203125,-34.66796875,-44.43359375,-101.5625,0.0,0,0
1766589211.645168,1766589211.6163316,-60.05859375,-25.390625,-37.59765625,-4.39453125,0.0,0,0
1766589211.6840231,1766589211.6203122,-10.25390625,-18.06640625,-27.34375,121.09375,0.0,0,0
1766589211.684082,1766589211.6242096,0.48828125,-24.4140625,-24.90234375,133.7890625,0.0,0,0
1766589211.684101,1766589211.6281068,-50.29296875,-29.78515625,-36.1328125,-22.4609375,0.0,0,0
1766589211.684256,1766589211.6320043,-103.515625,-39.55078125,-46.38671875,-159.1796875,0.0,0,0
1766589211.684306,1766589211.6359015,-86.9140625,-37.109375,-40.52734375,-83.0078125,0.0,0,0
1766589211.684373,1766589211.6397989,-16.11328125,-20.99609375,-24.90234375,93.26171875,0.0,0,0
1766589211.684396,1766589211.6436963,4.39453125,-26.85546875,-31.73828125,117.1875,0.0,0,0
1766589211.6844249,1766589211.6475935,-45.41015625,-37.59765625,-51.7578125,-53.7109375,0.0,0,0
1766589211.6844642,1766589211.651491,-72.75390625,-31.25,-42.96875,-149.4140625,0.0,0,0
1766589211.684494,1766589211.655388,-60.05859375,-37.109375,-25.390625,-102.5390625,0.0,0,0
1766589211.6846101,1766589211.6592855,-15.625,-30.76171875,-14.16015625,23.92578125,0.0,0,0
1766589211.6847281,1766589211.663183,12.20703125,-25.390625,-17.578125,81.54296875,0.0,0,0
1766589211.743742,1766589211.6671495,-27.34375,-36.1328125,-27.34375,-44.921875,0.0,0,0
1766589211.743809,1766589211.6710467,-74.70703125,-36.62109375,-26.3671875,-171.875,0.0,0,0
1766589211.743867,1766589211.6749442,-74.21875,-42.48046875,-27.34375,-149.90234375,0.0,0,0
1766589211.743988,1766589211.6788416,-17.08984375,-43.45703125,-26.3671875,4.8828125,0.0,0,0
1766589211.744014,1766589211.6827388,12.20703125,-32.71484375,-19.53125,65.91796875,0.0,0,0
1766589211.7440262,1766589211.6866362,-19.53125,-28.80859375,-18.06640625,-41.015625,0.0,0,0
1766589211.744048,1766589211.6905336,-66.89453125,-34.1796875,-24.90234375,-147.94921875,0.0,0,0
1766589211.7440588,1766589211.6944308,-85.9375,-42.48046875,-34.66796875,-173.33984375,0.0,0,0
1766589211.744116,1766589211.6983283,-29.78515625,-39.55078125,-26.3671875,-20.99609375,0.0,0,0
1766589211.744237,1766589211.7022254,21.484375,-30.2734375,-11.71875,89.35546875,0.0,0,0
1766589211.744286,1766589211.7061229,-5.859375,-32.2265625,-12.20703125,-6.8359375,0.0,0,0
1766589211.744378,1766589211.7100203,-69.3359375,-37.59765625,-23.92578125,-149.4140625,0.0,0,0
1766589211.788745,1766589211.7140474,-70.80078125,-34.1796875,-21.484375,-187.5,0.0,0,0
1766589211.788805,1766589211.7179446,-4.39453125,-23.92578125,-13.18359375,-27.83203125,0.0,0,0
1766589211.788816,1766589211.721842,33.203125,-23.92578125,-11.71875,84.47265625,0.0,0,0
1766589211.788936,1766589211.7257395,12.6953125,-30.76171875,-17.578125,-1.953125,0.0,0,0
1766589211.789006,1766589211.7296367,-47.8515625,-34.66796875,-28.80859375,-132.32421875,0.0,0,0
1766589211.7891462,1766589211.733534,-63.4765625,-33.69140625,-27.34375,-147.94921875,0.0,0,0
1766589211.7891688,1766589211.7374315,-15.625,-31.25,-20.01953125,0.48828125,0.0,0,0
1766589211.7891798,1766589211.741329,10.7421875,-39.0625,-20.99609375,70.80078125,0.0,0,0
1766589211.789189,1766589211.7452261,-7.8125,-44.921875,-23.4375,7.8125,0.0,0,0
1766589211.7891982,1766589211.7491236,-65.91796875,-46.875,-31.73828125,-121.09375,0.0,0,0
1766589211.789206,1766589211.753021,-89.84375,-40.52734375,-32.2265625,-184.5703125,0.0,0,0
1766589211.7892292,1766589211.7569182,-31.73828125,-35.15625,-24.4140625,-65.4296875,0.0,0,0
1766589211.89643,1766589211.761017,11.23046875,-30.76171875,-20.99609375,58.59375,0.0,0,0
1766589211.896468,1766589211.7649145,-6.8359375,-29.296875,-20.5078125,37.59765625,0.0,0,0
1766589211.896725,1766589211.768812,-50.78125,-32.2265625,-24.90234375,-102.05078125,0.0,0,0
1766589211.896734,1766589211.7727091,-72.75390625,-32.71484375,-35.15625,-159.1796875,0.0,0,0
1766589211.896744,1766589211.7766066,-36.1328125,-24.90234375,-26.85546875,-35.15625,0.0,0,0
1766589211.896841,1766589211.780504,17.08984375,-20.99609375,-20.5078125,112.3046875,0.0,0,0
1766589211.8968692,1766589211.7844014,11.23046875,-25.87890625,-28.80859375,122.55859375,0.0,0,0
1766589211.8969212,1766589211.7882988,-45.8984375,-26.3671875,-33.203125,-38.0859375,0.0,0,0
1766589211.910895,1766589211.792196,-67.3828125,-36.62109375,-41.015625,-127.9296875,0.0,0,0
1766589211.9109561,1766589211.7960935,-34.1796875,-35.15625,-32.2265625,-22.94921875,0.0,0,0
1766589211.914114,1766589211.799991,18.06640625,-22.94921875,-15.625,113.76953125,0.0,0,0
1766589211.914199,1766589211.8038883,27.34375,-18.5546875,-12.6953125,140.13671875,0.0,0,0
1766589211.9142442,1766589211.8080528,-32.71484375,-20.99609375,-26.3671875,-15.13671875,0.0,0,0
1766589211.914277,1766589211.8119502,-81.54296875,-30.76171875,-41.015625,-141.11328125,0.0,0,0
1766589211.914308,1766589211.8158476,-62.5,-30.2734375,-34.66796875,-71.77734375,0.0,0,0
1766589211.914338,1766589211.819745,0.9765625,-23.4375,-24.4140625,76.171875,0.0,0,0
1766589211.914368,1766589211.8236425,23.4375,-20.01953125,-24.4140625,110.3515625,0.0,0,0
1766589211.914418,1766589211.82754,-28.3203125,-22.94921875,-27.83203125,-22.4609375,0.0,0,0
1766589211.914966,1766589211.8314373,-70.3125,-26.3671875,-29.296875,-135.7421875,0.0,0,0
1766589211.915494,1766589211.8353348,-65.91796875,-26.85546875,-27.34375,-106.93359375,0.0,0,0
1766589211.91555,1766589211.8392322,-3.90625,-23.4375,-22.4609375,45.8984375,0.0,0,0
1766589211.915649,1766589211.8431296,26.3671875,-22.4609375,-21.484375,93.75,0.0,0,0
1766589211.9156601,1766589211.847027,-20.5078125,-28.80859375,-32.2265625,-39.55078125,0.0,0,0
1766589211.915734,1766589211.8509245,-65.4296875,-31.73828125,-42.96875,-155.76171875,0.0,0,0
1766589211.9261491,1766589211.8549247,-59.08203125,-24.4140625,-40.52734375,-125.9765625,0.0,0,0
1766589211.926193,1766589211.858822,-1.953125,-20.01953125,-35.64453125,36.62109375,0.0,0,0
1766589211.926205,1766589211.8627195,32.2265625,-20.01953125,-27.83203125,112.79296875,0.0,0,0
1766589211.926214,1766589211.866617,-6.34765625,-20.5078125,-27.34375,-9.27734375,0.0,0,0
1766589211.9262452,1766589211.8705144,-56.640625,-24.90234375,-38.0859375,-143.06640625,0.0,0,0
1766589211.926284,1766589211.8744118,-60.546875,-30.76171875,-42.96875,-163.0859375,0.0,0,0
1766589211.926362,1766589211.8783092,-12.6953125,-21.484375,-21.484375,-13.671875,0.0,0,0
1766589211.9263868,1766589211.8822067,13.18359375,-28.3203125,-19.53125,70.3125,0.0,0,0
1766589211.926476,1766589211.886104,-20.5078125,-42.48046875,-30.76171875,-16.11328125,0.0,0,0
1766589211.9265122,1766589211.8900015,-67.87109375,-30.2734375,-27.83203125,-146.484375,0.0,0,0
1766589211.926584,1766589211.893899,-78.125,-19.53125,-31.73828125,-187.01171875,0.0,0,0
1766589211.9266171,1766589211.8977964,-31.73828125,-26.3671875,-27.34375,-35.15625,0.0,0,0
1766589211.9676092,1766589211.9017868,11.71875,-29.296875,-17.578125,76.66015625,0.0,0,0
1766589211.96767,1766589211.9056842,0.0,-26.85546875,-23.4375,7.32421875,0.0,0,0
1766589211.9677,1766589211.9095817,-55.6640625,-29.296875,-30.76171875,-118.65234375,0.0,0,0
1766589211.9677298,1766589211.913479,-90.8203125,-32.71484375,-36.1328125,-184.08203125,0.0,0,0
1766589211.967743,1766589211.9173765,-50.29296875,-29.296875,-32.71484375,-78.61328125,0.0,0,0
1766589211.967753,1766589211.9212742,0.48828125,-23.92578125,-20.01953125,72.75390625,0.0,0,0
1766589211.967762,1766589211.9251716,-9.765625,-31.25,-26.85546875,43.45703125,0.0,0,0
1766589211.96777,1766589211.929069,-59.5703125,-41.9921875,-31.73828125,-120.1171875,0.0,0,0
1766589211.9677792,1766589211.9329665,-89.35546875,-39.0625,-22.4609375,-167.96875,0.0,0,0
1766589211.967787,1766589211.936864,-58.10546875,-32.2265625,-23.92578125,-69.82421875,0.0,0,0
1766589211.967883,1766589211.9407613,-3.41796875,-26.3671875,-17.08984375,34.1796875,0.0,0,0
1766589211.9678981,1766589211.9446588,0.9765625,-24.4140625,-14.6484375,59.08203125,0.0,0,0
1766589212.0150442,1766589211.9486542,-58.10546875,-30.76171875,-35.15625,-96.19140625,0.0,0,0
1766589212.015083,1766589211.9525516,-94.23828125,-30.76171875,-38.0859375,-196.2890625,0.0,0,0
1766589212.015125,1766589211.9564493,-60.546875,-23.92578125,-19.04296875,-75.68359375,0.0,0,0
1766589212.015136,1766589211.9603467,-5.859375,-21.484375,-17.578125,39.55078125,0.0,0,0
1766589212.01522,1766589211.9642441,9.765625,-19.04296875,-20.5078125,40.52734375,0.0,0,0
1766589212.015249,1766589211.9681416,-48.828125,-12.20703125,-22.4609375,-74.70703125,0.0,0,0
1766589212.015307,1766589211.972039,-101.5625,-15.625,-32.2265625,-166.9921875,0.0,0,0
1766589212.015318,1766589211.9759364,-73.2421875,-27.83203125,-37.109375,-125.9765625,0.0,0,0
1766589212.015369,1766589211.9798338,-3.90625,-29.78515625,-32.2265625,29.78515625,0.0,0,0
1766589212.015379,1766589211.9837313,17.08984375,-26.85546875,-29.78515625,93.75,0.0,0,0
1766589212.015408,1766589211.9876287,-25.390625,-27.34375,-32.2265625,-53.22265625,0.0,0,0
1766589212.015435,1766589211.9915261,-59.08203125,-25.87890625,-34.66796875,-164.0625,0.0,0,0
1766589212.057667,1766589211.9954967,-47.36328125,-22.4609375,-31.73828125,-114.74609375,0.0,0,0
1766589212.057704,1766589211.9993942,-0.48828125,-19.04296875,-28.80859375,34.66796875,0.0,0,0
1766589212.057715,1766589212.0032916,16.11328125,-16.6015625,-24.90234375,99.12109375,0.0,0,0
1766589212.057725,1766589212.0071893,-21.97265625,-25.87890625,-29.78515625,-22.4609375,0.0,0,0
1766589212.0577338,1766589212.0110867,-69.82421875,-34.66796875,-43.45703125,-149.4140625,0.0,0,0
1766589212.057743,1766589212.0149841,-68.84765625,-26.3671875,-38.0859375,-117.1875,0.0,0,0
1766589212.057751,1766589212.0188816,-8.7890625,-26.3671875,-36.1328125,29.78515625,0.0,0,0
1766589212.05776,1766589212.022779,23.92578125,-28.80859375,-31.73828125,96.19140625,0.0,0,0
1766589212.057769,1766589212.0266764,-13.18359375,-20.99609375,-27.83203125,-12.20703125,0.0,0,0
1766589212.057778,1766589212.0305738,-64.94140625,-19.53125,-31.25,-120.1171875,0.0,0,0
1766589212.057787,1766589212.0344715,-72.265625,-18.06640625,-31.73828125,-101.5625,0.0,0,0
1766589212.0578141,1766589212.038369,-22.4609375,-17.08984375,-24.90234375,53.22265625,0.0,0,0
1766589212.135864,1766589212.0424666,14.16015625,-21.484375,-18.5546875,127.9296875,0.0,0,0
1766589212.136193,1766589212.046364,-24.4140625,-33.69140625,-26.85546875,16.11328125,0.0,0,0
1766589212.136228,1766589212.0502617,-78.125,-37.109375,-33.69140625,-117.1875,0.0,0,0
1766589212.136287,1766589212.0541592,-81.54296875,-31.25,-28.80859375,-125.48828125,0.0,0,0
1766589212.136297,1766589212.0580566,-35.64453125,-28.3203125,-25.87890625,9.765625,0.0,0,0
1766589212.136328,1766589212.061954,10.25390625,-21.484375,-21.97265625,107.91015625,0.0,0,0
1766589212.1363578,1766589212.0658514,-7.32421875,-22.4609375,-20.99609375,46.875,0.0,0,0
1766589212.136389,1766589212.069749,-74.70703125,-36.62109375,-30.76171875,-111.81640625,0.0,0,0
1766589212.136433,1766589212.0736465,-99.609375,-45.8984375,-39.55078125,-169.43359375,0.0,0,0
1766589212.1364632,1766589212.077544,-53.7109375,-54.6875,-39.55078125,-24.4140625,0.0,0,0
1766589212.136493,1766589212.0814414,-5.37109375,-60.546875,-32.71484375,118.1640625,0.0,0,0
1766589212.13652,1766589212.085339,13.671875,-63.4765625,-23.4375,85.44921875,0.0,0,0
1766589212.200479,1766589212.0895097,-47.36328125,-78.61328125,-24.90234375,-69.82421875,0.0,0,0
1766589212.20155,1766589212.0934074,-104.4921875,-98.14453125,-31.25,-149.4140625,0.0,0,0
1766589212.399607,1766589212.0973048,-56.640625,-104.98046875,-23.4375,-32.71484375,0.0,0,0
1766589212.3996851,1766589212.1012022,4.8828125,-107.421875,-14.6484375,100.5859375,0.0,0,0
1766589212.3997078,1766589212.1051,-10.7421875,-116.69921875,-16.6015625,72.75390625,0.0,0,0
1766589212.399719,1766589212.1089973,-72.75390625,-118.65234375,-21.484375,-70.3125,0.0,0,0
1766589212.399729,1766589212.112895,-100.5859375,-124.0234375,-30.2734375,-158.203125,0.0,0,0
1766589212.399738,1766589212.1167924,-76.171875,-129.39453125,-36.1328125,-81.0546875,0.0,0,0
1766589212.399746,1766589212.1206899,-21.97265625,-127.9296875,-31.73828125,58.59375,0.0,0,0
1766589212.399755,1766589212.1245875,-9.27734375,-127.44140625,-26.3671875,72.265625,0.0,0,0
1766589212.3997781,1766589212.128485,-57.12890625,-124.51171875,-28.3203125,-72.265625,0.0,0,0
1766589212.399808,1766589212.1323824,-76.66015625,-125.0,-28.80859375,-160.64453125,0.0,0,0
1766589212.399831,1766589212.1372404,-49.8046875,-129.8828125,-31.25,-93.26171875,0.0,0,0
1766589212.399852,1766589212.141138,-4.39453125,-127.44140625,-23.92578125,66.89453125,0.0,0,0
1766589212.399872,1766589212.1450357,7.8125,-121.09375,-19.04296875,121.58203125,0.0,0,0
1766589212.39994,1766589212.1489334,-46.38671875,-124.0234375,-26.85546875,-30.76171875,0.0,0,0
1766589212.399953,1766589212.152831,-89.84375,-132.32421875,-33.203125,-141.11328125,0.0,0,0
1766589212.399963,1766589212.1567287,-69.82421875,-125.0,-28.3203125,-75.68359375,0.0,0,0
1766589212.400117,1766589212.1606262,-9.765625,-120.60546875,-24.4140625,77.1484375,0.0,0,0
1766589212.4003441,1766589212.1645238,9.765625,-125.48828125,-27.83203125,116.69921875,0.0,0,0
1766589212.400356,1766589212.1684215,-43.9453125,-128.41796875,-35.15625,-39.0625,0.0,0,0
1766589212.4004061,1766589212.1723192,-87.890625,-130.37109375,-35.15625,-145.01953125,0.0,0,0
1766589212.400416,1766589212.1762168,-81.0546875,-122.0703125,-33.69140625,-117.1875,0.0,0,0
1766589212.4006588,1766589212.1801145,-24.4140625,-107.91015625,-22.4609375,40.0390625,0.0,0,0
1766589212.400701,1766589212.184766,0.9765625,-104.00390625,-22.4609375,113.76953125,0.0,0,0
1766589212.4007308,1766589212.1886637,-40.0390625,-106.4453125,-33.203125,-10.7421875,0.0,0,0
1766589212.400917,1766589212.1925616,-89.35546875,-103.515625,-35.64453125,-122.55859375,0.0,0,0
1766589212.401052,1766589212.1964593,-89.84375,-102.05078125,-40.0390625,-131.34765625,0.0,0,0
1766589212.401083,1766589212.200357,-28.80859375,-98.14453125,-32.71484375,9.765625,0.0,0,0
1766589212.40113,1766589212.2042549,10.7421875,-83.0078125,-13.18359375,111.81640625,0.0,0,0
1766589212.40114,1766589212.2081525,-11.71875,-76.66015625,-18.06640625,17.08984375,0.0,0,0
1766589212.401189,1766589212.2120502,-57.12890625,-81.0546875,-37.109375,-112.79296875,0.0,0,0
1766589212.401231,1766589212.2159479,-65.4296875,-79.58984375,-38.0859375,-128.41796875,0.0,0,0
1766589212.401241,1766589212.2198458,-18.5546875,-78.61328125,-28.80859375,11.23046875,0.0,0,0
1766589212.4012501,1766589212.2237434,20.99609375,-67.3828125,-17.08984375,121.09375,0.0,0,0
1766589212.401259,1766589212.227641,-2.9296875,-66.40625,-22.94921875,36.1328125,0.0,0,0
1766589212.401268,1766589212.2320867,-53.22265625,-74.70703125,-40.0390625,-108.88671875,0.0,0,0
1766589212.4012768,1766589212.2359843,-76.66015625,-71.77734375,-41.015625,-141.6015625,0.0,0,0
1766589212.4013271,1766589212.2398822,-30.76171875,-65.4296875,-26.85546875,-0.9765625,0.0,0,0
1766589212.401345,1766589212.24378,22.94921875,-59.08203125,-18.5546875,129.39453125,0.0,0,0
1766589212.401355,1766589212.2476778,-4.8828125,-60.546875,-23.4375,82.51953125,0.0,0,0
1766589212.4013638,1766589212.2515755,-74.21875,-66.40625,-32.71484375,-90.8203125,0.0,0,0
1766589212.401381,1766589212.2554734,-87.890625,-61.5234375,-36.1328125,-158.203125,0.0,0,0
1766589212.4014,1766589212.259371,-28.3203125,-58.10546875,-30.2734375,-25.390625,0.0,0,0
1766589212.401425,1766589212.263269,17.08984375,-62.5,-34.66796875,69.3359375,0.0,0,0
1766589212.401435,1766589212.2671669,10.7421875,-58.10546875,-29.296875,48.33984375,0.0,0,0
1766589212.4014661,1766589212.2710645,-52.24609375,-52.24609375,-29.78515625,-81.0546875,0.0,0,0
1766589212.4014862,1766589212.2749624,-84.47265625,-50.78125,-33.69140625,-146.484375,0.0,0,0
1766589212.401515,1766589212.2792034,-42.96875,-51.7578125,-28.3203125,-45.41015625,0.0,0,0
1766589212.401602,1766589212.2831013,3.90625,-51.7578125,-29.296875,60.05859375,0.0,0,0
1766589212.401794,1766589212.2869992,0.9765625,-46.875,-25.87890625,72.265625,0.0,0,0
1766589212.401804,1766589212.2908971,-59.5703125,-43.9453125,-31.25,-50.29296875,0.0,0,0
1766589212.401814,1766589212.2947948,-88.8671875,-45.41015625,-31.25,-109.86328125,0.0,0,0
1766589212.401823,1766589212.2986927,-52.24609375,-43.45703125,-22.4609375,-14.16015625,0.0,0,0
1766589212.401831,1766589212.3025906,-0.9765625,-36.1328125,-22.94921875,105.95703125,0.0,0,0
1766589212.401839,1766589212.3064883,3.90625,-38.57421875,-28.3203125,116.69921875,0.0,0,0
1766589212.401848,1766589212.3103862,-45.8984375,-49.8046875,-38.0859375,-42.48046875,0.0,0,0
1766589212.401856,1766589212.314284,-82.03125,-55.17578125,-44.43359375,-132.8125,0.0,0,0
1766589212.401865,1766589212.318182,-62.01171875,-43.9453125,-34.66796875,-16.11328125,0.0,0,0
1766589212.401906,1766589212.3220797,-5.37109375,-35.15625,-21.97265625,132.32421875,0.0,0,0
1766589212.4019148,1766589212.3261163,13.18359375,-38.57421875,-20.01953125,136.23046875,0.0,0,0
1766589212.4019241,1766589212.3300142,-33.203125,-40.0390625,-25.390625,-0.9765625,0.0,0,0
1766589212.401932,1766589212.3339121,-62.5,-35.64453125,-23.92578125,-82.03125,0.0,0,0
1766589212.401941,1766589212.33781,-47.8515625,-36.1328125,-22.94921875,-53.7109375,0.0,0,0
1766589212.4019608,1766589212.341708,-0.48828125,-33.203125,-21.97265625,74.70703125,0.0,0,0
1766589212.401976,1766589212.3456056,15.625,-24.4140625,-21.97265625,129.39453125,0.0,0,0
1766589212.401988,1766589212.3495035,-26.85546875,-25.390625,-26.85546875,2.44140625,0.0,0,0
1766589212.4020422,1766589212.3534014,-84.47265625,-42.48046875,-40.52734375,-126.46484375,0.0,0,0
1766589212.402118,1766589212.3572993,-91.30859375,-41.50390625,-53.22265625,-114.74609375,0.0,0,0
1766589212.402179,1766589212.3611972,-19.53125,-26.85546875,-35.15625,80.078125,0.0,0,0
1766589212.402206,1766589212.3650951,13.18359375,-26.85546875,-25.390625,178.22265625,0.0,0,0
1766589212.402231,1766589212.3689928,-29.296875,-33.69140625,-39.0625,48.828125,0.0,0,0
1766589212.4326541,1766589212.3729532,-83.984375,-32.2265625,-41.015625,-55.6640625,0.0,0,0
1766589212.432698,1766589212.376851,-94.23828125,-37.109375,-44.921875,-65.4296875,0.0,0,0
1766589212.4327092,1766589212.3807487,-36.62109375,-37.109375,-36.1328125,60.05859375,0.0,0,0
1766589212.432804,1766589212.3846467,5.859375,-27.83203125,-25.87890625,135.25390625,0.0,0,0
1766589212.432821,1766589212.3885446,-25.390625,-28.3203125,-30.2734375,23.4375,0.0,0,0
1766589212.4328299,1766589212.3924425,-73.73046875,-28.80859375,-29.296875,-102.5390625,0.0,0,0
1766589212.432839,1766589212.3963404,-83.0078125,-36.62109375,-34.1796875,-138.671875,0.0,0,0
1766589212.432876,1766589212.4002383,-31.73828125,-37.59765625,-40.0390625,-5.37109375,0.0,0,0
1766589212.4329002,1766589212.404136,13.18359375,-29.296875,-36.1328125,108.3984375,0.0,0,0
1766589212.4329238,1766589212.4080338,-7.32421875,-28.80859375,-32.71484375,30.76171875,0.0,0,0
1766589212.432951,1766589212.4119318,-56.640625,-22.94921875,-29.78515625,-109.375,0.0,0,0
1766589212.4329731,1766589212.4158297,-68.359375,-22.4609375,-28.80859375,-171.38671875,0.0,0,0
1766589212.49673,1766589212.4197817,-19.04296875,-21.484375,-22.94921875,-56.15234375,0.0,0,0
1766589212.496774,1766589212.4236796,22.94921875,-18.5546875,-18.5546875,54.19921875,0.0,0,0
1766589212.496785,1766589212.4275775,7.8125,-21.97265625,-24.90234375,3.41796875,0.0,0,0
1766589212.4967942,1766589212.4314754,-53.22265625,-27.83203125,-31.25,-134.765625,0.0,0,0
1766589212.496803,1766589212.4353733,-84.47265625,-31.73828125,-32.2265625,-186.5234375,0.0,0,0
1766589212.496811,1766589212.4392712,-41.9921875,-30.76171875,-24.90234375,-68.84765625,0.0,0,0
1766589212.496819,1766589212.4431689,19.53125,-25.87890625,-21.484375,74.70703125,0.0,0,0
1766589212.4968278,1766589212.4470668,15.625,-25.390625,-26.85546875,53.22265625,0.0,0,0
1766589212.4968371,1766589212.4509647,-40.52734375,-30.76171875,-32.71484375,-125.0,0.0,0,0
1766589212.496845,1766589212.4548626,-75.1953125,-33.69140625,-30.2734375,-169.43359375,0.0,0,0
1766589212.496854,1766589212.4587605,-48.33984375,-32.71484375,-29.296875,-41.50390625,0.0,0,0
1766589212.496862,1766589212.4626584,-3.90625,-29.78515625,-27.34375,83.984375,0.0,0,0
1766589212.537708,1766589212.4666677,-1.953125,-26.3671875,-24.90234375,94.23828125,0.0,0,0
1766589212.5378401,1766589212.4705656,-42.48046875,-23.4375,-27.34375,-40.0390625,0.0,0,0
1766589212.537907,1766589212.4744635,-80.56640625,-24.90234375,-33.203125,-126.953125,0.0,0,0
1766589212.537925,1766589212.4783614,-56.15234375,-27.34375,-31.25,-54.6875,0.0,0,0
1766589212.537993,1766589212.4822593,7.8125,-22.94921875,-20.99609375,81.54296875,0.0,0,0
1766589212.5380301,1766589212.4861572,26.85546875,-20.01953125,-15.625,107.421875,0.0,0,0
1766589212.538079,1766589212.490055,-24.90234375,-31.73828125,-32.71484375,-53.7109375,0.0,0,0
1766589212.5382028,1766589212.493953,-66.40625,-33.203125,-38.0859375,-151.85546875,0.0,0,0
1766589212.538352,1766589212.497851,-50.78125,-22.4609375,-27.34375,-85.44921875,0.0,0,0
1766589212.538414,1766589212.5017488,14.16015625,-19.04296875,-28.80859375,43.9453125,0.0,0,0
1766589212.538526,1766589212.5056467,33.203125,-15.625,-29.296875,102.05078125,0.0,0,0
1766589212.5386581,1766589212.5095446,-26.3671875,-21.484375,-33.203125,-20.01953125,0.0,0,0
1766589212.583745,1766589212.5135458,-72.265625,-31.73828125,-39.55078125,-148.92578125,0.0,0,0
1766589212.583835,1766589212.5174437,-75.68359375,-28.80859375,-38.57421875,-135.7421875,0.0,0,0
1766589212.583999,1766589212.5213416,-20.99609375,-23.4375,-28.3203125,-0.9765625,0.0,0,0
1766589212.585396,1766589212.5252395,18.5546875,-21.484375,-24.4140625,55.6640625,0.0,0,0
1766589212.587231,1766589212.5291374,-17.08984375,-25.390625,-32.71484375,-68.359375,0.0,0,0
1766589212.587303,1766589212.5330353,-67.3828125,-28.3203125,-36.1328125,-198.2421875,0.0,0,0
1766589212.587633,1766589212.5369332,-67.87109375,-25.390625,-35.64453125,-175.29296875,0.0,0,0
1766589212.587863,1766589212.540831,-14.6484375,-20.5078125,-31.73828125,-15.13671875,0.0,0,0
1766589212.588144,1766589212.544729,13.671875,-25.390625,-26.3671875,64.94140625,0.0,0,0
1766589212.588175,1766589212.548627,-16.6015625,-36.62109375,-23.4375,-24.90234375,0.0,0,0
1766589212.588224,1766589212.5525248,-59.5703125,-31.25,-26.85546875,-136.71875,0.0,0,0
1766589212.5886889,1766589212.5564227,-65.91796875,-20.5078125,-29.296875,-142.08984375,0.0,0,0
1766589212.62784,1766589212.5604153,-26.3671875,-20.99609375,-34.66796875,-15.13671875,0.0,0,0
1766589212.627895,1766589212.5643132,10.7421875,-20.99609375,-37.109375,69.3359375,0.0,0,0
1766589212.627916,1766589212.568211,-9.27734375,-16.6015625,-29.78515625,3.41796875,0.0,0,0
1766589212.6280499,1766589212.572109,-66.40625,-20.01953125,-27.34375,-128.41796875,0.0,0,0
1766589212.6280909,1766589212.576007,-85.9375,-24.4140625,-32.71484375,-177.24609375,0.0,0,0
1766589212.628542,1766589212.5799048,-29.78515625,-13.18359375,-21.484375,-25.87890625,0.0,0,0
1766589212.628598,1766589212.5838027,26.3671875,-14.6484375,-22.4609375,91.796875,0.0,0,0
1766589212.628628,1766589212.5877006,7.32421875,-27.34375,-33.69140625,23.4375,0.0,0,0
1766589212.628654,1766589212.5915985,-56.15234375,-37.109375,-35.15625,-134.765625,0.0,0,0
1766589212.6286988,1766589212.5954964,-79.1015625,-40.52734375,-36.62109375,-194.3359375,0.0,0,0
1766589212.6287382,1766589212.5993943,-41.50390625,-28.80859375,-29.78515625,-65.91796875,0.0,0,0
1766589212.628768,1766589212.6032922,-1.953125,-25.390625,-23.92578125,56.640625,0.0,0,0
1766589212.6761348,1766589212.607296,-11.71875,-24.4140625,-26.3671875,38.0859375,0.0,0,0
1766589212.676415,1766589212.611194,-58.59375,-22.94921875,-26.85546875,-86.9140625,0.0,0,0
1766589212.676445,1766589212.6150918,-93.75,-22.4609375,-25.390625,-139.16015625,0.0,0,0
1766589212.67647,1766589212.6189897,-67.87109375,-19.04296875,-24.4140625,-22.4609375,0.0,0,0
1766589212.6766238,1766589212.6228876,-13.671875,-21.484375,-22.94921875,87.890625,0.0,0,0
1766589212.67676,1766589212.6267855,-4.39453125,-19.04296875,-18.06640625,74.21875,0.0,0,0
1766589212.6769521,1766589212.6306834,-55.6640625,-20.5078125,-23.92578125,-84.47265625,0.0,0,0
1766589212.677056,1766589212.6345813,-94.7265625,-34.1796875,-39.55078125,-189.453125,0.0,0,0
1766589212.677099,1766589212.6384792,-58.59375,-35.64453125,-37.59765625,-99.609375,0.0,0,0
1766589212.677135,1766589212.6423771,0.48828125,-26.85546875,-30.2734375,33.203125,0.0,0,0
1766589212.6771462,1766589212.6462753,15.625,-15.625,-20.01953125,80.56640625,0.0,0,0
1766589212.677166,1766589212.6501732,-36.62109375,-17.578125,-22.4609375,-60.05859375,0.0,0,0
1766589212.733353,1766589212.654214,-87.40234375,-31.73828125,-39.55078125,-184.08203125,0.0,0,0
1766589212.733391,1766589212.658112,-74.70703125,-36.1328125,-43.9453125,-113.28125,0.0,0,0
1766589212.733402,1766589212.66201,-18.5546875,-31.25,-33.203125,45.41015625,0.0,0,0
1766589212.733411,1766589212.6659079,3.41796875,-24.4140625,-23.92578125,88.37890625,0.0,0,0
1766589212.7334201,1766589212.6698058,-38.0859375,-25.87890625,-34.66796875,-58.59375,0.0,0,0
1766589212.733429,1766589212.6737037,-77.63671875,-20.99609375,-37.109375,-145.99609375,0.0,0,0
1766589212.733438,1766589212.6776016,-66.89453125,-14.16015625,-30.76171875,-104.00390625,0.0,0,0
1766589212.733446,1766589212.6814995,-16.6015625,-22.4609375,-34.1796875,18.06640625,0.0,0,0
1766589212.7334552,1766589212.6853976,11.23046875,-19.04296875,-25.390625,114.74609375,0.0,0,0
1766589212.733463,1766589212.6892955,-32.71484375,-15.13671875,-29.78515625,-10.25390625,0.0,0,0
1766589212.733472,1766589212.6931934,-82.51953125,-18.06640625,-35.64453125,-136.23046875,0.0,0,0
1766589212.73348,1766589212.6970913,-57.6171875,-15.625,-36.62109375,-101.07421875,0.0,0,0
1766589212.763466,1766589212.7010636,13.18359375,-22.94921875,-32.71484375,35.64453125,0.0,0,0
1766589212.763524,1766589212.7049618,7.8125,-26.3671875,-22.94921875,72.265625,0.0,0,0
1766589212.763535,1766589212.7088597,-58.59375,-27.83203125,-30.2734375,-64.453125,0.0,0,0
1766589212.763544,1766589212.7127576,-110.83984375,-35.15625,-34.1796875,-179.6875,0.0,0,0
1766589212.7635531,1766589212.7166555,-105.95703125,-32.71484375,-27.34375,-178.22265625,0.0,0,0
1766589212.763561,1766589212.7205534,-54.6875,-30.2734375,-23.92578125,-51.7578125,0.0,0,0
1766589212.7635698,1766589212.7244515,-22.94921875,-29.78515625,-12.6953125,56.640625,0.0,0,0
1766589212.763579,1766589212.7283494,-49.8046875,-33.203125,-10.25390625,-15.13671875,0.0,0,0
1766589212.763587,1766589212.7322474,-107.91015625,-42.96875,-25.390625,-172.8515625,0.0,0,0
1766589212.763595,1766589212.7361453,-113.28125,-40.0390625,-23.4375,-199.21875,0.0,0,0
1766589212.763648,1766589212.7400432,-60.05859375,-38.0859375,-10.25390625,-39.0625,0.0,0,0
1766589212.763677,1766589212.7439413,-14.6484375,-38.57421875,-9.765625,85.9375,0.0,0,0
1766589212.808125,1766589212.7479002,-31.25,-39.0625,-18.06640625,45.41015625,0.0,0,0
1766589212.8083332,1766589212.7517982,-87.40234375,-39.55078125,-25.87890625,-88.8671875,0.0,0,0
1766589212.808358,1766589212.755696,-113.76953125,-41.9921875,-29.296875,-133.7890625,0.0,0,0
1766589212.8083682,1766589212.7595942,-64.94140625,-44.43359375,-25.390625,-0.48828125,0.0,0,0
1766589212.808377,1766589212.763492,-12.20703125,-38.57421875,-23.4375,90.8203125,0.0,0,0
1766589212.808434,1766589212.76739,-16.11328125,-29.296875,-18.06640625,57.6171875,0.0,0,0
1766589212.808494,1766589212.771288,-64.453125,-33.69140625,-23.92578125,-67.3828125,0.0,0,0
1766589212.808536,1766589212.7751858,-92.7734375,-43.9453125,-40.52734375,-147.94921875,0.0,0,0
1766589212.808547,1766589212.779084,-46.38671875,-40.52734375,-37.59765625,-36.62109375,0.0,0,0
1766589212.808556,1766589212.7829819,4.8828125,-31.25,-28.3203125,74.21875,0.0,0,0
1766589212.808565,1766589212.7868798,-2.44140625,-26.3671875,-20.01953125,67.3828125,0.0,0,0
1766589212.808575,1766589212.7907777,-60.05859375,-31.25,-20.99609375,-73.2421875,0.0,0,0
1766589212.8684669,1766589212.7947316,-93.26171875,-37.109375,-28.80859375,-151.85546875,0.0,0,0
1766589212.8685272,1766589212.7986295,-62.98828125,-30.2734375,-31.73828125,-44.43359375,0.0,0,0
1766589212.8685398,1766589212.8025274,-3.41796875,-26.3671875,-32.71484375,67.3828125,0.0,0,0
1766589212.868591,1766589212.8064253,13.18359375,-30.2734375,-25.87890625,82.03125,0.0,0,0
1766589212.868615,1766589212.8103235,-33.69140625,-34.1796875,-23.92578125,-44.43359375,0.0,0,0
1766589212.8686259,1766589212.8142214,-72.75390625,-31.73828125,-28.3203125,-125.0,0.0,0,0
1766589212.868671,1766589212.8181193,-53.22265625,-31.73828125,-33.203125,-53.7109375,0.0,0,0
1766589212.868682,1766589212.8220172,8.30078125,-28.80859375,-30.2734375,75.1953125,0.0,0,0
1766589212.868691,1766589212.8259153,32.2265625,-23.92578125,-27.34375,109.375,0.0,0,0
1766589212.868723,1766589212.8298132,-31.73828125,-31.73828125,-35.15625,-42.48046875,0.0,0,0
1766589212.868747,1766589212.8337111,-80.56640625,-36.62109375,-39.55078125,-143.5546875,0.0,0,0
1766589212.868798,1766589212.837609,-54.6875,-39.0625,-39.55078125,-91.796875,0.0,0,0
1766589212.9136791,1766589212.8416176,0.48828125,-34.1796875,-32.71484375,49.31640625,0.0,0,0
1766589212.9137468,1766589212.8455157,30.76171875,-28.3203125,-24.90234375,119.62890625,0.0,0,0
1766589212.91377,1766589212.8494136,-18.06640625,-34.66796875,-29.78515625,1.953125,0.0,0,0
1766589212.913899,1766589212.8533115,-71.77734375,-40.0390625,-37.59765625,-126.953125,0.0,0,0
1766589212.913971,1766589212.8572097,-69.3359375,-34.1796875,-27.83203125,-94.23828125,0.0,0,0
1766589212.913999,1766589212.8611076,-12.20703125,-26.85546875,-15.625,78.125,0.0,0,0
1766589212.914298,1766589212.8650055,22.94921875,-30.2734375,-24.4140625,131.8359375,0.0,0,0
1766589212.914386,1766589212.8689036,-17.08984375,-36.1328125,-34.66796875,2.44140625,0.0,0,0
1766589212.9144561,1766589212.8728015,-68.359375,-36.62109375,-34.66796875,-99.12109375,0.0,0,0
1766589212.9147048,1766589212.8766994,-71.77734375,-40.0390625,-36.62109375,-107.421875,0.0,0,0
1766589212.915076,1766589212.8805976,-15.13671875,-36.62109375,-23.4375,29.296875,0.0,0,0
1766589212.915143,1766589212.8844955,14.16015625,-30.76171875,-23.4375,111.81640625,0.0,0,0
1766589212.9578729,1766589212.8884952,-12.20703125,-26.3671875,-27.83203125,15.13671875,0.0,0,0
1766589212.957956,1766589212.892393,-53.7109375,-22.94921875,-20.01953125,-111.81640625,0.0,0,0
1766589212.958018,1766589212.8962913,-60.05859375,-27.83203125,-28.3203125,-143.06640625,0.0,0,0
1766589212.958046,1766589212.9001892,-17.578125,-24.90234375,-21.484375,-8.7890625,0.0,0,0
1766589212.95809,1766589212.904087,-7.8125,-25.87890625,-7.8125,55.6640625,0.0,0,0
1766589212.9582112,1766589212.9079852,-38.57421875,-28.80859375,-15.625,-18.5546875,0.0,0,0
1766589212.958245,1766589212.911883,-83.0078125,-30.76171875,-32.2265625,-152.83203125,0.0,0,0
1766589212.958257,1766589212.9157813,-106.93359375,-36.62109375,-35.15625,-212.40234375,0.0,0,0
1766589212.958266,1766589212.9196792,-67.87109375,-39.55078125,-30.2734375,-74.70703125,0.0,0,0
1766589212.9583302,1766589212.923577,-22.94921875,-39.0625,-25.87890625,36.1328125,0.0,0,0
1766589212.958446,1766589212.9274752,-32.2265625,-36.62109375,-26.3671875,-14.6484375,0.0,0,0
1766589212.9584599,1766589212.9313731,-76.171875,-33.69140625,-31.25,-135.25390625,0.0,0,0
1766589213.103682,1766589212.9358058,-89.84375,-39.55078125,-37.59765625,-179.19921875,0.0,0,0
1766589213.103744,1766589212.939704,-48.33984375,-41.015625,-25.87890625,-43.45703125,0.0,0,0
1766589213.1038358,1766589212.9436018,2.9296875,-34.66796875,-20.99609375,93.75,0.0,0,0
1766589213.103882,1766589212.9475,14.16015625,-24.90234375,-21.484375,94.23828125,0.0,0,0
1766589213.1039171,1766589212.9513981,-34.66796875,-27.34375,-26.85546875,-47.36328125,0.0,0,0
1766589213.103949,1766589212.955296,-83.984375,-38.57421875,-38.57421875,-140.625,0.0,0,0
1766589213.103971,1766589212.9591942,-50.29296875,-36.62109375,-34.1796875,-28.80859375,0.0,0,0
1766589213.103997,1766589212.963092,1.46484375,-39.0625,-34.66796875,78.125,0.0,0,0
1766589213.1040058,1766589212.9669902,-11.23046875,-45.8984375,-40.0390625,63.4765625,0.0,0,0
1766589213.104034,1766589212.9708884,-59.5703125,-42.48046875,-37.109375,-83.0078125,0.0,0,0
1766589213.104157,1766589212.9747863,-85.9375,-27.83203125,-31.73828125,-172.36328125,0.0,0,0
1766589213.104169,1766589212.9786844,-64.453125,-29.296875,-32.71484375,-102.5390625,0.0,0,0
1766589213.104179,1766589212.982916,-3.41796875,-29.296875,-27.83203125,29.78515625,0.0,0,0
1766589213.104188,1766589212.9868143,15.625,-28.3203125,-24.90234375,64.94140625,0.0,0,0
1766589213.104196,1766589212.9907122,-39.55078125,-35.64453125,-33.69140625,-75.1953125,0.0,0,0
1766589213.10421,1766589212.9946103,-81.0546875,-34.1796875,-35.15625,-170.41015625,0.0,0,0
1766589213.104219,1766589212.9985085,-58.59375,-30.2734375,-29.296875,-97.65625,0.0,0,0
1766589213.104227,1766589213.0024066,2.9296875,-13.18359375,-23.4375,70.3125,0.0,0,0
1766589213.104235,1766589213.0063047,20.01953125,-8.7890625,-29.296875,104.98046875,0.0,0,0
1766589213.1042619,1766589213.0102026,-33.69140625,-21.97265625,-41.015625,-60.546875,0.0,0,0
1766589213.1043022,1766589213.0141008,-70.80078125,-28.3203125,-42.96875,-169.921875,0.0,0,0
1766589213.104317,1766589213.017999,-56.640625,-30.76171875,-39.0625,-149.4140625,0.0,0,0
1766589213.104339,1766589213.021897,-3.90625,-22.94921875,-31.25,9.27734375,0.0,0,0
1766589213.104364,1766589213.0257952,21.97265625,-18.06640625,-29.78515625,99.12109375,0.0,0,0
1766589213.1043782,1766589213.0298264,-16.6015625,-27.34375,-36.62109375,-27.83203125,0.0,0,0
1766589213.104388,1766589213.0337245,-59.5703125,-29.296875,-37.59765625,-135.7421875,0.0,0,0
1766589213.104398,1766589213.0376227,-65.91796875,-22.94921875,-35.64453125,-117.1875,0.0,0,0
1766589213.104409,1766589213.0415208,-14.6484375,-28.3203125,-33.69140625,12.6953125,0.0,0,0
1766589213.104419,1766589213.0454187,11.23046875,-33.69140625,-25.87890625,81.54296875,0.0,0,0
1766589213.1044302,1766589213.049317,-27.83203125,-27.34375,-26.3671875,-0.9765625,0.0,0,0
1766589213.104463,1766589213.053215,-67.3828125,-27.34375,-37.59765625,-102.5390625,0.0,0,0
1766589213.104474,1766589213.0571132,-71.2890625,-35.15625,-42.96875,-126.46484375,0.0,0,0
1766589213.1044831,1766589213.0610113,-18.06640625,-38.0859375,-30.76171875,0.9765625,0.0,0,0
1766589213.104511,1766589213.0649095,25.390625,-28.80859375,-18.5546875,99.609375,0.0,0,0
1766589213.1045382,1766589213.0688076,-18.06640625,-28.3203125,-22.4609375,27.34375,0.0,0,0
1766589213.1045592,1766589213.0727055,-79.58984375,-36.1328125,-40.52734375,-110.83984375,0.0,0,0
1766589213.140706,1766589213.0766773,-77.63671875,-34.66796875,-44.43359375,-146.97265625,0.0,0,0
1766589213.140919,1766589213.0805752,-23.92578125,-33.69140625,-35.64453125,-11.71875,0.0,0,0
1766589213.140953,1766589213.0844734,20.5078125,-29.78515625,-30.2734375,102.05078125,0.0,0,0
1766589213.1410828,1766589213.0883715,12.20703125,-23.92578125,-26.85546875,38.57421875,0.0,0,0
1766589213.1411788,1766589213.0922697,-40.0390625,-33.69140625,-36.62109375,-127.44140625,0.0,0,0
1766589213.141311,1766589213.0961678,-48.33984375,-33.69140625,-38.0859375,-148.4375,0.0,0,0
1766589213.141557,1766589213.100066,2.9296875,-19.04296875,-21.484375,32.71484375,0.0,0,0
1766589213.141612,1766589213.103964,26.3671875,-36.62109375,-32.2265625,99.609375,0.0,0,0
1766589213.141644,1766589213.1078622,16.11328125,-42.48046875,-32.71484375,66.40625,0.0,0,0
1766589213.141679,1766589213.1117604,-28.80859375,-28.80859375,-28.3203125,-55.17578125,0.0,0,0
1766589213.14172,1766589213.1156585,-62.5,-29.78515625,-33.69140625,-141.11328125,0.0,0,0
1766589213.1426618,1766589213.1195564,-25.87890625,-31.25,-30.2734375,-28.3203125,0.0,0,0
1766589213.184918,1766589213.1235294,14.6484375,-33.69140625,-33.69140625,74.70703125,0.0,0,0
1766589213.184952,1766589213.1274276,10.7421875,-34.66796875,-37.59765625,53.22265625,0.0,0,0
1766589213.185005,1766589213.1313257,-28.3203125,-34.66796875,-35.15625,-83.984375,0.0,0,0
1766589213.185104,1766589213.1352239,-65.4296875,-36.1328125,-39.0625,-144.53125,0.0,0,0
1766589213.1852171,1766589213.139122,-39.55078125,-37.59765625,-34.66796875,-43.45703125,0.0,0,0
1766589213.185444,1766589213.1430202,16.11328125,-27.34375,-17.578125,97.65625,0.0,0,0
1766589213.185481,1766589213.146918,5.859375,-26.85546875,-24.90234375,92.28515625,0.0,0,0
1766589213.1855109,1766589213.1508162,-56.15234375,-36.1328125,-36.62109375,-85.44921875,0.0,0,0
1766589213.185552,1766589213.1547143,-88.37890625,-37.59765625,-37.59765625,-180.6640625,0.0,0,0
1766589213.185594,1766589213.1586125,-53.7109375,-31.25,-34.66796875,-92.7734375,0.0,0,0
1766589213.1856241,1766589213.1625106,4.39453125,-21.484375,-29.296875,41.50390625,0.0,0,0
1766589213.185649,1766589213.1664088,24.90234375,-23.92578125,-27.34375,75.1953125,0.0,0,0
1766589213.2410939,1766589213.1703565,-26.3671875,-28.3203125,-36.1328125,-34.66796875,0.0,0,0
1766589213.241173,1766589213.1742547,-83.0078125,-29.296875,-42.48046875,-115.72265625,0.0,0,0
1766589213.241195,1766589213.1781528,-67.87109375,-27.34375,-39.0625,-62.98828125,0.0,0,0
1766589213.241214,1766589213.182051,-14.16015625,-32.2265625,-39.0625,64.94140625,0.0,0,0
1766589213.241239,1766589213.185949,8.30078125,-30.76171875,-34.66796875,129.39453125,0.0,0,0
1766589213.241266,1766589213.1898472,-29.78515625,-19.53125,-32.71484375,4.39453125,0.0,0,0
1766589213.241278,1766589213.1937454,-81.54296875,-24.4140625,-40.52734375,-135.25390625,0.0,0,0
1766589213.241303,1766589213.1976435,-82.51953125,-27.83203125,-40.0390625,-134.765625,0.0,0,0
1766589213.2413208,1766589213.2015417,-22.94921875,-26.85546875,-33.203125,-6.34765625,0.0,0,0
1766589213.2413309,1766589213.2054398,0.0,-27.34375,-28.3203125,69.3359375,0.0,0,0
1766589213.241376,1766589213.209338,-41.50390625,-24.90234375,-30.76171875,-13.18359375,0.0,0,0
1766589213.241388,1766589213.213236,-78.61328125,-22.94921875,-31.73828125,-108.88671875,0.0,0,0
1766589213.286747,1766589213.2171762,-73.2421875,-20.01953125,-22.4609375,-111.328125,0.0,0,0
1766589213.286786,1766589213.2210743,-16.11328125,-17.08984375,-17.08984375,34.66796875,0.0,0,0
1766589213.2868512,1766589213.2249725,21.484375,-14.16015625,-17.08984375,125.0,0.0,0,0
1766589213.2869172,1766589213.2288706,7.32421875,-15.625,-27.83203125,27.83203125,0.0,0,0
1766589213.2869382,1766589213.2327688,-33.203125,-15.13671875,-33.69140625,-104.98046875,0.0,0,0
1766589213.286973,1766589213.236667,-60.05859375,-21.484375,-26.3671875,-142.578125,0.0,0,0
1766589213.287026,1766589213.240565,-21.484375,-20.5078125,-15.625,-5.37109375,0.0,0,0
1766589213.287036,1766589213.2444632,16.6015625,-14.6484375,-9.765625,96.19140625,0.0,0,0
1766589213.287138,1766589213.2483613,-2.44140625,-21.484375,-15.625,32.71484375,0.0,0,0
1766589213.2871501,1766589213.2522595,-59.5703125,-24.90234375,-17.578125,-109.375,0.0,0,0
1766589213.287158,1766589213.2561576,-84.47265625,-25.87890625,-20.99609375,-172.36328125,0.0,0,0
1766589213.287207,1766589213.2600558,-42.96875,-28.3203125,-20.99609375,-46.38671875,0.0,0,0
1766589213.332491,1766589213.2640562,5.859375,-30.2734375,-11.71875,72.75390625,0.0,0,0
1766589213.332523,1766589213.2679543,-11.23046875,-31.73828125,-7.8125,33.69140625,0.0,0,0
1766589213.332533,1766589213.2718525,-74.70703125,-41.9921875,-13.671875,-83.0078125,0.0,0,0
1766589213.332543,1766589213.2757506,-92.7734375,-47.36328125,-22.94921875,-143.5546875,0.0,0,0
1766589213.332552,1766589213.2796488,-49.31640625,-46.875,-22.4609375,-42.96875,0.0,0,0
1766589213.3325598,1766589213.283547,-0.48828125,-38.57421875,-13.671875,94.7265625,0.0,0,0
1766589213.332591,1766589213.287445,4.39453125,-31.25,-6.34765625,88.37890625,0.0,0,0
1766589213.3326,1766589213.2913432,-41.9921875,-34.1796875,-20.5078125,-62.01171875,0.0,0,0
1766589213.332609,1766589213.2952414,-78.125,-39.0625,-31.25,-131.8359375,0.0,0,0
1766589213.332617,1766589213.2991395,-49.31640625,-44.43359375,-28.3203125,-29.296875,0.0,0,0
1766589213.33263,1766589213.3030376,3.90625,-39.0625,-23.4375,91.796875,0.0,0,0
1766589213.332639,1766589213.3069358,6.8359375,-36.62109375,-14.16015625,83.984375,0.0,0,0
1766589213.377475,1766589213.3109248,-41.015625,-39.0625,-21.484375,-62.98828125,0.0,0,0
1766589213.3775082,1766589213.314823,-90.33203125,-42.96875,-32.2265625,-137.20703125,0.0,0,0
1766589213.3775191,1766589213.318721,-58.10546875,-37.59765625,-19.04296875,-22.94921875,0.0,0,0
1766589213.377606,1766589213.3226192,3.41796875,-26.85546875,-15.13671875,95.703125,0.0,0,0
1766589213.377616,1766589213.3265173,9.27734375,-22.94921875,-17.08984375,109.86328125,0.0,0,0
1766589213.3776681,1766589213.3304155,-36.1328125,-23.4375,-22.94921875,-32.71484375,0.0,0,0
1766589213.3776882,1766589213.3343136,-74.21875,-27.83203125,-31.25,-150.87890625,0.0,0,0
1766589213.377698,1766589213.3382118,-57.6171875,-28.3203125,-30.76171875,-88.37890625,0.0,0,0
1766589213.377707,1766589213.34211,0.48828125,-28.3203125,-28.3203125,50.29296875,0.0,0,0
1766589213.377716,1766589213.346008,23.92578125,-26.85546875,-25.390625,95.703125,0.0,0,0
1766589213.377725,1766589213.3499062,-20.5078125,-19.53125,-25.390625,-33.203125,0.0,0,0
1766589213.3777332,1766589213.3538043,-72.75390625,-20.99609375,-28.80859375,-137.20703125,0.0,0,0
1766589213.422397,1766589213.3577847,-64.94140625,-28.80859375,-28.80859375,-104.00390625,0.0,0,0
1766589213.422441,1766589213.361683,-5.37109375,-29.78515625,-20.5078125,55.6640625,0.0,0,0
1766589213.422451,1766589213.365581,20.99609375,-21.484375,-14.6484375,131.8359375,0.0,0,0
1766589213.4224598,1766589213.3694794,-28.80859375,-23.92578125,-28.3203125,-8.7890625,0.0,0,0
1766589213.4224691,1766589213.3733776,-81.54296875,-34.1796875,-41.9921875,-148.92578125,0.0,0,0
1766589213.4224782,1766589213.3772757,-66.89453125,-33.69140625,-35.64453125,-143.5546875,0.0,0,0
1766589213.422487,1766589213.3811738,-2.9296875,-21.484375,-15.625,37.109375,0.0,0,0
1766589213.4225159,1766589213.385072,22.4609375,-25.390625,-16.11328125,114.2578125,0.0,0,0
1766589213.4225368,1766589213.3889701,-6.8359375,-34.66796875,-26.3671875,2.44140625,0.0,0,0
1766589213.422548,1766589213.3928683,-56.15234375,-33.69140625,-30.2734375,-125.48828125,0.0,0,0
1766589213.4225569,1766589213.3967664,-59.5703125,-31.25,-29.78515625,-159.66796875,0.0,0,0
1766589213.4225652,1766589213.4006648,-1.46484375,-32.2265625,-25.87890625,-14.6484375,0.0,0,0
1766589213.467561,1766589213.4046369,38.57421875,-30.2734375,-24.90234375,91.796875,0.0,0,0
1766589213.467594,1766589213.408535,12.20703125,-29.296875,-27.83203125,25.87890625,0.0,0,0
1766589213.4676049,1766589213.4124331,-57.12890625,-28.3203125,-34.1796875,-94.7265625,0.0,0,0
1766589213.467614,1766589213.4163313,-83.0078125,-26.3671875,-37.109375,-147.4609375,0.0,0,0
1766589213.467623,1766589213.4202294,-39.55078125,-31.73828125,-37.59765625,-22.94921875,0.0,0,0
1766589213.467631,1766589213.4241276,6.8359375,-25.390625,-26.85546875,102.5390625,0.0,0,0
1766589213.4676402,1766589213.428026,-3.90625,-23.4375,-23.4375,61.5234375,0.0,0,0
1766589213.467649,1766589213.431924,-50.78125,-34.66796875,-35.64453125,-83.0078125,0.0,0,0
1766589213.46767,1766589213.4358222,-64.94140625,-35.64453125,-41.50390625,-139.6484375,0.0,0,0
1766589213.467691,1766589213.4397204,-21.484375,-31.25,-33.69140625,-24.90234375,0.0,0,0
1766589213.467701,1766589213.4436185,11.23046875,-29.78515625,-29.296875,65.4296875,0.0,0,0
1766589213.4677088,1766589213.4475167,2.44140625,-28.3203125,-28.3203125,44.43359375,0.0,0,0
1766589213.5127501,1766589213.4514806,-41.015625,-31.73828125,-32.2265625,-89.35546875,0.0,0,0
1766589213.5128279,1766589213.455379,-70.80078125,-35.15625,-34.1796875,-154.296875,0.0,0,0
1766589213.5128388,1766589213.4592772,-29.296875,-28.3203125,-21.97265625,-39.55078125,0.0,0,0
1766589213.5128489,1766589213.4631753,11.23046875,-30.76171875,-25.87890625,68.359375,0.0,0,0
1766589213.512903,1766589213.4670734,7.8125,-35.15625,-29.296875,65.4296875,0.0,0,0
1766589213.512924,1766589213.4709716,-47.36328125,-29.78515625,-31.73828125,-74.21875,0.0,0,0
1766589213.513011,1766589213.47487,-90.33203125,-29.78515625,-36.62109375,-146.97265625,0.0,0,0
1766589213.513073,1766589213.478768,-56.640625,-39.55078125,-40.52734375,-51.26953125,0.0,0,0
1766589213.513104,1766589213.4826663,0.0,-46.875,-38.57421875,54.19921875,0.0,0,0
1766589213.513144,1766589213.4865644,6.8359375,-41.015625,-29.296875,64.453125,0.0,0,0
1766589213.513203,1766589213.4904625,-51.26953125,-41.9921875,-33.69140625,-71.77734375,0.0,0,0
1766589213.513225,1766589213.494361,-87.890625,-39.55078125,-38.57421875,-162.59765625,0.0,0,0
1766589213.557475,1766589213.4983172,-59.08203125,-27.34375,-38.0859375,-79.1015625,0.0,0,0
1766589213.557508,1766589213.5022154,-10.7421875,-25.87890625,-36.1328125,63.4765625,0.0,0,0
1766589213.5575192,1766589213.5061135,-0.9765625,-27.34375,-35.64453125,97.65625,0.0,0,0
1766589213.557528,1766589213.5100117,-53.22265625,-28.3203125,-37.59765625,-35.64453125,0.0,0,0
1766589213.557537,1766589213.51391,-98.6328125,-29.296875,-41.015625,-148.4375,0.0,0,0
1766589213.557545,1766589213.5178082,-70.80078125,-24.90234375,-33.203125,-105.95703125,0.0,0,0
1766589213.557554,1766589213.5217063,-13.671875,-26.85546875,-27.34375,36.62109375,0.0,0,0
1766589213.557562,1766589213.5256045,0.9765625,-32.71484375,-26.85546875,73.73046875,0.0,0,0
1766589213.5575712,1766589213.5295026,-36.62109375,-32.2265625,-29.78515625,-57.6171875,0.0,0,0
1766589213.557579,1766589213.533401,-80.078125,-29.296875,-31.73828125,-140.13671875,0.0,0,0
1766589213.557587,1766589213.5372992,-75.1953125,-25.390625,-32.2265625,-109.86328125,0.0,0,0
1766589213.557596,1766589213.5411973,-12.20703125,-25.390625,-22.94921875,38.0859375,0.0,0,0
1766589213.662218,1766589213.545401,20.5078125,-25.87890625,-16.11328125,119.140625,0.0,0,0
1766589213.662252,1766589213.5492992,-20.99609375,-28.3203125,-24.4140625,1.46484375,0.0,0,0
1766589213.662281,1766589213.5531976,-73.2421875,-26.85546875,-31.73828125,-124.0234375,0.0,0,0
1766589213.662302,1766589213.5570958,-76.66015625,-21.97265625,-31.25,-119.62890625,0.0,0,0
1766589213.662312,1766589213.560994,-29.296875,-17.08984375,-29.78515625,30.2734375,0.0,0,0
1766589213.6623209,1766589213.5648923,6.34765625,-12.20703125,-23.92578125,110.83984375,0.0,0,0
1766589213.6623302,1766589213.5687904,-19.04296875,-20.5078125,-31.25,4.39453125,0.0,0,0
1766589213.662339,1766589213.5726888,-64.94140625,-25.87890625,-33.69140625,-104.4921875,0.0,0,0
1766589213.662347,1766589213.576587,-71.2890625,-22.4609375,-27.83203125,-112.3046875,0.0,0,0
1766589213.662356,1766589213.580485,-28.80859375,-28.3203125,-30.2734375,15.13671875,0.0,0,0
1766589213.662364,1766589213.5843835,13.671875,-29.78515625,-28.80859375,112.3046875,0.0,0,0
1766589213.662373,1766589213.5882816,-2.9296875,-29.296875,-29.78515625,60.05859375,0.0,0,0
1766589213.666202,1766589213.5922976,-62.5,-24.90234375,-29.296875,-59.08203125,0.0,0,0
1766589213.6662242,1766589213.5961957,-91.796875,-31.25,-36.1328125,-129.39453125,0.0,0,0
1766589213.666235,1766589213.600094,-34.1796875,-33.203125,-28.3203125,0.9765625,0.0,0,0
1766589213.666244,1766589213.6039922,24.4140625,-26.3671875,-15.625,127.9296875,0.0,0,0
1766589213.666253,1766589213.6078906,4.39453125,-32.71484375,-25.87890625,76.171875,0.0,0,0
1766589213.666278,1766589213.6117887,-50.29296875,-26.85546875,-34.1796875,-63.4765625,0.0,0,0
1766589213.666293,1766589213.6156871,-77.1484375,-29.78515625,-37.59765625,-129.8828125,0.0,0,0
1766589213.666302,1766589213.6195853,-38.57421875,-33.203125,-32.2265625,-14.16015625,0.0,0,0
1766589213.666311,1766589213.6234834,9.765625,-28.80859375,-30.2734375,101.5625,0.0,0,0
1766589213.666338,1766589213.6273818,5.859375,-37.59765625,-32.71484375,66.40625,0.0,0,0
1766589213.666357,1766589213.63128,-46.38671875,-38.57421875,-33.203125,-83.984375,0.0,0,0
1766589213.666383,1766589213.6351783,-80.078125,-33.203125,-38.0859375,-162.59765625,0.0,0,0
1766589213.7071092,1766589213.639177,-49.31640625,-29.296875,-34.1796875,-70.3125,0.0,0,0
1766589213.7071471,1766589213.6430752,12.6953125,-26.3671875,-21.97265625,68.84765625,0.0,0,0
1766589213.70716,1766589213.6469736,14.6484375,-27.34375,-18.5546875,77.1484375,0.0,0,0
1766589213.70717,1766589213.6508718,-47.8515625,-31.73828125,-26.3671875,-81.54296875,0.0,0,0
1766589213.707181,1766589213.6547701,-80.078125,-36.62109375,-35.64453125,-193.359375,0.0,0,0
1766589213.7071922,1766589213.6586683,-47.36328125,-29.296875,-29.78515625,-99.12109375,0.0,0,0
1766589213.707202,1766589213.6625667,-0.9765625,-22.4609375,-31.73828125,43.9453125,0.0,0,0
1766589213.7073128,1766589213.6664648,13.18359375,-19.53125,-35.64453125,66.89453125,0.0,0,0
1766589213.7073228,1766589213.6703632,-25.390625,-19.53125,-27.83203125,-62.01171875,0.0,0,0
1766589213.7073312,1766589213.6742613,-80.56640625,-38.0859375,-34.66796875,-187.01171875,0.0,0,0
1766589213.70734,1766589213.6781597,-71.2890625,-42.96875,-34.1796875,-120.1171875,0.0,0,0
1766589213.7073479,1766589213.6820579,-5.37109375,-25.87890625,-21.484375,56.15234375,0.0,0,0
1766589213.752223,1766589213.6860483,17.578125,-22.4609375,-19.53125,118.1640625,0.0,0,0
1766589213.7522519,1766589213.6899464,-43.9453125,-28.80859375,-30.76171875,-6.34765625,0.0,0,0
1766589213.7522619,1766589213.6938448,-83.0078125,-32.2265625,-43.9453125,-112.79296875,0.0,0,0
1766589213.7522712,1766589213.697743,-54.6875,-32.2265625,-40.52734375,-67.3828125,0.0,0,0
1766589213.752279,1766589213.7016413,6.34765625,-25.390625,-28.3203125,90.8203125,0.0,0,0
1766589213.752288,1766589213.7055395,26.85546875,-27.34375,-28.3203125,142.08984375,0.0,0,0
1766589213.752296,1766589213.7094378,-12.20703125,-30.76171875,-28.80859375,27.83203125,0.0,0,0
1766589213.7523048,1766589213.7133362,-69.82421875,-31.73828125,-31.25,-116.2109375,0.0,0,0
1766589213.752314,1766589213.7172344,-91.30859375,-49.8046875,-39.0625,-149.90234375,0.0,0,0
1766589213.752335,1766589213.7211328,-32.2265625,-48.33984375,-31.25,-0.9765625,0.0,0,0
1766589213.7523499,1766589213.725031,11.71875,-27.34375,-18.5546875,81.54296875,0.0,0,0
1766589213.752372,1766589213.7289293,-22.94921875,-30.76171875,-24.4140625,-25.87890625,0.0,0,0
1766589213.80019,1766589213.732914,-80.078125,-32.71484375,-33.69140625,-155.2734375,0.0,0,0
1766589213.800216,1766589213.736812,-87.40234375,-30.2734375,-29.78515625,-164.0625,0.0,0,0
1766589213.800225,1766589213.7407105,-36.1328125,-23.92578125,-24.4140625,5.37109375,0.0,0,0
1766589213.800233,1766589213.7446086,5.859375,-20.01953125,-21.97265625,110.3515625,0.0,0,0
1766589213.800242,1766589213.748507,-11.71875,-26.85546875,-22.4609375,10.7421875,0.0,0,0
1766589213.80025,1766589213.7524054,-58.10546875,-28.3203125,-19.04296875,-133.7890625,0.0,0,0
1766589213.800259,1766589213.7563035,-69.82421875,-20.01953125,-21.97265625,-176.26953125,0.0,0,0
1766589213.800267,1766589213.760202,-21.484375,-24.4140625,-29.296875,-49.8046875,0.0,0,0
1766589213.8002748,1766589213.7641,24.90234375,-30.2734375,-26.85546875,52.734375,0.0,0,0
1766589213.800283,1766589213.7679985,11.23046875,-20.01953125,-22.94921875,0.9765625,0.0,0,0
1766589213.800292,1766589213.7718966,-40.0390625,-22.4609375,-27.83203125,-146.97265625,0.0,0,0
1766589213.8003001,1766589213.775795,-67.87109375,-29.78515625,-36.1328125,-206.0546875,0.0,0,0
1766589213.8423092,1766589213.7797692,-32.2265625,-31.25,-33.69140625,-77.1484375,0.0,0,0
1766589213.84236,1766589213.7836676,16.6015625,-24.90234375,-15.13671875,55.17578125,0.0,0,0
1766589213.8423722,1766589213.7875657,9.27734375,-23.92578125,-10.7421875,36.1328125,0.0,0,0
1766589213.8423831,1766589213.791464,-43.45703125,-28.3203125,-22.94921875,-116.69921875,0.0,0,0
1766589213.842394,1766589213.7953625,-73.2421875,-23.92578125,-26.3671875,-185.05859375,0.0,0,0
1766589213.8424041,1766589213.7992606,-42.48046875,-17.08984375,-19.04296875,-83.0078125,0.0,0,0
1766589213.842415,1766589213.803159,5.37109375,-13.671875,-18.06640625,35.15625,0.0,0,0
1766589213.842425,1766589213.8070574,10.25390625,-23.92578125,-25.87890625,35.64453125,0.0,0,0
1766589213.8424609,1766589213.8109555,-40.0390625,-33.203125,-28.3203125,-99.12109375,0.0,0,0
1766589213.842474,1766589213.814854,-75.1953125,-28.80859375,-32.2265625,-180.17578125,0.0,0,0
1766589213.842515,1766589213.818752,-40.52734375,-23.4375,-30.2734375,-71.2890625,0.0,0,0
1766589213.8425322,1766589213.8226504,20.99609375,-16.6015625,-16.11328125,83.49609375,0.0,0,0
1766589213.8888068,1766589213.8266163,37.109375,-10.25390625,-13.18359375,98.6328125,0.0,0,0
1766589213.888837,1766589213.8305144,-16.6015625,-11.23046875,-23.4375,-53.22265625,0.0,0,0
1766589213.888847,1766589213.8344128,-66.89453125,-18.5546875,-29.296875,-146.97265625,0.0,0,0
1766589213.8888562,1766589213.8383112,-53.22265625,-19.53125,-24.90234375,-76.171875,0.0,0,0
1766589213.888864,1766589213.8422093,0.0,-20.5078125,-22.94921875,67.87109375,0.0,0,0
1766589213.8888729,1766589213.8461077,20.01953125,-16.6015625,-17.578125,142.578125,0.0,0,0
1766589213.888881,1766589213.850006,-34.1796875,-16.6015625,-23.4375,16.6015625,0.0,0,0
1766589213.88889,1766589213.8539042,-86.9140625,-31.73828125,-37.59765625,-117.67578125,0.0,0,0
1766589213.8888981,1766589213.8578026,-70.3125,-31.73828125,-36.1328125,-108.3984375,0.0,0,0
1766589213.888907,1766589213.8617008,-15.625,-25.87890625,-29.78515625,27.83203125,0.0,0,0
1766589213.888915,1766589213.8655992,13.671875,-28.3203125,-21.484375,107.421875,0.0,0,0
1766589213.888926,1766589213.8694975,-20.01953125,-39.55078125,-29.78515625,-15.625,0.0,0,0
1766589213.932367,1766589213.8734524,-68.84765625,-35.64453125,-37.109375,-165.0390625,0.0,0,0
1766589213.932405,1766589213.8773506,-78.125,-28.3203125,-37.59765625,-150.390625,0.0,0,0
1766589213.932419,1766589213.881249,-17.578125,-19.04296875,-26.85546875,28.80859375,0.0,0,0
1766589213.9324312,1766589213.8851473,26.85546875,-14.16015625,-16.6015625,91.796875,0.0,0,0
1766589213.932443,1766589213.8890455,-16.11328125,-29.296875,-33.69140625,-43.9453125,0.0,0,0
1766589213.9324548,1766589213.8929439,-68.84765625,-34.1796875,-33.69140625,-140.625,0.0,0,0
1766589213.932466,1766589213.8968422,-73.73046875,-39.0625,-33.69140625,-121.09375,0.0,0,0
1766589213.932478,1766589213.9007404,-14.16015625,-39.0625,-34.1796875,32.71484375,0.0,0,0
1766589213.932489,1766589213.9046388,34.1796875,-30.2734375,-27.83203125,132.8125,0.0,0,0
1766589213.9325,1766589213.9085371,6.8359375,-30.2734375,-30.2734375,57.6171875,0.0,0,0
1766589213.932511,1766589213.9124353,-43.9453125,-25.87890625,-28.3203125,-53.22265625,0.0,0,0
1766589213.932522,1766589213.9163337,-44.921875,-22.94921875,-36.1328125,-87.40234375,0.0,0,0
1766589213.9938402,1766589213.9202812,5.859375,-22.4609375,-33.69140625,64.94140625,0.0,0,0
1766589213.993909,1766589213.9241796,35.15625,-24.4140625,-29.78515625,178.22265625,0.0,0,0
1766589213.99392,1766589213.928078,0.48828125,-33.203125,-39.0625,97.65625,0.0,0,0
1766589213.993929,1766589213.9319763,-59.08203125,-30.76171875,-38.0859375,-24.90234375,0.0,0,0
1766589213.993938,1766589213.9358745,-88.37890625,-32.2265625,-44.921875,-97.16796875,0.0,0,0
1766589213.993946,1766589213.9397728,-50.29296875,-26.85546875,-35.64453125,13.18359375,0.0,0,0
1766589213.9939551,1766589213.9436712,-0.9765625,-23.4375,-27.34375,121.58203125,0.0,0,0
1766589213.993963,1766589213.9475694,-5.859375,-28.3203125,-26.85546875,58.10546875,0.0,0,0
1766589213.9939709,1766589213.9514678,-54.19921875,-37.109375,-32.71484375,-98.6328125,0.0,0,0
1766589213.99398,1766589213.9553661,-78.125,-40.0390625,-35.64453125,-180.17578125,0.0,0,0
1766589213.993988,1766589213.9592643,-49.31640625,-34.1796875,-27.34375,-58.10546875,0.0,0,0
1766589213.993997,1766589213.9631627,-18.06640625,-29.78515625,-26.85546875,63.4765625,0.0,0,0
1766589214.0362601,1766589213.9671016,-17.08984375,-30.2734375,-34.66796875,32.2265625,0.0,0,0
1766589214.0362859,1766589213.9709997,-58.59375,-31.73828125,-35.64453125,-106.93359375,0.0,0,0
1766589214.036295,1766589213.974898,-89.84375,-22.94921875,-33.69140625,-158.203125,0.0,0,0
1766589214.0363038,1766589213.9787965,-53.22265625,-19.53125,-31.73828125,-52.734375,0.0,0,0
1766589214.036313,1766589213.9826946,3.90625,-25.390625,-33.69140625,61.03515625,0.0,0,0
1766589214.036321,1766589213.986593,17.578125,-21.484375,-30.2734375,80.56640625,0.0,0,0
1766589214.03633,1766589213.9904914,-40.0390625,-19.53125,-34.66796875,-84.47265625,0.0,0,0
1766589214.036339,1766589213.9943898,-84.9609375,-24.90234375,-45.8984375,-196.2890625,0.0,0,0
1766589214.036347,1766589213.998288,-60.05859375,-23.92578125,-39.55078125,-91.30859375,0.0,0,0
1766589214.036355,1766589214.0021863,-15.625,-19.53125,-31.25,62.01171875,0.0,0,0
1766589214.0363631,1766589214.0060847,-8.7890625,-21.484375,-26.3671875,101.07421875,0.0,0,0
1766589214.036437,1766589214.0099828,-59.5703125,-28.80859375,-32.71484375,-38.0859375,0.0,0,0
1766589214.0823638,1766589214.013977,-104.4921875,-32.2265625,-37.59765625,-114.2578125,0.0,0,0
1766589214.0823932,1766589214.0178754,-93.26171875,-32.71484375,-38.0859375,-57.12890625,0.0,0,0
1766589214.0824032,1766589214.0217738,-43.45703125,-36.62109375,-40.0390625,46.875,0.0,0,0
1766589214.082412,1766589214.0256722,-7.8125,-29.78515625,-27.83203125,106.93359375,0.0,0,0
1766589214.082432,1766589214.0295703,-34.1796875,-25.87890625,-21.484375,-36.1328125,0.0,0,0
1766589214.082446,1766589214.0334687,-89.84375,-25.87890625,-26.3671875,-195.3125,0.0,0,0
1766589214.0824552,1766589214.037367,-86.42578125,-19.53125,-29.78515625,-160.15625,0.0,0,0
1766589214.082463,1766589214.0412655,-29.296875,-25.390625,-31.25,4.39453125,0.0,0,0
1766589214.0824971,1766589214.0451636,1.46484375,-25.390625,-26.3671875,73.2421875,0.0,0,0
1766589214.082519,1766589214.049062,-38.0859375,-26.3671875,-35.15625,-61.03515625,0.0,0,0
1766589214.082531,1766589214.0529604,-94.7265625,-30.76171875,-42.48046875,-183.10546875,0.0,0,0
1766589214.0825431,1766589214.0568588,-89.35546875,-24.90234375,-30.2734375,-137.20703125,0.0,0,0
1766589214.1274638,1766589214.0608447,-32.71484375,-22.94921875,-28.80859375,27.34375,0.0,0,0
1766589214.1274931,1766589214.064743,8.7890625,-22.94921875,-32.71484375,101.5625,0.0,0,0
1766589214.1275039,1766589214.0686414,-16.11328125,-23.4375,-28.80859375,17.08984375,0.0,0,0
1766589214.1275141,1766589214.0725398,-70.3125,-33.203125,-37.109375,-95.703125,0.0,0,0
1766589214.1275232,1766589214.076438,-79.58984375,-32.71484375,-42.48046875,-113.76953125,0.0,0,0
1766589214.127531,1766589214.0803363,-30.2734375,-26.85546875,-33.203125,23.92578125,0.0,0,0
1766589214.1275399,1766589214.0842347,4.39453125,-27.83203125,-31.25,125.9765625,0.0,0,0
1766589214.127548,1766589214.088133,-17.578125,-27.34375,-33.69140625,57.12890625,0.0,0,0
1766589214.127556,1766589214.0920315,-69.82421875,-27.34375,-40.0390625,-92.28515625,0.0,0,0
1766589214.127564,1766589214.0959299,-94.23828125,-30.2734375,-42.48046875,-139.16015625,0.0,0,0
1766589214.127572,1766589214.099828,-40.0390625,-25.87890625,-26.3671875,-6.34765625,0.0,0,0
1766589214.12758,1766589214.1037264,9.27734375,-22.94921875,-20.01953125,73.2421875,0.0,0,0
1766589214.173413,1766589214.1077049,-4.39453125,-25.87890625,-23.4375,13.671875,0.0,0,0
1766589214.173444,1766589214.111603,-55.17578125,-26.3671875,-25.87890625,-132.32421875,0.0,0,0
1766589214.173455,1766589214.1155014,-89.35546875,-16.11328125,-23.92578125,-195.3125,0.0,0,0
1766589214.173464,1766589214.1193998,-56.15234375,-15.625,-20.01953125,-58.59375,0.0,0,0
1766589214.1734731,1766589214.1232982,-9.27734375,-23.92578125,-22.4609375,53.7109375,0.0,0,0
1766589214.173482,1766589214.1271966,-9.765625,-24.4140625,-19.53125,40.52734375,0.0,0,0
1766589214.173491,1766589214.131095,-52.734375,-25.390625,-18.06640625,-84.9609375,0.0,0,0
1766589214.1734998,1766589214.134993,-83.0078125,-25.390625,-28.80859375,-177.24609375,0.0,0,0
1766589214.1735082,1766589214.1388915,-58.59375,-32.71484375,-34.66796875,-96.6796875,0.0,0,0
1766589214.173517,1766589214.1427898,-2.9296875,-29.78515625,-19.04296875,34.66796875,0.0,0,0
1766589214.173525,1766589214.1466882,5.37109375,-20.5078125,-13.18359375,19.04296875,0.0,0,0
1766589214.173533,1766589214.1505866,-61.5234375,-20.01953125,-20.01953125,-145.5078125,0.0,0,0
1766589214.232469,1766589214.154625,-104.98046875,-26.85546875,-26.85546875,-226.07421875,0.0,0,0
1766589214.232501,1766589214.1585233,-63.96484375,-26.3671875,-27.83203125,-113.28125,0.0,0,0
1766589214.232511,1766589214.1624217,2.9296875,-19.04296875,-22.4609375,39.55078125,0.0,0,0
1766589214.2325199,1766589214.16632,4.8828125,-20.01953125,-26.85546875,57.12890625,0.0,0,0
1766589214.232528,1766589214.1702182,-59.08203125,-31.73828125,-36.62109375,-102.05078125,0.0,0,0
1766589214.232537,1766589214.1741166,-88.37890625,-28.3203125,-28.3203125,-200.1953125,0.0,0,0
1766589214.232546,1766589214.178015,-55.17578125,-22.94921875,-19.53125,-122.55859375,0.0,0,0
1766589214.232554,1766589214.1819134,-16.6015625,-32.71484375,-27.34375,12.20703125,0.0,0,0
1766589214.232563,1766589214.1858118,-1.953125,-35.15625,-25.87890625,67.3828125,0.0,0,0
1766589214.2325718,1766589214.1897101,-39.0625,-27.34375,-22.4609375,-79.1015625,0.0,0,0
1766589214.2325802,1766589214.1936085,-82.51953125,-22.94921875,-28.80859375,-210.44921875,0.0,0,0
1766589214.232605,1766589214.197507,-74.21875,-29.78515625,-33.203125,-194.3359375,0.0,0,0
