timestamp,lsl_timestamp,TP9,AF7,AF8,TP10,Right AUX,keypress_A,keypress_B
1766593687.733578,1766593687.6283677,-910.15625,-154.78515625,-65.91796875,-112.3046875,0.0,0,0
1766593687.7337868,1766593687.6322627,315.4296875,83.984375,139.6484375,-96.6796875,0.0,0,0
1766593687.733813,1766593687.6361575,-805.6640625,194.3359375,79.58984375,-107.421875,0.0,0,0
1766593687.733834,1766593687.6400523,291.015625,72.75390625,-103.515625,-41.015625,0.0,0,0
1766593687.733854,1766593687.6439474,-990.234375,-15.625,-223.6328125,-64.94140625,0.0,0,0
1766593687.7338738,1766593687.6478422,-1000.0,-33.203125,-100.5859375,-203.125,0.0,0,0
1766593687.7338932,1766593687.651737,91.30859375,-57.12890625,135.7421875,-163.0859375,0.0,0,0
1766593687.733912,1766593687.655632,-815.91796875,4.8828125,153.80859375,52.24609375,0.0,0,0
1766593687.733932,1766593687.6595268,388.671875,-19.04296875,-73.73046875,140.625,0.0,0,0
1766593687.733951,1766593687.6634216,-907.2265625,-72.265625,-262.20703125,-4.39453125,0.0,0,0
1766593687.73397,1766593687.6673167,-1000.0,-75.1953125,-183.10546875,-189.94140625,0.0,0,0
1766593687.7339892,1766593687.6712115,-82.51953125,-16.6015625,90.33203125,-21.97265625,0.0,0,0
1766593687.73547,1766593687.675198,-850.09765625,137.20703125,215.8203125,41.9921875,0.0,0,0
1766593687.735519,1766593687.679093,543.9453125,159.1796875,-7.32421875,-51.26953125,0.0,0,0
1766593687.735542,1766593687.682988,-774.90234375,18.06640625,-270.01953125,-33.203125,0.0,0,0
1766593687.735563,1766593687.6868827,-1000.0,-91.30859375,-216.30859375,-88.8671875,0.0,0,0
1766593687.735583,1766593687.6907775,-143.5546875,-48.828125,56.640625,-41.9921875,0.0,0,0
1766593687.735602,1766593687.6946726,-891.11328125,59.08203125,207.03125,26.3671875,0.0,0,0
1766593687.735622,1766593687.6985674,682.12890625,125.48828125,4.39453125,41.015625,0.0,0,0
1766593687.7356422,1766593687.7024624,-603.515625,-25.390625,-257.8125,-91.796875,0.0,0,0
1766593687.735661,1766593687.7063572,-1000.0,-141.6015625,-228.02734375,-221.19140625,0.0,0,0
1766593687.735683,1766593687.710252,-199.21875,-40.0390625,70.80078125,-72.265625,0.0,0,0
1766593687.735702,1766593687.714147,-961.9140625,-2.9296875,268.06640625,-76.66015625,0.0,0,0
1766593687.735733,1766593687.718042,902.83203125,81.0546875,26.85546875,66.89453125,0.0,0,0
1766593687.794205,1766593687.7220066,-298.828125,107.91015625,-247.0703125,159.66796875,0.0,0,0
1766593687.794304,1766593687.7259016,-1000.0,-46.38671875,-246.58203125,-128.90625,0.0,0,0
1766593687.794347,1766593687.7297964,-377.44140625,-62.01171875,-14.6484375,-238.76953125,0.0,0,0
1766593687.794386,1766593687.7336915,915.0390625,114.2578125,170.41015625,-59.5703125,0.0,0,0
1766593687.794425,1766593687.7375863,-950.68359375,119.62890625,76.171875,143.5546875,0.0,0,0
1766593687.794464,1766593687.7414813,-45.8984375,-57.12890625,-145.5078125,123.53515625,0.0,0,0
1766593687.794501,1766593687.745376,-1000.0,-30.2734375,-228.02734375,-115.72265625,0.0,0,0
1766593687.794538,1766593687.7492712,-390.625,-52.24609375,-27.34375,-141.6015625,0.0,0,0
1766593687.7945752,1766593687.753166,923.33984375,-41.9921875,247.55859375,59.5703125,0.0,0,0
1766593687.794615,1766593687.7570608,-951.66015625,81.54296875,154.296875,97.65625,0.0,0,0
1766593687.79465,1766593687.7609558,-49.8046875,81.54296875,-199.21875,-124.51171875,0.0,0,0
1766593687.794698,1766593687.7648506,-1000.0,-87.40234375,-300.78125,-184.08203125,0.0,0,0
1766593687.839732,1766593687.7688942,-638.671875,-132.8125,-84.9609375,-24.4140625,0.0,0,0
1766593687.8398888,1766593687.772789,648.4375,60.05859375,141.11328125,-58.10546875,0.0,0,0
1766593687.839925,1766593687.776684,-837.890625,-10.7421875,209.9609375,102.5390625,0.0,0,0
1766593687.840039,1766593687.7805789,159.66796875,42.96875,-54.6875,223.6328125,0.0,0,0
1766593687.8404,1766593687.784474,-1000.0,-43.9453125,-289.55078125,-92.7734375,0.0,0,0
1766593687.840472,1766593687.7883687,-963.8671875,-13.18359375,-67.87109375,-500.48828125,0.0,0,0
1766593687.840632,1766593687.7922637,256.34765625,96.6796875,208.984375,-171.38671875,0.0,0,0
1766593687.840686,1766593687.7961588,-790.52734375,-51.7578125,207.03125,316.40625,0.0,0,0
1766593687.84072,1766593687.8000536,222.16796875,-95.21484375,-42.48046875,160.15625,0.0,0,0
1766593687.8407512,1766593687.8039486,-1000.0,-117.67578125,-257.8125,-145.5078125,0.0,0,0
1766593687.84078,1766593687.8078434,-1000.0,29.78515625,-144.53125,-167.48046875,0.0,0,0
1766593687.840808,1766593687.8117385,149.90234375,52.24609375,158.203125,45.8984375,0.0,0,0
1766593687.8843489,1766593687.8157682,-795.41015625,-16.6015625,231.4453125,196.77734375,0.0,0,0
1766593687.884424,1766593687.819663,255.859375,5.37109375,-47.36328125,172.8515625,0.0,0,0
1766593687.884452,1766593687.823558,-1000.0,-14.16015625,-282.71484375,-117.67578125,0.0,0,0
1766593687.884477,1766593687.8274531,-1000.0,-54.6875,-157.71484375,-119.140625,0.0,0,0
1766593687.884501,1766593687.831348,12.20703125,12.20703125,128.90625,67.87109375,0.0,0,0
1766593687.884526,1766593687.835243,-821.77734375,112.3046875,211.42578125,76.171875,0.0,0,0
1766593687.8845499,1766593687.839138,424.8046875,40.52734375,-26.85546875,143.06640625,0.0,0,0
1766593687.884574,1766593687.8430328,-873.53515625,-39.0625,-327.1484375,44.921875,0.0,0,0
1766593687.884597,1766593687.846928,-1000.0,-115.72265625,-275.390625,-117.67578125,0.0,0,0
1766593687.8846211,1766593687.8508227,-111.328125,-80.56640625,71.77734375,35.64453125,0.0,0,0
1766593687.8846579,1766593687.8547177,-871.09375,32.2265625,262.6953125,243.1640625,0.0,0,0
1766593687.884685,1766593687.8586128,633.30078125,67.87109375,73.2421875,260.25390625,0.0,0,0
1766593687.930621,1766593687.8626401,-680.17578125,-30.2734375,-280.76171875,87.890625,0.0,0,0
1766593687.930699,1766593687.8665352,-1000.0,-112.79296875,-288.0859375,-4.8828125,0.0,0,0
1766593687.930727,1766593687.8704302,-147.94921875,-67.3828125,118.1640625,169.43359375,0.0,0,0
1766593687.930752,1766593687.8743253,-892.578125,113.28125,316.40625,176.7578125,0.0,0,0
1766593687.930814,1766593687.87822,695.80078125,123.53515625,15.13671875,-75.68359375,0.0,0,0
1766593687.9308422,1766593687.8821151,-590.8203125,-5.859375,-346.19140625,-171.875,0.0,0,0
1766593687.9308789,1766593687.8860102,-1000.0,-138.18359375,-347.65625,-224.609375,0.0,0,0
1766593687.93093,1766593687.8899052,-220.703125,-106.93359375,-6.8359375,-118.65234375,0.0,0,0
1766593687.930969,1766593687.8938,-980.95703125,93.26171875,244.62890625,173.33984375,0.0,0,0
1766593687.9310179,1766593687.897695,944.3359375,110.83984375,92.28515625,147.94921875,0.0,0,0
1766593687.93106,1766593687.90159,-229.98046875,-38.57421875,-242.1875,-86.42578125,0.0,0,0
1766593687.931087,1766593687.905485,-1000.0,-118.65234375,-295.8984375,-109.86328125,0.0,0,0
1766593687.97505,1766593687.9094937,-292.48046875,-32.71484375,-65.91796875,13.18359375,0.0,0,0
1766593687.975161,1766593687.9133887,981.4453125,27.34375,157.2265625,140.13671875,0.0,0,0
1766593687.9752278,1766593687.9172838,994.62890625,98.14453125,167.96875,100.09765625,0.0,0,0
1766593687.975283,1766593687.9211788,-130.37109375,81.0546875,-112.79296875,-29.296875,0.0,0,0
1766593687.975339,1766593687.9250736,-1000.0,-21.484375,-269.04296875,-70.80078125,0.0,0,0
1766593687.97539,1766593687.9289687,-552.734375,-44.921875,-62.01171875,-147.94921875,0.0,0,0
1766593687.975441,1766593687.9328637,740.72265625,78.125,215.33203125,-108.3984375,0.0,0,0
1766593687.975492,1766593687.9367588,-865.234375,134.27734375,143.5546875,24.90234375,0.0,0,0
1766593687.975543,1766593687.9406538,104.00390625,22.94921875,-191.40625,96.6796875,0.0,0,0
1766593687.975592,1766593687.9445486,-1000.0,-83.0078125,-294.921875,-0.48828125,0.0,0,0
1766593687.9756422,1766593687.9484437,-689.94140625,-74.70703125,-72.75390625,-47.36328125,0.0,0,0
1766593687.975692,1766593687.9523387,612.3046875,-22.4609375,237.3046875,-76.66015625,0.0,0,0
1766593688.049865,1766593687.9564233,-834.9609375,122.0703125,187.98828125,25.87890625,0.0,0,0
1766593688.049937,1766593687.9603183,154.78515625,161.1328125,-185.05859375,122.0703125,0.0,0,0
1766593688.050072,1766593687.9642134,-1000.0,-66.40625,-317.87109375,-16.6015625,0.0,0,0
1766593688.050999,1766593687.9681084,-911.1328125,-106.4453125,-86.42578125,-139.6484375,0.0,0,0
1766593688.051049,1766593687.9720035,302.24609375,48.33984375,217.7734375,-104.00390625,0.0,0,0
1766593688.0510762,1766593687.9758983,-803.22265625,126.953125,261.23046875,95.21484375,0.0,0,0
1766593688.051101,1766593687.9797933,230.95703125,14.6484375,-52.24609375,155.76171875,0.0,0,0
1766593688.051125,1766593687.9836884,-1000.0,-84.9609375,-305.6640625,-90.8203125,0.0,0,0
1766593688.051148,1766593687.9875834,-1000.0,-37.109375,-142.08984375,-98.6328125,0.0,0,0
1766593688.051171,1766593687.9914784,104.4921875,17.578125,180.6640625,50.78125,0.0,0,0
1766593688.0511942,1766593687.9953735,-807.6171875,144.04296875,216.796875,79.58984375,0.0,0,0
1766593688.051218,1766593687.9992685,341.796875,96.19140625,-74.70703125,48.33984375,0.0,0,0
1766593688.064409,1766593688.0032606,-950.68359375,-19.53125,-307.12890625,-172.8515625,0.0,0,0
1766593688.06448,1766593688.0071557,-1000.0,-38.0859375,-199.70703125,-198.73046875,0.0,0,0
1766593688.064508,1766593688.0110507,-22.94921875,37.59765625,125.48828125,-38.0859375,0.0,0,0
1766593688.064533,1766593688.0149457,-855.95703125,128.90625,254.8828125,84.47265625,0.0,0,0
1766593688.064557,1766593688.0188408,591.796875,123.046875,-4.39453125,103.515625,0.0,0,0
1766593688.0645812,1766593688.0227358,-703.61328125,16.6015625,-282.2265625,42.48046875,0.0,0,0
1766593688.064605,1766593688.0266309,-1000.0,-42.96875,-209.47265625,3.90625,0.0,0,0
1766593688.064628,1766593688.030526,-148.92578125,23.92578125,100.5859375,-3.41796875,0.0,0,0
1766593688.064652,1766593688.034421,-893.06640625,115.72265625,250.48828125,-25.390625,0.0,0,0
1766593688.064675,1766593688.038316,704.58984375,77.1484375,45.41015625,145.01953125,0.0,0,0
1766593688.064699,1766593688.042211,-594.7265625,-8.7890625,-249.0234375,145.5078125,0.0,0,0
1766593688.0647218,1766593688.046106,-1000.0,-53.7109375,-233.88671875,-23.4375,0.0,0,0
1766593688.124661,1766593688.0500834,-196.2890625,-30.76171875,83.984375,-25.87890625,0.0,0,0
1766593688.1247501,1766593688.0539787,-958.0078125,66.89453125,283.203125,69.3359375,0.0,0,0
1766593688.124789,1766593688.0578737,891.6015625,2.9296875,125.48828125,183.59375,0.0,0,0
1766593688.1248262,1766593688.0617688,-315.91796875,-56.640625,-185.05859375,-29.296875,0.0,0,0
1766593688.124864,1766593688.0656638,-1000.0,24.4140625,-283.69140625,-150.87890625,0.0,0,0
1766593688.124901,1766593688.0695589,-321.2890625,58.59375,-10.25390625,-29.78515625,0.0,0,0
1766593688.124938,1766593688.073454,943.359375,171.38671875,224.12109375,-38.57421875,0.0,0,0
1766593688.1249752,1766593688.077349,-957.51953125,124.51171875,110.3515625,37.109375,0.0,0,0
1766593688.125011,1766593688.081244,-34.1796875,18.5546875,-227.05078125,83.49609375,0.0,0,0
1766593688.125055,1766593688.085139,-1000.0,-54.6875,-334.9609375,-3.41796875,0.0,0,0
1766593688.125103,1766593688.089034,-509.765625,-12.6953125,-40.52734375,-19.53125,0.0,0,0
1766593688.125139,1766593688.0929291,808.10546875,161.62109375,265.625,-49.31640625,0.0,0,0
1766593688.1699562,1766593688.096894,-897.94921875,166.9921875,200.68359375,-10.7421875,0.0,0,0
1766593688.17009,1766593688.100789,28.3203125,87.40234375,-145.01953125,31.25,0.0,0,0
1766593688.1701498,1766593688.104684,-1000.0,-90.8203125,-215.33203125,-71.2890625,0.0,0,0
1766593688.170281,1766593688.1085792,-591.30859375,-40.52734375,-19.53125,-97.65625,0.0,0,0
1766593688.17037,1766593688.1124742,720.703125,166.9921875,65.4296875,-20.99609375,0.0,0,0
1766593688.170468,1766593688.1163692,-851.5625,197.265625,72.265625,26.85546875,0.0,0,0
1766593688.170516,1766593688.1202643,78.61328125,153.80859375,-182.6171875,-73.2421875,0.0,0,0
1766593688.1705441,1766593688.1241596,-1000.0,-41.50390625,-322.75390625,-126.953125,0.0,0,0
1766593688.17057,1766593688.1280546,-777.83203125,-196.2890625,-34.1796875,-120.1171875,0.0,0,0
1766593688.170702,1766593688.1319497,369.140625,55.6640625,278.80859375,-87.40234375,0.0,0,0
1766593688.170738,1766593688.1358447,-807.6171875,287.109375,269.04296875,34.66796875,0.0,0,0
1766593688.170764,1766593688.1397398,187.01171875,157.71484375,-90.8203125,-32.2265625,0.0,0,0
1766593688.214664,1766593688.1437817,-1000.0,10.7421875,-335.9375,-214.35546875,0.0,0,0
1766593688.214786,1766593688.1476767,-963.37890625,-26.85546875,-151.85546875,-162.109375,0.0,0,0
1766593688.214819,1766593688.1515718,208.984375,36.62109375,185.546875,-43.9453125,0.0,0,0
1766593688.21485,1766593688.1554668,-803.22265625,106.93359375,219.23828125,64.94140625,0.0,0,0
1766593688.214879,1766593688.159362,270.99609375,125.9765625,-75.68359375,98.6328125,0.0,0,0
1766593688.21492,1766593688.1632571,-994.62890625,43.45703125,-288.57421875,-40.52734375,0.0,0,0
1766593688.2149508,1766593688.1671522,-1000.0,-42.48046875,-160.15625,-156.25,0.0,0,0
1766593688.2149818,1766593688.1710472,11.23046875,-21.484375,180.17578125,-97.16796875,0.0,0,0
1766593688.21505,1766593688.1749425,-824.21875,32.2265625,280.76171875,31.25,0.0,0,0
1766593688.2150881,1766593688.1788375,429.19921875,126.46484375,-12.6953125,76.171875,0.0,0,0
1766593688.215117,1766593688.1827326,-872.55859375,36.1328125,-291.015625,15.625,0.0,0,0
1766593688.215152,1766593688.1866276,-1000.0,-139.6484375,-209.9609375,-66.89453125,0.0,0,0
1766593688.275708,1766593688.1907456,-113.28125,16.6015625,101.07421875,-120.1171875,0.0,0,0
1766593688.275855,1766593688.1946409,-874.0234375,224.609375,217.28515625,18.06640625,0.0,0,0
1766593688.275899,1766593688.198536,638.18359375,162.109375,21.484375,118.1640625,0.0,0,0
1766593688.275937,1766593688.202431,-665.0390625,25.390625,-254.8828125,-20.01953125,0.0,0,0
1766593688.276014,1766593688.2063262,-1000.0,-10.7421875,-239.2578125,-139.16015625,0.0,0,0
1766593688.276138,1766593688.2102213,-194.3359375,40.52734375,58.10546875,-143.5546875,0.0,0,0
1766593688.2762141,1766593688.2141163,-917.48046875,88.8671875,250.48828125,62.98828125,0.0,0,0
1766593688.2763462,1766593688.2180116,761.23046875,122.55859375,64.94140625,129.39453125,0.0,0,0
1766593688.276431,1766593688.2219067,-520.5078125,61.03515625,-281.73828125,-81.54296875,0.0,0,0
1766593688.276501,1766593688.225802,-1000.0,-32.71484375,-279.78515625,-145.99609375,0.0,0,0
1766593688.276582,1766593688.229697,-250.48828125,-37.59765625,27.83203125,-93.75,0.0,0,0
1766593688.2766871,1766593688.233592,998.046875,62.98828125,216.30859375,-88.37890625,0.0,0,0
1766593688.319474,1766593688.2376971,970.703125,79.1015625,20.5078125,26.85546875,0.0,0,0
1766593688.319585,1766593688.2415924,-175.78125,9.27734375,-294.43359375,14.16015625,0.0,0,0
1766593688.319613,1766593688.2454875,-1000.0,-28.80859375,-300.78125,-171.875,0.0,0,0
1766593688.319638,1766593688.2493827,-355.95703125,51.7578125,-5.37109375,-182.12890625,0.0,0,0
1766593688.319663,1766593688.2532778,929.6875,132.8125,241.2109375,-18.5546875,0.0,0,0
1766593688.319687,1766593688.257173,-947.265625,148.92578125,129.8828125,83.0078125,0.0,0,0
1766593688.319711,1766593688.261068,-28.80859375,80.078125,-209.9609375,15.625,0.0,0,0
1766593688.319734,1766593688.2649634,-1000.0,-106.4453125,-302.24609375,-80.078125,0.0,0,0
1766593688.3197598,1766593688.2688584,-541.9921875,-55.6640625,-27.83203125,-80.56640625,0.0,0,0
1766593688.319791,1766593688.2727537,798.33984375,92.7734375,246.09375,9.765625,0.0,0,0
1766593688.319814,1766593688.2766488,-912.109375,165.0390625,172.36328125,-1.46484375,0.0,0,0
1766593688.319838,1766593688.280544,-45.8984375,168.9453125,-172.8515625,-82.03125,0.0,0,0
1766593688.3492448,1766593688.28455,-1000.0,-59.08203125,-340.8203125,-121.09375,0.0,0,0
1766593688.349309,1766593688.288445,-730.46875,-124.51171875,-134.27734375,-146.484375,0.0,0,0
1766593688.3493361,1766593688.2923403,535.64453125,54.19921875,164.0625,-81.54296875,0.0,0,0
1766593688.349361,1766593688.2962356,-825.68359375,137.6953125,170.8984375,31.73828125,0.0,0,0
1766593688.349385,1766593688.3001306,166.50390625,69.82421875,-113.28125,28.3203125,0.0,0,0
1766593688.349409,1766593688.304026,-1000.0,5.37109375,-297.8515625,-101.07421875,0.0,0,0
1766593688.3494332,1766593688.307921,-879.39453125,-14.6484375,-113.28125,-138.18359375,0.0,0,0
1766593688.349679,1766593688.3118162,369.140625,55.6640625,187.98828125,-47.8515625,0.0,0,0
1766593688.349706,1766593688.3157113,-806.15234375,152.34375,197.75390625,59.08203125,0.0,0,0
1766593688.34973,1766593688.3196065,250.0,105.46875,-77.63671875,27.83203125,0.0,0,0
1766593688.349754,1766593688.3235018,-1000.0,17.08984375,-315.4296875,-98.14453125,0.0,0,0
1766593688.349782,1766593688.3273969,-995.1171875,-64.94140625,-182.12890625,-118.65234375,0.0,0,0
1766593688.3946319,1766593688.3313918,170.8984375,2.44140625,165.0390625,-59.08203125,0.0,0,0
1766593688.3947,1766593688.335287,-812.01171875,137.6953125,229.00390625,59.5703125,0.0,0,0
1766593688.394727,1766593688.3391824,359.86328125,132.32421875,-64.453125,104.00390625,0.0,0,0
1766593688.394752,1766593688.3430774,-945.3125,35.15625,-318.359375,-100.5859375,0.0,0,0
1766593688.394777,1766593688.3469727,-1000.0,-47.8515625,-213.8671875,-182.6171875,0.0,0,0
1766593688.3948002,1766593688.3508677,31.73828125,37.59765625,143.06640625,-73.2421875,0.0,0,0
1766593688.394824,1766593688.354763,-834.9609375,134.765625,258.7890625,0.48828125,0.0,0,0
1766593688.394848,1766593688.3586583,479.98046875,62.01171875,-5.37109375,83.49609375,0.0,0,0
1766593688.394872,1766593688.3625534,-815.4296875,-2.44140625,-301.26953125,16.11328125,0.0,0,0
1766593688.394895,1766593688.3664486,-1000.0,0.0,-256.8359375,-105.46875,0.0,0,0
1766593688.394918,1766593688.370344,-141.11328125,54.19921875,77.1484375,-99.12109375,0.0,0,0
1766593688.394942,1766593688.374239,-892.08984375,129.8828125,241.2109375,-31.73828125,0.0,0,0
1766593688.4392672,1766593688.3782227,706.0546875,105.95703125,25.390625,30.2734375,0.0,0,0
1766593688.439352,1766593688.382118,-588.8671875,-7.8125,-285.15625,-16.6015625,0.0,0,0
1766593688.4393878,1766593688.3860133,-1000.0,-77.63671875,-267.578125,-111.81640625,0.0,0,0
1766593688.439414,1766593688.3899083,-195.3125,9.765625,55.6640625,-97.16796875,0.0,0,0
1766593688.439438,1766593688.3938036,-957.03125,130.859375,243.65234375,14.16015625,0.0,0,0
1766593688.439462,1766593688.3976989,891.11328125,158.203125,83.49609375,71.77734375,0.0,0,0
1766593688.4394848,1766593688.4015942,-319.3359375,97.16796875,-242.1875,-29.296875,0.0,0,0
1766593688.439509,1766593688.4054892,-1000.0,-76.66015625,-292.48046875,-111.81640625,0.0,0,0
1766593688.4395342,1766593688.4093845,-290.52734375,-121.58203125,26.3671875,-63.96484375,0.0,0,0
1766593688.4395578,1766593688.4132798,974.609375,81.0546875,262.20703125,41.015625,0.0,0,0
1766593688.4395819,1766593688.4171748,-994.62890625,208.0078125,97.16796875,84.47265625,0.0,0,0
1766593688.439606,1766593688.42107,-112.79296875,106.4453125,-238.28125,-5.37109375,0.0,0,0
1766593688.498139,1766593688.4250455,-1000.0,-13.18359375,-289.0625,-130.859375,0.0,0,0
1766593688.4982579,1766593688.4289405,-450.68359375,13.18359375,-28.80859375,-145.99609375,0.0,0,0
1766593688.4983191,1766593688.4328358,854.00390625,99.12109375,231.93359375,-45.8984375,0.0,0,0
1766593688.498373,1766593688.436731,-913.0859375,160.15625,152.83203125,37.109375,0.0,0,0
1766593688.4984262,1766593688.4406264,15.625,95.703125,-180.6640625,-6.8359375,0.0,0,0
1766593688.498476,1766593688.4445214,-1000.0,-15.625,-297.36328125,-123.53515625,0.0,0,0
1766593688.4985259,1766593688.4484167,-612.79296875,-66.40625,-43.9453125,-101.5625,0.0,0,0
1766593688.498576,1766593688.452312,686.5234375,55.17578125,231.93359375,15.625,0.0,0,0
1766593688.498626,1766593688.4562073,-850.5859375,114.2578125,170.41015625,75.68359375,0.0,0,0
1766593688.498677,1766593688.4601026,150.390625,59.08203125,-135.25390625,31.25,0.0,0,0
1766593688.498726,1766593688.4639976,-1000.0,59.5703125,-323.73046875,-124.0234375,0.0,0,0
1766593688.498774,1766593688.467893,-750.9765625,6.8359375,-121.58203125,-138.671875,0.0,0,0
1766593688.544447,1766593688.4718568,580.078125,7.8125,234.375,5.859375,0.0,0,0
1766593688.544518,1766593688.475752,-881.8359375,159.66796875,174.8046875,22.94921875,0.0,0,0
1766593688.5445461,1766593688.4796472,75.68359375,149.90234375,-155.76171875,-60.05859375,0.0,0,0
1766593688.5445719,1766593688.4835424,-1000.0,30.76171875,-307.12890625,-120.60546875,0.0,0,0
1766593688.544597,1766593688.4874377,-969.7265625,11.71875,-184.08203125,-170.8984375,0.0,0,0
1766593688.544624,1766593688.491333,199.21875,61.5234375,124.51171875,-162.59765625,0.0,0,0
1766593688.544649,1766593688.4952283,-799.8046875,145.99609375,192.87109375,-66.89453125,0.0,0,0
1766593688.544673,1766593688.4991233,283.69140625,91.30859375,-72.265625,-30.2734375,0.0,0,0
1766593688.544696,1766593688.5030186,-990.72265625,-18.06640625,-298.33984375,-135.7421875,0.0,0,0
1766593688.544721,1766593688.506914,-1000.0,-56.15234375,-170.8984375,-158.203125,0.0,0,0
1766593688.544744,1766593688.5108092,29.296875,13.18359375,165.0390625,-45.8984375,0.0,0,0
1766593688.544768,1766593688.5147045,-824.21875,92.7734375,258.7890625,22.94921875,0.0,0,0
1766593688.6352372,1766593688.5189998,425.78125,127.9296875,24.90234375,59.5703125,0.0,0,0
1766593688.63537,1766593688.5228953,-873.046875,35.15625,-230.46875,-38.57421875,0.0,0,0
1766593688.635413,1766593688.5267906,-1000.0,-84.9609375,-217.7734375,-231.4453125,0.0,0,0
1766593688.6354518,1766593688.530686,-113.28125,-44.43359375,70.80078125,-164.55078125,0.0,0,0
1766593688.635492,1766593688.5345812,-890.13671875,76.171875,188.4765625,-18.06640625,0.0,0,0
1766593688.63553,1766593688.5384765,546.38671875,161.62109375,-47.36328125,-23.92578125,0.0,0,0
1766593688.6355681,1766593688.5423717,-723.14453125,72.265625,-307.12890625,-78.125,0.0,0,0
1766593688.635606,1766593688.546267,-1000.0,-54.19921875,-240.72265625,-148.92578125,0.0,0,0
1766593688.6356428,1766593688.5501623,-180.6640625,-28.3203125,72.265625,-152.34375,0.0,0,0
1766593688.63568,1766593688.5540576,-935.546875,52.24609375,228.515625,-48.33984375,0.0,0,0
1766593688.6357172,1766593688.557953,830.56640625,29.296875,99.12109375,35.15625,0.0,0,0
1766593688.63579,1766593688.5618482,-416.50390625,12.20703125,-182.12890625,-17.578125,0.0,0,0
1766593688.637252,1766593688.5658941,-1000.0,-25.390625,-250.0,-145.5078125,0.0,0,0
1766593688.637314,1766593688.5697894,-261.71875,3.41796875,-6.34765625,-108.88671875,0.0,0,0
1766593688.6373482,1766593688.573685,-990.234375,129.39453125,209.47265625,4.8828125,0.0,0,0
1766593688.637378,1766593688.5775802,937.01171875,125.0,104.98046875,-4.39453125,0.0,0,0
1766593688.637407,1766593688.5814755,-247.0703125,-1.46484375,-185.546875,-70.80078125,0.0,0,0
1766593688.6374369,1766593688.5853708,-1000.0,-45.8984375,-256.34765625,-159.66796875,0.0,0,0
1766593688.6374662,1766593688.589266,-346.6796875,4.8828125,-19.04296875,-144.04296875,0.0,0,0
1766593688.637494,1766593688.5931616,938.4765625,42.48046875,222.16796875,10.7421875,0.0,0,0
1766593688.637525,1766593688.5970569,-962.890625,142.08984375,106.4453125,68.359375,0.0,0,0
1766593688.637554,1766593688.6009521,-62.5,109.86328125,-212.890625,-26.85546875,0.0,0,0
1766593688.637582,1766593688.6048474,-1000.0,-51.7578125,-311.03515625,-169.921875,0.0,0,0
1766593688.637632,1766593688.6087427,-483.3984375,-74.70703125,-34.1796875,-156.25,0.0,0,0
1766593688.680007,1766593688.6127584,815.4296875,37.59765625,265.625,4.8828125,0.0,0,0
1766593688.680091,1766593688.616654,-879.8828125,121.09375,179.6875,68.84765625,0.0,0,0
1766593688.680131,1766593688.6205492,109.375,92.28515625,-169.43359375,27.83203125,0.0,0,0
1766593688.680168,1766593688.6244445,-1000.0,-47.8515625,-277.34375,-70.3125,0.0,0,0
1766593688.680205,1766593688.6283398,-678.22265625,-147.94921875,-36.62109375,-86.9140625,0.0,0,0
1766593688.680243,1766593688.6322353,631.8359375,74.70703125,211.9140625,-10.25390625,0.0,0,0
1766593688.68028,1766593688.6361306,-838.37890625,235.83984375,136.71875,13.18359375,0.0,0,0
1766593688.680317,1766593688.6400259,151.3671875,125.9765625,-153.80859375,-13.18359375,0.0,0,0
1766593688.680354,1766593688.6439211,-1000.0,-48.33984375,-292.96875,-121.58203125,0.0,0,0
1766593688.6804008,1766593688.6478167,-860.3515625,-183.59375,-112.79296875,-199.70703125,0.0,0,0
1766593688.680438,1766593688.651712,390.13671875,-120.1171875,176.26953125,-110.83984375,0.0,0,0
1766593688.6807811,1766593688.6556072,-807.6171875,100.09765625,193.359375,-25.87890625,0.0,0,0
1766593688.724561,1766593688.6596134,220.703125,172.36328125,-94.7265625,-33.203125,0.0,0,0
1766593688.724679,1766593688.6635087,-1000.0,-0.48828125,-317.87109375,-84.47265625,0.0,0,0
1766593688.724715,1766593688.6674042,-1000.0,-48.828125,-166.015625,-163.57421875,0.0,0,0
1766593688.7247438,1766593688.6712995,155.2734375,63.4765625,138.671875,-107.421875,0.0,0,0
1766593688.724774,1766593688.6751947,-806.640625,137.20703125,196.77734375,2.44140625,0.0,0,0
1766593688.724803,1766593688.6790903,336.42578125,93.75,-67.87109375,3.41796875,0.0,0,0
1766593688.7248309,1766593688.6829855,-939.94140625,-19.53125,-309.5703125,-75.68359375,0.0,0,0
1766593688.724861,1766593688.6868808,-1000.0,-120.60546875,-223.6328125,-139.16015625,0.0,0,0
1766593688.724889,1766593688.6907763,-68.84765625,-89.35546875,101.5625,-106.93359375,0.0,0,0
1766593688.7249181,1766593688.6946716,-850.5859375,75.68359375,224.609375,9.765625,0.0,0,0
1766593688.724946,1766593688.698567,548.828125,126.953125,2.9296875,56.15234375,0.0,0,0
1766593688.7249742,1766593688.7024624,-763.18359375,-47.8515625,-242.67578125,-17.08984375,0.0,0,0
1766593688.7699661,1766593688.706459,-1000.0,-150.87890625,-220.21484375,-145.99609375,0.0,0,0
1766593688.770093,1766593688.7103543,-149.4140625,-4.8828125,69.82421875,-123.046875,0.0,0,0
1766593688.770135,1766593688.7142498,-889.6484375,129.39453125,240.72265625,11.23046875,0.0,0,0
1766593688.770175,1766593688.7181451,683.59375,73.73046875,19.04296875,-6.34765625,0.0,0,0
1766593688.7702131,1766593688.7220407,-614.2578125,-43.9453125,-291.9921875,-63.4765625,0.0,0,0
1766593688.770249,1766593688.725936,-1000.0,-84.9609375,-250.9765625,-104.4921875,0.0,0,0
1766593688.770286,1766593688.7298315,-206.54296875,-14.16015625,44.43359375,-90.8203125,0.0,0,0
1766593688.770323,1766593688.7337267,-945.3125,71.2890625,213.37890625,2.44140625,0.0,0,0
1766593688.770359,1766593688.737622,847.16796875,82.03125,83.49609375,51.26953125,0.0,0,0
1766593688.770397,1766593688.7415175,-395.5078125,-6.8359375,-213.8671875,-17.578125,0.0,0,0
1766593688.770442,1766593688.7454128,-1000.0,-95.21484375,-243.1640625,-130.37109375,0.0,0,0
1766593688.770478,1766593688.7493083,-277.83203125,-85.9375,38.0859375,-109.86328125,0.0,0,0
1766593688.815449,1766593688.753293,974.609375,27.83203125,264.16015625,10.25390625,0.0,0,0
1766593688.8155992,1766593688.7571886,-989.2578125,69.3359375,135.25390625,97.65625,0.0,0,0
1766593688.815655,1766593688.7610838,-88.8671875,24.90234375,-182.6171875,60.05859375,0.0,0,0
1766593688.815708,1766593688.7649794,-1000.0,1.46484375,-290.0390625,-115.234375,0.0,0,0
1766593688.8157592,1766593688.7688746,-437.98828125,-6.8359375,-75.68359375,-160.15625,0.0,0,0
1766593688.81581,1766593688.7727702,878.41796875,81.54296875,205.56640625,-26.3671875,0.0,0,0
1766593688.81586,1766593688.7766654,-917.48046875,129.39453125,126.46484375,53.7109375,0.0,0,0
1766593688.8159108,1766593688.780561,14.16015625,41.015625,-204.58984375,-0.48828125,0.0,0,0
1766593688.8159628,1766593688.7844563,-1000.0,-90.8203125,-328.61328125,-122.0703125,0.0,0,0
1766593688.8160121,1766593688.7883518,-581.54296875,-88.37890625,-83.984375,-130.37109375,0.0,0,0
1766593688.816062,1766593688.792247,727.05078125,40.52734375,204.58984375,9.27734375,0.0,0,0
1766593688.816112,1766593688.7961426,-859.86328125,113.28125,178.22265625,85.44921875,0.0,0,0
1766593688.859575,1766593688.8001165,113.76953125,46.38671875,-121.58203125,34.1796875,0.0,0,0
1766593688.859684,1766593688.804012,-1000.0,-99.12109375,-289.0625,-87.40234375,0.0,0,0
1766593688.8597262,1766593688.8079073,-782.71484375,-98.6328125,-88.8671875,-130.859375,0.0,0,0
1766593688.859765,1766593688.8118029,499.0234375,30.2734375,196.2890625,-30.2734375,0.0,0,0
1766593688.8598049,1766593688.8156981,-817.87109375,89.35546875,217.28515625,81.54296875,0.0,0,0
1766593688.859843,1766593688.8195937,187.98828125,20.01953125,-45.41015625,49.31640625,0.0,0,0
1766593688.859881,1766593688.823489,-1000.0,-62.98828125,-303.22265625,-72.75390625,0.0,0,0
1766593688.8599172,1766593688.8273845,-938.96484375,-55.17578125,-191.40625,-102.5390625,0.0,0,0
1766593688.8599548,1766593688.83128,268.06640625,30.2734375,140.13671875,-46.38671875,0.0,0,0
1766593688.859992,1766593688.8351753,-802.24609375,100.09765625,209.9609375,42.48046875,0.0,0,0
1766593688.860029,1766593688.8390708,274.90234375,42.96875,-70.3125,39.0625,0.0,0,0
1766593688.860064,1766593688.842966,-994.140625,-40.0390625,-323.2421875,-76.66015625,0.0,0,0
1766593688.935116,1766593688.8471,-1000.0,-75.1953125,-189.453125,-145.99609375,0.0,0,0
1766593688.9352589,1766593688.8509953,46.875,-27.34375,129.8828125,-84.47265625,0.0,0,0
1766593688.935301,1766593688.8548908,-818.359375,43.45703125,251.953125,23.92578125,0.0,0,0
1766593688.935338,1766593688.8587863,408.69140625,53.7109375,11.23046875,42.96875,0.0,0,0
1766593688.935377,1766593688.8626816,-888.18359375,-20.99609375,-304.6875,-62.01171875,0.0,0,0
1766593688.935414,1766593688.8665771,-1000.0,-92.28515625,-247.55859375,-176.7578125,0.0,0,0
1766593688.93545,1766593688.8704727,-109.375,-64.94140625,60.546875,-119.140625,0.0,0,0
1766593688.9354858,1766593688.874368,-854.98046875,42.96875,229.4921875,63.96484375,0.0,0,0
1766593688.935531,1766593688.8782635,555.17578125,64.453125,-27.83203125,0.0,0.0,0,0
1766593688.9355671,1766593688.882159,-757.32421875,-18.06640625,-335.44921875,-132.8125,0.0,0,0
1766593688.935615,1766593688.8860543,-1000.0,-47.8515625,-291.50390625,-180.6640625,0.0,0,0
1766593688.935654,1766593688.8899498,-186.5234375,-55.17578125,38.0859375,-112.79296875,0.0,0,0
1766593688.964617,1766593688.8939857,-924.31640625,-1.46484375,266.11328125,28.3203125,0.0,0,0
1766593688.96473,1766593688.8978813,794.921875,117.1875,63.96484375,48.33984375,0.0,0,0
1766593688.9647932,1766593688.9017766,-477.5390625,43.45703125,-282.71484375,-61.03515625,0.0,0,0
1766593688.964848,1766593688.905672,-1000.0,-116.2109375,-304.19921875,-138.18359375,0.0,0,0
1766593688.9649,1766593688.9095676,-244.140625,-37.109375,22.4609375,-81.0546875,0.0,0,0
1766593688.96495,1766593688.913463,-981.93359375,118.1640625,223.6328125,-28.3203125,0.0,0,0
1766593688.965,1766593688.9173584,926.26953125,139.6484375,35.15625,-10.25390625,0.0,0,0
1766593688.9650502,1766593688.921254,-263.671875,19.53125,-272.94921875,-56.640625,0.0,0,0
1766593688.965101,1766593688.9251494,-1000.0,-96.6796875,-306.640625,-131.34765625,0.0,0,0
1766593688.9651499,1766593688.929045,-325.68359375,-63.4765625,17.08984375,-83.49609375,0.0,0,0
1766593688.9652,1766593688.9329402,950.1953125,41.015625,272.4609375,14.6484375,0.0,0,0
1766593688.965256,1766593688.9368358,-965.8203125,74.21875,110.3515625,4.8828125,0.0,0,0
1766593689.0097191,1766593688.9408607,-54.19921875,14.6484375,-235.83984375,-59.5703125,0.0,0,0
1766593689.009807,1766593688.9447563,-1000.0,-136.23046875,-304.6875,-105.95703125,0.0,0,0
1766593689.009849,1766593688.9486518,-504.8828125,-115.72265625,-31.25,-94.23828125,0.0,0,0
1766593689.009886,1766593688.9525473,806.15234375,75.68359375,217.7734375,20.01953125,0.0,0,0
1766593689.0099251,1766593688.9564428,-887.6953125,151.3671875,130.859375,63.96484375,0.0,0,0
1766593689.009962,1766593688.9603384,64.453125,53.22265625,-188.96484375,-11.71875,0.0,0,0
1766593689.009998,1766593688.9642336,-1000.0,-65.4296875,-303.22265625,-99.12109375,0.0,0,0
1766593689.010033,1766593688.9681292,-659.1796875,-74.21875,-58.59375,-103.515625,0.0,0,0
1766593689.010069,1766593688.9720247,647.94921875,28.3203125,210.44921875,6.34765625,0.0,0,0
1766593689.0101051,1766593688.9759202,-840.8203125,92.28515625,169.43359375,94.7265625,0.0,0,0
1766593689.0101418,1766593688.9798157,145.5078125,10.25390625,-145.99609375,-2.44140625,0.0,0,0
1766593689.010178,1766593688.9837112,-1000.0,-103.515625,-315.4296875,-149.90234375,0.0,0,0
1766593689.0548108,1766593688.987727,-871.09375,-104.4921875,-130.859375,-165.0390625,0.0,0,0
1766593689.0549939,1766593688.9916224,374.51171875,1.953125,167.48046875,-57.12890625,0.0,0,0
1766593689.0550358,1766593688.995518,-805.6640625,87.40234375,208.984375,76.66015625,0.0,0,0
1766593689.055359,1766593688.9994135,227.5390625,60.546875,-61.03515625,69.3359375,0.0,0,0
1766593689.0554008,1766593689.003309,-1000.0,-72.75390625,-265.625,-35.64453125,0.0,0,0
1766593689.055438,1766593689.0072045,-1000.0,-117.67578125,-113.76953125,-70.3125,0.0,0,0
1766593689.0554738,1766593689.0111,147.4609375,-24.90234375,158.203125,15.13671875,0.0,0,0
1766593689.05551,1766593689.0149956,-806.640625,78.61328125,196.2890625,71.77734375,0.0,0,0
1766593689.055546,1766593689.0188909,336.9140625,76.171875,-71.2890625,52.734375,0.0,0,0
1766593689.055582,1766593689.0227864,-946.2890625,-31.73828125,-359.86328125,-81.0546875,0.0,0,0
1766593689.055619,1766593689.026682,-1000.0,-102.5390625,-233.3984375,-197.265625,0.0,0,0
1766593689.055653,1766593689.0305774,-42.96875,-49.8046875,108.3984375,-85.9375,0.0,0,0
1766593689.100162,1766593689.034583,-841.30859375,55.17578125,206.0546875,57.12890625,0.0,0,0
1766593689.10035,1766593689.0384786,516.11328125,58.59375,4.39453125,53.22265625,0.0,0,0
1766593689.1004028,1766593689.0423741,-792.96875,-58.10546875,-239.2578125,-53.7109375,0.0,0,0
1766593689.1004422,1766593689.0462697,-1000.0,-130.37109375,-227.5390625,-121.09375,0.0,0,0
1766593689.100479,1766593689.0501652,-148.92578125,-56.640625,39.0625,-94.23828125,0.0,0,0
1766593689.1005151,1766593689.0540607,-894.53125,38.57421875,219.23828125,-5.859375,0.0,0,0
1766593689.1005518,1766593689.0579562,710.44921875,51.26953125,48.828125,81.54296875,0.0,0,0
1766593689.100589,1766593689.0618517,-585.44921875,-43.45703125,-244.62890625,16.11328125,0.0,0,0
1766593689.100627,1766593689.0657473,-1000.0,-139.16015625,-228.515625,-119.62890625,0.0,0,0
1766593689.100663,1766593689.0696428,-204.1015625,-55.17578125,47.36328125,-110.83984375,0.0,0,0
1766593689.100699,1766593689.0735383,-958.0078125,4.39453125,181.15234375,4.39453125,0.0,0,0
1766593689.100735,1766593689.0774338,888.671875,-9.765625,36.62109375,65.4296875,0.0,0,0
1766593689.1449978,1766593689.0814269,-323.73046875,-2.9296875,-207.51953125,13.18359375,0.0,0,0
1766593689.145161,1766593689.0853224,-1000.0,-104.00390625,-254.39453125,-95.21484375,0.0,0,0
1766593689.145272,1766593689.089218,-298.33984375,-128.41796875,-28.3203125,-91.796875,0.0,0,0
1766593689.1453319,1766593689.0931134,974.609375,-20.99609375,137.6953125,24.90234375,0.0,0,0
1766593689.145386,1766593689.097009,998.046875,66.89453125,36.1328125,65.4296875,0.0,0,0
1766593689.1454852,1766593689.1009047,-129.8828125,55.6640625,-160.15625,-25.390625,0.0,0,0
1766593689.145558,1766593689.1048002,-1000.0,-69.3359375,-221.19140625,-158.203125,0.0,0,0
1766593689.1456409,1766593689.1086957,-414.55078125,-115.72265625,-41.9921875,-171.38671875,0.0,0,0
1766593689.1459131,1766593689.1125913,884.27734375,4.8828125,193.359375,-53.22265625,0.0,0,0
1766593689.145958,1766593689.1164868,-920.8984375,41.50390625,127.9296875,43.45703125,0.0,0,0
1766593689.146044,1766593689.1203823,12.6953125,-47.8515625,-149.4140625,28.3203125,0.0,0,0
1766593689.146089,1766593689.1242778,-1000.0,-109.375,-233.88671875,-86.42578125,0.0,0,0
1766593689.234376,1766593689.1284294,-614.2578125,-104.4921875,-74.70703125,-141.6015625,0.0,0,0
1766593689.2345338,1766593689.132325,691.40625,-34.66796875,135.7421875,-33.203125,0.0,0,0
1766593689.234592,1766593689.1362205,-853.515625,42.48046875,141.6015625,73.2421875,0.0,0,0
1766593689.234644,1766593689.140116,115.72265625,-11.23046875,-123.53515625,37.109375,0.0,0,0
1766593689.234695,1766593689.1440117,-1000.0,-111.81640625,-291.50390625,-130.859375,0.0,0,0
1766593689.234745,1766593689.1479073,-801.7578125,-100.09765625,-122.55859375,-153.3203125,0.0,0,0
1766593689.234797,1766593689.1518028,478.515625,17.08984375,166.015625,-44.43359375,0.0,0,0
1766593689.2348459,1766593689.1556983,-813.96484375,67.3828125,191.89453125,61.5234375,0.0,0,0
1766593689.2348979,1766593689.159594,194.3359375,-9.27734375,-59.08203125,83.0078125,0.0,0,0
1766593689.23506,1766593689.1634896,-1000.0,-108.88671875,-220.21484375,-24.4140625,0.0,0,0
1766593689.2352068,1766593689.167385,-951.66015625,-132.32421875,-85.44921875,-72.75390625,0.0,0,0
1766593689.235295,1766593689.1712806,248.046875,-56.15234375,175.78125,-8.7890625,0.0,0,0
1766593689.2365901,1766593689.175267,-800.78125,27.34375,173.33984375,23.4375,0.0,0,0
1766593689.236635,1766593689.1791625,262.6953125,-1.46484375,-112.79296875,-70.3125,0.0,0,0
1766593689.236714,1766593689.183058,-1000.0,-100.09765625,-295.8984375,-141.6015625,0.0,0,0
1766593689.236756,1766593689.1869535,-1000.0,-135.7421875,-187.01171875,-138.18359375,0.0,0,0
1766593689.236854,1766593689.1908493,41.015625,-49.8046875,96.6796875,-71.77734375,0.0,0,0
1766593689.2368991,1766593689.1947448,-821.2890625,55.17578125,217.28515625,63.4765625,0.0,0,0
1766593689.236939,1766593689.1986403,419.43359375,51.26953125,-20.01953125,57.12890625,0.0,0,0
1766593689.2369769,1766593689.202536,-882.8125,-40.0390625,-296.38671875,-66.40625,0.0,0,0
1766593689.237015,1766593689.2064316,-1000.0,-128.41796875,-190.91796875,-130.859375,0.0,0,0
1766593689.237052,1766593689.2103271,-85.44921875,-135.7421875,137.6953125,-52.24609375,0.0,0,0
1766593689.237089,1766593689.2142227,-861.81640625,13.18359375,256.34765625,84.47265625,0.0,0,0
1766593689.2371259,1766593689.2181184,598.14453125,93.26171875,43.9453125,109.86328125,0.0,0,0
1766593689.295043,1766593689.2220798,-705.078125,-59.5703125,-269.53125,-26.3671875,0.0,0,0
1766593689.295163,1766593689.2259755,-1000.0,-214.35546875,-242.1875,-93.75,0.0,0,0
1766593689.2952168,1766593689.229871,-205.56640625,-89.35546875,71.2890625,-65.4296875,0.0,0,0
1766593689.29527,1766593689.2337666,-922.36328125,62.98828125,232.91015625,-15.13671875,0.0,0,0
1766593689.295321,1766593689.2376623,768.5546875,52.734375,0.9765625,15.13671875,0.0,0,0
1766593689.295372,1766593689.2415578,-519.04296875,-53.22265625,-260.25390625,-58.10546875,0.0,0,0
1766593689.2954218,1766593689.2454534,-1000.0,-160.64453125,-194.3359375,-114.2578125,0.0,0,0
1766593689.2954712,1766593689.249349,-218.75,-75.1953125,90.33203125,-26.85546875,0.0,0,0
1766593689.295522,1766593689.2532446,-965.33203125,32.71484375,270.5078125,120.60546875,0.0,0,0
1766593689.295569,1766593689.2571402,901.85546875,65.91796875,94.7265625,139.16015625,0.0,0,0
1766593689.295605,1766593689.261036,-306.15234375,-35.15625,-239.74609375,-43.45703125,0.0,0,0
1766593689.2956412,1766593689.2649314,-1000.0,-146.97265625,-315.4296875,-196.2890625,0.0,0,0
1766593689.340194,1766593689.2689674,-343.26171875,-109.86328125,-62.5,-155.2734375,0.0,0,0
1766593689.3403258,1766593689.2728631,931.640625,-31.25,181.15234375,-37.59765625,0.0,0,0
1766593689.3403678,1766593689.2767587,-952.63671875,9.765625,109.375,52.734375,0.0,0,0
1766593689.340405,1766593689.2806544,-36.1328125,-23.4375,-184.08203125,5.37109375,0.0,0,0
1766593689.3404422,1766593689.28455,-1000.0,-109.375,-271.97265625,-133.30078125,0.0,0,0
1766593689.340478,1766593689.2884455,-480.46875,-87.40234375,-37.59765625,-160.15625,0.0,0,0
1766593689.340514,1766593689.2923412,825.1953125,46.38671875,145.99609375,-46.875,0.0,0,0
1766593689.340551,1766593689.2962368,-889.6484375,134.27734375,92.7734375,68.359375,0.0,0,0
1766593689.3405912,1766593689.3001325,75.68359375,70.80078125,-142.08984375,15.625,0.0,0,0
1766593689.340627,1766593689.304028,-1000.0,-102.5390625,-305.17578125,-148.4375,0.0,0,0
1766593689.340663,1766593689.3079238,-704.58984375,-133.7890625,-142.578125,-199.21875,0.0,0,0
1766593689.3407009,1766593689.3118193,598.6328125,-15.625,137.20703125,-97.16796875,0.0,0,0
1766593689.385526,1766593689.315845,-833.0078125,77.1484375,148.4375,19.04296875,0.0,0,0
1766593689.385684,1766593689.3197405,146.484375,25.87890625,-127.9296875,7.8125,0.0,0,0
1766593689.38575,1766593689.3236363,-1000.0,-101.5625,-310.546875,-127.9296875,0.0,0,0
1766593689.385808,1766593689.327532,-868.65234375,-131.34765625,-131.8359375,-167.96875,0.0,0,0
1766593689.3858612,1766593689.3314276,375.0,-102.05078125,169.921875,-31.73828125,0.0,0,0
1766593689.385914,1766593689.3353233,-806.15234375,19.53125,224.609375,81.0546875,0.0,0,0
1766593689.385964,1766593689.3392189,240.72265625,105.46875,-66.40625,43.45703125,0.0,0,0
1766593689.386391,1766593689.3431146,-1000.0,-18.5546875,-305.17578125,-81.0546875,0.0,0,0
1766593689.386432,1766593689.3470101,-1000.0,-123.046875,-159.66796875,-108.3984375,0.0,0,0
1766593689.3864691,1766593689.350906,138.18359375,-103.02734375,119.140625,-64.453125,0.0,0,0
1766593689.386506,1766593689.3548014,-811.03515625,22.94921875,156.25,28.80859375,0.0,0,0
1766593689.3865411,1766593689.3586972,356.4453125,93.75,-48.33984375,28.3203125,0.0,0,0
1766593689.429405,1766593689.3627093,-932.6171875,-49.31640625,-238.28125,-68.359375,0.0,0,0
1766593689.4294882,1766593689.366605,-1000.0,-156.25,-165.52734375,-110.3515625,0.0,0,0
1766593689.4295151,1766593689.3705006,-48.828125,-90.8203125,100.09765625,-87.890625,0.0,0,0
1766593689.429539,1766593689.3743963,-841.796875,45.8984375,176.26953125,-12.6953125,0.0,0,0
1766593689.429564,1766593689.378292,505.37109375,51.26953125,-23.92578125,-26.85546875,0.0,0,0
1766593689.429588,1766593689.3821876,-807.6171875,-83.49609375,-232.421875,-71.2890625,0.0,0,0
1766593689.429612,1766593689.3860834,-1000.0,-164.0625,-196.2890625,-84.9609375,0.0,0,0
1766593689.429635,1766593689.389979,-114.2578125,-91.30859375,82.03125,-71.2890625,0.0,0,0
1766593689.4296582,1766593689.3938746,-889.16015625,16.6015625,203.125,-8.30078125,0.0,0,0
1766593689.4296808,1766593689.3977704,703.61328125,25.390625,13.671875,65.4296875,0.0,0,0
1766593689.429705,1766593689.401666,-584.47265625,-40.0390625,-208.984375,7.8125,0.0,0,0
1766593689.429728,1766593689.4055617,-1000.0,-102.5390625,-214.35546875,-117.1875,0.0,0,0
1766593689.475213,1766593689.4095664,-213.8671875,-57.12890625,33.203125,-93.75,0.0,0,0
1766593689.475362,1766593689.413462,-951.66015625,27.83203125,217.28515625,11.23046875,0.0,0,0
1766593689.4754062,1766593689.4173577,863.28125,62.98828125,78.125,62.01171875,0.0,0,0
1766593689.475444,1766593689.4212534,-376.953125,-32.2265625,-236.328125,1.953125,0.0,0,0
1766593689.4754822,1766593689.425149,-1000.0,-187.5,-285.64453125,-81.0546875,0.0,0,0
1766593689.475519,1766593689.4290447,-264.16015625,-129.39453125,30.76171875,-45.41015625,0.0,0,0
1766593689.4755578,1766593689.4329405,993.65234375,47.36328125,230.46875,35.15625,0.0,0,0
1766593689.475595,1766593689.436836,979.4921875,40.0390625,72.75390625,49.31640625,0.0,0,0
1766593689.475636,1766593689.4407318,-158.69140625,-69.3359375,-213.37890625,-31.25,0.0,0,0
1766593689.4756732,1766593689.4446275,-1000.0,-154.296875,-274.4140625,-134.27734375,0.0,0,0
1766593689.475712,1766593689.448523,-406.25,-125.0,-21.484375,-127.9296875,0.0,0,0
1766593689.475747,1766593689.4524188,889.16015625,9.27734375,223.6328125,-20.5078125,0.0,0,0
1766593689.534991,1766593689.4564939,-926.7578125,57.6171875,129.8828125,51.7578125,0.0,0,0
1766593689.535147,1766593689.4603896,3.41796875,-45.8984375,-164.0625,-5.859375,0.0,0,0
1766593689.5351849,1766593689.4642851,-1000.0,-150.390625,-262.6953125,-93.75,0.0,0,0
1766593689.535216,1766593689.468181,-602.5390625,-86.9140625,-84.47265625,-124.0234375,0.0,0,0
1766593689.535249,1766593689.4720767,705.56640625,-44.43359375,163.0859375,-35.15625,0.0,0,0
1766593689.535279,1766593689.4759724,-856.4453125,-9.765625,187.01171875,84.47265625,0.0,0,0
1766593689.535307,1766593689.4798682,113.76953125,44.921875,-102.05078125,33.69140625,0.0,0,0
1766593689.535336,1766593689.4837637,-1000.0,-73.2421875,-311.03515625,-113.28125,0.0,0,0
1766593689.5353642,1766593689.4876595,-753.41796875,-144.53125,-132.8125,-160.64453125,0.0,0,0
1766593689.535394,1766593689.4915552,541.015625,-32.71484375,163.57421875,-29.78515625,0.0,0,0
1766593689.535423,1766593689.495451,-823.2421875,48.828125,187.5,100.09765625,0.0,0,0
1766593689.53546,1766593689.4993465,176.26953125,-15.625,-83.49609375,63.4765625,0.0,0,0
1766593689.564725,1766593689.5033278,-1000.0,-127.9296875,-273.4375,-60.05859375,0.0,0,0
1766593689.564831,1766593689.5072236,-937.98828125,-154.78515625,-116.2109375,-109.86328125,0.0,0,0
1766593689.564873,1766593689.5111194,271.97265625,-60.05859375,157.71484375,-30.76171875,0.0,0,0
1766593689.5649111,1766593689.5150151,-799.8046875,28.80859375,199.70703125,82.51953125,0.0,0,0
1766593689.564949,1766593689.5189106,267.578125,19.53125,-58.59375,78.125,0.0,0,0
1766593689.564987,1766593689.5228064,-994.140625,-41.9921875,-298.33984375,-49.8046875,0.0,0,0
1766593689.565025,1766593689.5267022,-1000.0,-125.48828125,-172.36328125,-123.046875,0.0,0,0
1766593689.5650618,1766593689.530598,29.296875,-87.890625,114.74609375,-51.26953125,0.0,0,0
1766593689.565098,1766593689.5344937,-815.91796875,29.78515625,205.56640625,41.015625,0.0,0,0
1766593689.565135,1766593689.5383894,376.46484375,-0.9765625,-14.16015625,37.109375,0.0,0,0
1766593689.565206,1766593689.542285,-915.0390625,-87.40234375,-246.58203125,-50.29296875,0.0,0,0
1766593689.565242,1766593689.5461807,-1000.0,-124.51171875,-187.5,-143.5546875,0.0,0,0
1766593689.609747,1766593689.5501523,-103.02734375,-97.65625,65.4296875,-69.82421875,0.0,0,0
1766593689.609855,1766593689.554048,-863.76953125,13.671875,176.26953125,45.41015625,0.0,0,0
1766593689.6099122,1766593689.5579438,598.6328125,43.9453125,-2.9296875,52.24609375,0.0,0,0
1766593689.6099641,1766593689.5618396,-705.56640625,-77.63671875,-235.3515625,-41.50390625,0.0,0,0
1766593689.610016,1766593689.5657353,-1000.0,-172.8515625,-180.17578125,-90.33203125,0.0,0,0
1766593689.610066,1766593689.569631,-177.24609375,-114.2578125,98.6328125,-45.8984375,0.0,0,0
1766593689.6101172,1766593689.5735269,-929.19921875,-1.953125,209.47265625,-7.8125,0.0,0,0
1766593689.610168,1766593689.5774226,818.359375,62.5,17.08984375,53.22265625,0.0,0,0
1766593689.6102169,1766593689.5813184,-438.4765625,-47.8515625,-222.65625,33.203125,0.0,0,0
1766593689.610267,1766593689.585214,-1000.0,-125.9765625,-206.54296875,-64.94140625,0.0,0,0
1766593689.6103199,1766593689.5891097,-241.2109375,-59.08203125,31.73828125,-77.1484375,0.0,0,0
1766593689.6103702,1766593689.5930054,-979.4921875,25.87890625,209.9609375,10.7421875,0.0,0,0
1766593689.675026,1766593689.5969663,924.31640625,48.828125,59.5703125,44.43359375,0.0,0,0
1766593689.675135,1766593689.600862,-262.20703125,-57.12890625,-221.19140625,-28.3203125,0.0,0,0
1766593689.6751769,1766593689.6047578,-1000.0,-141.11328125,-249.51171875,-112.79296875,0.0,0,0
1766593689.6752782,1766593689.6086535,-362.3046875,-165.52734375,-19.53125,-75.68359375,0.0,0,0
1766593689.6753469,1766593689.6125493,926.26953125,-52.24609375,201.66015625,35.64453125,0.0,0,0
1766593689.675379,1766593689.616445,-956.0546875,98.6328125,136.23046875,105.95703125,0.0,0,0
1766593689.675425,1766593689.6203408,-53.22265625,25.87890625,-163.0859375,67.3828125,0.0,0,0
1766593689.675479,1766593689.6242366,-1000.0,-126.953125,-264.6484375,-61.03515625,0.0,0,0
1766593689.6755252,1766593689.6281323,-506.8359375,-134.27734375,-33.203125,-119.62890625,0.0,0,0
1766593689.675612,1766593689.632028,794.921875,-17.578125,213.8671875,-56.15234375,0.0,0,0
1766593689.675779,1766593689.6359239,-881.34765625,43.45703125,164.0625,51.7578125,0.0,0,0
1766593689.67587,1766593689.6398196,86.9140625,-34.1796875,-131.8359375,44.921875,0.0,0,0
1766593689.715026,1766593689.6438534,-1000.0,-119.140625,-270.01953125,-30.2734375,0.0,0,0
1766593689.715163,1766593689.6477492,-671.875,-105.46875,-82.51953125,-60.05859375,0.0,0,0
1766593689.715204,1766593689.651645,644.04296875,10.7421875,198.73046875,17.578125,0.0,0,0
1766593689.715242,1766593689.6555407,-840.33203125,83.49609375,165.0390625,83.0078125,0.0,0,0
1766593689.7152798,1766593689.6594365,122.0703125,11.23046875,-137.6953125,18.06640625,0.0,0,0
1766593689.715318,1766593689.6633322,-1000.0,-113.28125,-288.0859375,-103.515625,0.0,0,0
1766593689.715355,1766593689.667228,-893.5546875,-140.13671875,-144.53125,-152.34375,0.0,0,0
1766593689.715391,1766593689.6711237,335.9375,-73.73046875,146.484375,-44.43359375,0.0,0,0
1766593689.7154381,1766593689.6750195,-802.734375,20.5078125,206.0546875,81.0546875,0.0,0,0
1766593689.7154748,1766593689.6789153,204.58984375,21.484375,-70.80078125,33.69140625,0.0,0,0
1766593689.71552,1766593689.682811,-1000.0,-107.421875,-293.45703125,-59.08203125,0.0,0,0
1766593689.715561,1766593689.6867068,-982.91015625,-138.671875,-144.04296875,-79.1015625,0.0,0,0
1766593689.759501,1766593689.6907291,182.6171875,-18.5546875,162.59765625,-37.59765625,0.0,0,0
1766593689.7595782,1766593689.694625,-804.6875,66.40625,221.6796875,65.91796875,0.0,0,0
1766593689.759616,1766593689.6985207,308.10546875,39.0625,-33.203125,66.89453125,0.0,0,0
1766593689.759655,1766593689.7024164,-976.07421875,-84.47265625,-276.85546875,-33.203125,0.0,0,0
1766593689.759692,1766593689.7063124,-1000.0,-167.96875,-163.0859375,-74.21875,0.0,0,0
1766593689.7597282,1766593689.7102082,25.390625,-66.89453125,122.55859375,-3.41796875,0.0,0,0
1766593689.759765,1766593689.714104,-831.54296875,103.515625,197.265625,90.8203125,0.0,0,0
1766593689.7598011,1766593689.7179997,479.4921875,119.140625,-3.90625,83.0078125,0.0,0,0
1766593689.759837,1766593689.7218955,-822.75390625,-54.19921875,-270.5078125,-35.64453125,0.0,0,0
1766593689.759873,1766593689.7257912,-1000.0,-189.94140625,-226.07421875,-128.41796875,0.0,0,0
1766593689.7599099,1766593689.729687,-123.046875,-108.3984375,88.37890625,-95.21484375,0.0,0,0
1766593689.7599459,1766593689.7335827,-888.18359375,50.78125,232.421875,53.7109375,0.0,0,0
1766593689.836434,1766593689.7377656,700.68359375,62.01171875,14.6484375,112.79296875,0.0,0,0
1766593689.836638,1766593689.7416613,-594.23828125,-38.57421875,-267.578125,7.32421875,0.0,0,0
1766593689.836697,1766593689.745557,-1000.0,-116.2109375,-236.81640625,-129.8828125,0.0,0,0
1766593689.836737,1766593689.749453,-197.75390625,-62.5,48.828125,-77.63671875,0.0,0,0
1766593689.836776,1766593689.7533488,-964.84375,54.19921875,215.33203125,89.84375,0.0,0,0
1766593689.8368142,1766593689.7572446,914.0625,66.40625,67.3828125,117.1875,0.0,0,0
1766593689.836851,1766593689.7611406,-283.69140625,-28.80859375,-225.09765625,46.875,0.0,0,0
1766593689.8368871,1766593689.7650363,-1000.0,-127.44140625,-258.30078125,-68.359375,0.0,0,0
1766593689.8369238,1766593689.768932,-265.13671875,-78.61328125,31.73828125,-78.61328125,0.0,0,0
1766593689.83696,1766593689.7728279,989.74609375,18.5546875,236.328125,24.4140625,0.0,0,0
1766593689.836996,1766593689.7767239,999.0234375,67.3828125,97.65625,64.94140625,0.0,0,0
1766593689.8370318,1766593689.7806196,-118.1640625,17.578125,-178.22265625,34.66796875,0.0,0,0
1766593689.850198,1766593689.7846262,-1000.0,-91.796875,-239.2578125,-66.89453125,0.0,0,0
1766593689.850294,1766593689.788522,-448.73046875,-97.65625,-23.92578125,-82.03125,0.0,0,0
1766593689.850351,1766593689.792418,850.5859375,10.25390625,192.87109375,-1.46484375,0.0,0,0
1766593689.850404,1766593689.7963138,-898.4375,97.65625,112.3046875,76.66015625,0.0,0,0
1766593689.850455,1766593689.8002095,63.96484375,48.828125,-170.41015625,47.8515625,0.0,0,0
1766593689.850506,1766593689.8041055,-1000.0,-70.80078125,-268.06640625,-47.36328125,0.0,0,0
1766593689.850556,1766593689.8080013,-572.75390625,-109.86328125,-40.52734375,-55.17578125,0.0,0,0
1766593689.850608,1766593689.811897,746.09375,7.32421875,219.23828125,5.859375,0.0,0,0
1766593689.850658,1766593689.815793,-859.375,83.0078125,170.8984375,97.16796875,0.0,0,0
1766593689.850733,1766593689.8196888,137.6953125,-0.48828125,-133.7890625,53.7109375,0.0,0,0
1766593689.850784,1766593689.8235846,-1000.0,-129.8828125,-292.48046875,-52.734375,0.0,0,0
1766593689.850821,1766593689.8274806,-794.921875,-90.33203125,-72.265625,-29.78515625,0.0,0,0
1766593689.895206,1766593689.8314738,499.0234375,54.6875,196.77734375,24.4140625,0.0,0,0
1766593689.895349,1766593689.8353698,-813.96484375,104.98046875,180.17578125,59.5703125,0.0,0,0
1766593689.895391,1766593689.8392656,183.59375,32.2265625,-91.796875,35.15625,0.0,0,0
1766593689.8954282,1766593689.8431616,-1000.0,-72.265625,-279.78515625,-52.24609375,0.0,0,0
1766593689.895467,1766593689.8470573,-971.19140625,-88.37890625,-111.81640625,-92.7734375,0.0,0,0
1766593689.895506,1766593689.850953,229.4921875,30.2734375,189.94140625,-46.38671875,0.0,0,0
1766593689.895543,1766593689.854849,-791.9921875,127.44140625,228.515625,69.3359375,0.0,0,0
1766593689.8955789,1766593689.8587449,240.234375,90.33203125,-31.25,77.1484375,0.0,0,0
1766593689.8956292,1766593689.8626409,-998.53515625,-10.25390625,-252.9296875,-69.3359375,0.0,0,0
1766593689.8956769,1766593689.8665366,-1000.0,-58.59375,-149.4140625,-107.91015625,0.0,0,0
1766593689.8957329,1766593689.8704324,-24.4140625,30.2734375,147.4609375,-57.12890625,0.0,0,0
1766593689.8957691,1766593689.8743284,-813.4765625,137.6953125,246.58203125,27.83203125,0.0,0,0
1766593689.940258,1766593689.87831,402.83203125,117.67578125,21.484375,64.94140625,0.0,0,0
1766593689.940387,1766593689.8822057,-903.80859375,-20.99609375,-226.07421875,-17.08984375,0.0,0,0
1766593689.940449,1766593689.8861017,-1000.0,-66.40625,-150.390625,-106.93359375,0.0,0,0
1766593689.9405172,1766593689.8899975,-128.41796875,29.296875,113.28125,-112.79296875,0.0,0,0
1766593689.94057,1766593689.8938935,-874.0234375,110.83984375,239.2578125,13.18359375,0.0,0,0
1766593689.940622,1766593689.8977892,659.1796875,144.04296875,71.77734375,70.3125,0.0,0,0
1766593689.940672,1766593689.9016852,-670.41015625,77.1484375,-205.56640625,-27.83203125,0.0,0,0
1766593689.940724,1766593689.905581,-1000.0,-17.578125,-199.70703125,-143.5546875,0.0,0,0
1766593689.940773,1766593689.9094768,-138.18359375,26.3671875,100.09765625,-93.75,0.0,0,0
1766593689.940823,1766593689.9133728,-928.22265625,143.06640625,285.15625,50.78125,0.0,0,0
1766593689.940879,1766593689.9172685,849.609375,208.0078125,84.47265625,70.3125,0.0,0,0
1766593689.940947,1766593689.9211645,-411.62109375,144.04296875,-209.47265625,-23.92578125,0.0,0,0
1766593689.9846861,1766593689.9251354,-1000.0,49.8046875,-212.40234375,-100.09765625,0.0,0,0
1766593689.984798,1766593689.9290311,-151.85546875,94.23828125,60.05859375,-134.27734375,0.0,0,0
1766593689.9848561,1766593689.9329271,-991.2109375,233.88671875,272.94921875,4.8828125,0.0,0,0
1766593689.98491,1766593689.936823,-975.5859375,291.50390625,128.41796875,19.53125,0.0,0,0
1766593689.984962,1766593689.940719,-40.52734375,196.2890625,-195.3125,-71.2890625,0.0,0,0
1766593689.985013,1766593689.9446146,-1000.0,137.6953125,-232.421875,-73.73046875,0.0,0,0
1766593689.985065,1766593689.9485106,-220.21484375,150.87890625,45.41015625,-52.734375,0.0,0,0
1766593689.9851148,1766593689.9524064,983.3984375,252.9296875,276.3671875,47.36328125,0.0,0,0
1766593689.985165,1766593689.9563024,-928.22265625,361.81640625,166.9921875,-32.71484375,0.0,0,0
1766593689.985214,1766593689.9601982,118.1640625,295.41015625,-158.203125,-64.94140625,0.0,0,0
1766593689.985263,1766593689.9640942,-1000.0,194.82421875,-240.234375,-32.71484375,0.0,0,0
1766593689.985311,1766593689.9679902,-342.28515625,198.2421875,-2.44140625,-96.19140625,0.0,0,0
1766593690.044671,1766593689.9719498,935.05859375,352.5390625,238.28125,-44.43359375,0.0,0,0
1766593690.044829,1766593689.9758456,-903.80859375,436.03515625,233.3984375,17.08984375,0.0,0,0
1766593690.044928,1766593689.9797416,176.26953125,397.4609375,-52.734375,10.7421875,0.0,0,0
1766593690.044984,1766593689.9836373,-1000.0,342.7734375,-236.328125,-71.77734375,0.0,0,0
1766593690.0450351,1766593689.9875333,-466.796875,318.359375,-33.69140625,-116.2109375,0.0,0,0
1766593690.045089,1766593689.991429,853.02734375,438.4765625,254.8828125,-103.515625,0.0,0,0
1766593690.0451388,1766593689.995325,-879.39453125,627.44140625,245.60546875,-81.54296875,0.0,0,0
1766593690.0451908,1766593689.9992208,246.09375,546.38671875,-38.57421875,37.59765625,0.0,0,0
1766593690.045242,1766593690.0031168,-1000.0,302.734375,-259.765625,17.578125,0.0,0,0
1766593690.045291,1766593690.0070128,-750.48828125,364.74609375,-34.1796875,-79.58984375,0.0,0,0
1766593690.045341,1766593690.0109086,584.47265625,537.109375,317.3828125,-127.9296875,0.0,0,0
1766593690.045391,1766593690.0148046,-833.0078125,753.41796875,229.00390625,-189.94140625,0.0,0,0
1766593690.1353621,1766593690.0190759,343.75,783.69140625,-52.24609375,59.08203125,0.0,0,0
1766593690.1354911,1766593690.0229719,-1000.0,636.23046875,-241.69921875,314.453125,0.0,0,0
1766593690.1355982,1766593690.0268676,-887.20703125,557.6171875,-112.3046875,15.13671875,0.0,0,0
1766593690.1356711,1766593690.0307636,434.5703125,551.7578125,191.89453125,127.44140625,0.0,0,0
1766593690.137524,1766593690.0346596,-822.75390625,650.87890625,248.53515625,270.99609375,0.0,0,0
1766593690.1375859,1766593690.0385556,410.64453125,663.57421875,46.875,231.4453125,0.0,0,0
1766593690.1376262,1766593690.0424516,-910.15625,475.09765625,-133.30078125,336.42578125,0.0,0,0
1766593690.137664,1766593690.0463474,-1000.0,513.671875,-139.16015625,45.8984375,0.0,0,0
1766593690.137701,1766593690.0502434,158.69140625,695.80078125,93.26171875,58.59375,0.0,0,0
1766593690.137738,1766593690.0541394,-885.25390625,663.0859375,250.0,397.4609375,0.0,0,0
1766593690.137773,1766593690.0580354,788.0859375,715.33203125,3.41796875,400.390625,0.0,0,0
1766593690.13781,1766593690.0619314,-540.52734375,639.6484375,-196.2890625,74.70703125,0.0,0,0
1766593690.137847,1766593690.065971,-1000.0,445.3125,-136.23046875,20.01953125,0.0,0,0
1766593690.137882,1766593690.069867,217.28515625,459.9609375,81.54296875,297.8515625,0.0,0,0
1766593690.137919,1766593690.073763,-952.63671875,663.57421875,182.6171875,408.69140625,0.0,0,0
1766593690.1379552,1766593690.077659,994.62890625,810.546875,-12.6953125,273.92578125,0.0,0,0
1766593690.137992,1766593690.081555,-54.6875,526.85546875,-242.1875,388.18359375,0.0,0,0
1766593690.138027,1766593690.085451,-1000.0,461.9140625,-268.06640625,511.71875,0.0,0,0
1766593690.138062,1766593690.0893466,47.8515625,576.171875,84.47265625,-32.2265625,0.0,0,0
1766593690.138098,1766593690.0932426,-984.375,583.49609375,223.14453125,3.41796875,0.0,0,0
1766593690.138195,1766593690.0971386,-920.41015625,576.171875,0.0,572.75390625,0.0,0,0
1766593690.138237,1766593690.1010346,259.765625,509.27734375,-257.32421875,613.28125,0.0,0,0
1766593690.138276,1766593690.1049306,-1000.0,451.66015625,-298.828125,296.875,0.0,0,0
1766593690.138316,1766593690.1088266,106.93359375,383.30078125,-35.15625,57.12890625,0.0,0,0
1766593690.2246609,1766593690.1130753,-954.1015625,469.7265625,147.94921875,500.48828125,0.0,0,0
1766593690.224779,1766593690.1169713,-967.28515625,512.6953125,24.4140625,370.60546875,0.0,0,0
1766593690.224824,1766593690.1208673,560.546875,469.7265625,-245.1171875,215.33203125,0.0,0,0
1766593690.224863,1766593690.1247633,-887.6953125,437.98828125,-289.0625,104.00390625,0.0,0,0
1766593690.2249012,1766593690.1286592,36.62109375,506.8359375,-112.3046875,-293.9453125,0.0,0,0
1766593690.224939,1766593690.1325552,-922.36328125,569.3359375,80.078125,-172.36328125,0.0,0,0
1766593690.2249758,1766593690.1364512,975.5859375,596.19140625,12.6953125,-62.01171875,0.0,0,0
1766593690.2250812,1766593690.1403472,819.3359375,494.62890625,-245.60546875,-224.609375,0.0,0,0
1766593690.225145,1766593690.1442432,-334.47265625,369.140625,-354.4921875,-220.21484375,0.0,0,0
1766593690.225187,1766593690.1481395,237.79296875,393.5546875,-156.25,-453.125,0.0,0,0
1766593690.225224,1766593690.1520355,-916.9921875,388.671875,123.53515625,-490.72265625,0.0,0,0
1766593690.225261,1766593690.1559315,931.640625,484.86328125,112.3046875,-607.421875,0.0,0,0
1766593690.226754,1766593690.1599445,984.86328125,464.84375,-147.94921875,-831.54296875,0.0,0,0
1766593690.226808,1766593690.1638405,-281.73828125,280.2734375,-249.51171875,-853.515625,0.0,0,0
1766593690.226841,1766593690.1677365,-14.6484375,292.96875,-100.5859375,-825.1953125,0.0,0,0
1766593690.22687,1766593690.1716325,-948.73046875,349.12109375,101.5625,-729.00390625,0.0,0,0
1766593690.2268999,1766593690.1755288,-967.7734375,492.67578125,49.31640625,-870.1171875,0.0,0,0
1766593690.226929,1766593690.1794248,551.7578125,454.58984375,-174.31640625,-969.7265625,0.0,0,0
1766593690.226958,1766593690.1833208,-750.9765625,213.37890625,-273.4375,-764.6484375,0.0,0,0
1766593690.226986,1766593690.1872168,-1000.0,206.0546875,-150.390625,-718.26171875,0.0,0,0
1766593690.2270138,1766593690.1911128,-86.9140625,304.6875,36.1328125,-793.9453125,0.0,0,0
1766593690.2270432,1766593690.1950088,674.8046875,384.27734375,121.58203125,-634.765625,0.0,0,0
1766593690.227072,1766593690.198905,-772.94921875,333.49609375,-20.99609375,-781.25,0.0,0,0
1766593690.227106,1766593690.202801,-1000.0,219.23828125,-288.57421875,-815.91796875,0.0,0,0
1766593690.2697861,1766593690.2067883,-937.98828125,203.61328125,-191.89453125,-482.91015625,0.0,0,0
1766593690.26988,1766593690.2106843,-1000.0,254.8828125,81.0546875,-657.71484375,0.0,0,0
1766593690.269933,1766593690.2145805,-1000.0,358.88671875,55.17578125,-450.68359375,0.0,0,0
1766593690.269984,1766593690.2184765,-1000.0,303.22265625,-90.8203125,-141.11328125,0.0,0,0
1766593690.270033,1766593690.2223725,-1000.0,194.82421875,-230.95703125,-657.71484375,0.0,0,0
1766593690.2700841,1766593690.2262685,-1000.0,246.09375,-219.7265625,-667.96875,0.0,0,0
1766593690.270133,1766593690.2301648,-1000.0,169.921875,26.85546875,-174.8046875,0.0,0,0
1766593690.2701828,1766593690.2340608,-1000.0,275.390625,101.07421875,-222.65625,0.0,0,0
1766593690.2702332,1766593690.2379568,-1000.0,338.37890625,-48.33984375,-402.83203125,0.0,0,0
1766593690.270288,1766593690.2418528,-997.55859375,164.0625,-175.78125,-292.96875,0.0,0,0
1766593690.270338,1766593690.245749,-997.0703125,78.125,-145.01953125,-399.90234375,0.0,0,0
1766593690.270399,1766593690.249645,-1000.0,177.734375,-22.94921875,-386.23046875,0.0,0,0
1766593690.3152099,1766593690.2536223,-832.03125,215.33203125,69.82421875,-48.33984375,0.0,0,0
1766593690.315376,1766593690.2575185,-866.2109375,215.8203125,-31.73828125,-4.8828125,0.0,0,0
1766593690.3154602,1766593690.2614145,-993.1640625,179.6875,-205.56640625,-148.92578125,0.0,0,0
1766593690.315516,1766593690.2653105,-1000.0,113.76953125,-220.21484375,-182.6171875,0.0,0,0
1766593690.3155682,1766593690.2692068,-952.63671875,173.828125,-85.44921875,-65.4296875,0.0,0,0
1766593690.315619,1766593690.2731028,463.8671875,231.4453125,109.86328125,-110.83984375,0.0,0,0
1766593690.31567,1766593690.2769988,678.7109375,325.68359375,63.4765625,-93.75,0.0,0,0
1766593690.3157198,1766593690.2808948,-759.27734375,199.21875,-200.68359375,69.82421875,0.0,0,0
1766593690.3157701,1766593690.284791,-1000.0,81.54296875,-265.13671875,-139.16015625,0.0,0,0
1766593690.31583,1766593690.288687,-298.33984375,109.86328125,-75.68359375,-232.91015625,0.0,0,0
1766593690.3158798,1766593690.292583,908.203125,187.5,77.1484375,-52.734375,0.0,0,0
1766593690.315948,1766593690.2964792,-883.7890625,218.75,43.9453125,-132.32421875,0.0,0,0
1766593690.373643,1766593690.3004475,202.63671875,148.4375,-163.57421875,-43.45703125,0.0,0,0
1766593690.373752,1766593690.3043435,-1000.0,136.71875,-251.46484375,213.37890625,0.0,0,0
1766593690.373779,1766593690.3082397,-102.5390625,110.83984375,-58.10546875,81.0546875,0.0,0,0
1766593690.3738081,1766593690.3121357,-957.03125,115.72265625,79.58984375,43.9453125,0.0,0,0
1766593690.373832,1766593690.3160317,966.796875,271.97265625,30.76171875,-12.6953125,0.0,0,0
1766593690.373856,1766593690.319928,914.55078125,260.7421875,-145.5078125,-112.79296875,0.0,0,0
1766593690.3738801,1766593690.323824,-350.5859375,145.5078125,-250.48828125,-57.6171875,0.0,0,0
1766593690.373904,1766593690.32772,3.41796875,109.375,-121.58203125,63.96484375,0.0,0,0
1766593690.3739269,1766593690.3316162,-898.92578125,71.2890625,103.515625,174.31640625,0.0,0,0
1766593690.373952,1766593690.3355122,916.015625,218.26171875,87.40234375,76.66015625,0.0,0,0
1766593690.373976,1766593690.3394082,-971.6796875,241.2109375,-120.1171875,174.31640625,0.0,0,0
1766593690.373999,1766593690.3433044,219.23828125,62.5,-172.8515625,109.375,0.0,0,0
1766593690.420372,1766593690.347262,249.51171875,101.07421875,-129.39453125,-88.37890625,0.0,0,0
1766593690.420489,1766593690.3511581,-955.078125,176.26953125,31.73828125,64.453125,0.0,0,0
1766593690.420546,1766593690.3550541,911.1328125,212.890625,94.7265625,187.5,0.0,0,0
1766593690.420599,1766593690.3589501,-895.5078125,180.17578125,-92.28515625,-23.4375,0.0,0,0
1766593690.42065,1766593690.3628464,-165.52734375,98.14453125,-228.02734375,6.34765625,0.0,0,0
1766593690.420702,1766593690.3667424,-418.9453125,109.86328125,-168.45703125,103.515625,0.0,0,0
1766593690.420841,1766593690.3706384,994.62890625,104.00390625,22.94921875,115.72265625,0.0,0,0
1766593690.4209,1766593690.3745346,981.4453125,129.39453125,57.6171875,73.2421875,0.0,0,0
1766593690.422026,1766593690.3784306,937.01171875,152.83203125,-112.79296875,107.91015625,0.0,0,0
1766593690.42207,1766593690.3823268,-297.36328125,187.5,-287.109375,4.39453125,0.0,0,0
1766593690.422108,1766593690.3862228,-1000.0,150.87890625,-237.79296875,-195.80078125,0.0,0,0
1766593690.4221451,1766593690.3901188,348.14453125,109.86328125,-49.31640625,-57.6171875,0.0,0,0
1766593690.525105,1766593690.3944633,-855.46875,166.015625,21.484375,-5.859375,0.0,0,0
1766593690.52525,1766593690.3983595,643.06640625,175.78125,-110.83984375,32.2265625,0.0,0,0
1766593690.525294,1766593690.4022558,-617.67578125,178.22265625,-283.203125,15.625,0.0,0,0
1766593690.525333,1766593690.4061518,-1000.0,65.91796875,-242.67578125,-74.21875,0.0,0,0
1766593690.5253708,1766593690.410048,-120.60546875,97.65625,-64.453125,-84.9609375,0.0,0,0
1766593690.525408,1766593690.4139442,-853.515625,208.49609375,47.8515625,-40.52734375,0.0,0,0
1766593690.525446,1766593690.4178402,550.29296875,248.046875,-81.54296875,-64.453125,0.0,0,0
1766593690.525483,1766593690.4217365,-759.765625,154.78515625,-269.04296875,-98.6328125,0.0,0,0
1766593690.5255208,1766593690.4256327,-1000.0,28.80859375,-236.328125,-55.17578125,0.0,0,0
1766593690.525557,1766593690.4295287,-312.01171875,137.6953125,-89.35546875,-84.47265625,0.0,0,0
1766593690.525594,1766593690.433425,-970.21484375,215.8203125,9.27734375,-54.6875,0.0,0,0
1766593690.525625,1766593690.4373212,809.5703125,164.55078125,-70.3125,-19.53125,0.0,0,0
1766593690.527104,1766593690.4414322,-485.83984375,88.37890625,-237.79296875,-43.9453125,0.0,0,0
1766593690.5271611,1766593690.4453282,-1000.0,29.78515625,-253.90625,-66.89453125,0.0,0,0
1766593690.527194,1766593690.4492245,-326.171875,27.34375,-66.89453125,-57.12890625,0.0,0,0
1766593690.527225,1766593690.4531207,975.5859375,162.59765625,59.5703125,-28.80859375,0.0,0,0
1766593690.527255,1766593690.457017,943.359375,303.7109375,-66.89453125,-50.29296875,0.0,0,0
1766593690.527283,1766593690.4609132,-228.02734375,197.75390625,-220.703125,-71.77734375,0.0,0,0
1766593690.5273118,1766593690.4648092,-1000.0,35.64453125,-230.46875,-67.3828125,0.0,0,0
1766593690.5273411,1766593690.4687054,-478.515625,85.44921875,-154.78515625,-103.515625,0.0,0,0
1766593690.527411,1766593690.4726017,804.19921875,163.0859375,-19.04296875,-58.10546875,0.0,0,0
1766593690.527466,1766593690.476498,-868.65234375,85.44921875,4.39453125,22.4609375,0.0,0,0
1766593690.5275,1766593690.480394,148.92578125,72.75390625,-124.0234375,0.9765625,0.0,0,0
1766593690.527533,1766593690.4842901,-1000.0,96.19140625,-210.9375,-61.03515625,0.0,0,0
1766593690.555396,1766593690.4883015,-277.83203125,-14.6484375,-103.515625,-83.984375,0.0,0,0
1766593690.555493,1766593690.4921978,959.9609375,31.73828125,65.91796875,-70.3125,0.0,0,0
1766593690.555547,1766593690.496094,-916.015625,131.34765625,38.0859375,-37.59765625,0.0,0,0
1766593690.5556,1766593690.4999902,375.9765625,83.0078125,-136.71875,-48.828125,0.0,0,0
1766593690.555649,1766593690.5038865,-1000.0,36.1328125,-232.91015625,-146.484375,0.0,0,0
1766593690.555702,1766593690.5077827,-349.609375,28.80859375,-101.5625,-159.1796875,0.0,0,0
1766593690.5557508,1766593690.511679,956.0546875,60.546875,78.125,-90.33203125,0.0,0,0
1766593690.5558012,1766593690.515575,-921.875,57.12890625,79.1015625,-48.828125,0.0,0,0
1766593690.55585,1766593690.5194712,410.15625,35.15625,-79.1015625,-75.1953125,0.0,0,0
1766593690.5558999,1766593690.5233674,-1000.0,5.859375,-198.2421875,-140.625,0.0,0,0
1766593690.555948,1766593690.5272636,-736.81640625,-45.41015625,-114.2578125,-142.578125,0.0,0,0
1766593690.5559978,1766593690.5311599,621.09375,22.4609375,38.57421875,-118.65234375,0.0,0,0
1766593690.599828,1766593690.5351558,-846.6796875,121.09375,69.82421875,-101.07421875,0.0,0,0
1766593690.599941,1766593690.539052,366.69921875,95.21484375,-65.4296875,-105.95703125,0.0,0,0
1766593690.599997,1766593690.5429482,-915.52734375,-46.875,-170.41015625,-135.7421875,0.0,0,0
1766593690.6000488,1766593690.5468445,-1000.0,-100.5859375,-95.21484375,-157.2265625,0.0,0,0
1766593690.6001,1766593690.5507407,28.3203125,2.44140625,56.640625,-132.32421875,0.0,0,0
1766593690.600159,1766593690.554637,-813.4765625,109.86328125,112.79296875,-72.265625,0.0,0,0
1766593690.600209,1766593690.558533,353.515625,121.09375,-6.8359375,-59.5703125,0.0,0,0
1766593690.600259,1766593690.5624292,-923.828125,21.97265625,-155.76171875,-112.3046875,0.0,0,0
1766593690.600309,1766593690.5663254,-1000.0,-95.703125,-125.0,-144.53125,0.0,0,0
1766593690.6003551,1766593690.5702217,-166.9921875,-28.3203125,40.52734375,-115.234375,0.0,0,0
1766593690.6003919,1766593690.574118,-837.890625,76.171875,112.79296875,-54.6875,0.0,0,0
1766593690.600428,1766593690.5780141,429.6875,86.9140625,0.9765625,-37.109375,0.0,0,0
1766593690.6452658,1766593690.5819995,-881.34765625,-9.765625,-164.0625,-82.51953125,0.0,0,0
1766593690.645369,1766593690.5858958,-1000.0,-91.30859375,-144.04296875,-134.27734375,0.0,0,0
1766593690.645427,1766593690.589792,-205.56640625,-35.64453125,28.80859375,-132.8125,0.0,0,0
1766593690.6454809,1766593690.5936882,-901.85546875,61.03515625,105.46875,-66.89453125,0.0,0,0
1766593690.6455328,1766593690.5975845,701.66015625,66.40625,6.34765625,-2.44140625,0.0,0,0
1766593690.6455839,1766593690.6014807,-602.5390625,-25.390625,-123.046875,-34.66796875,0.0,0,0
1766593690.6456351,1766593690.605377,-1000.0,-76.171875,-138.671875,-115.72265625,0.0,0,0
1766593690.645684,1766593690.6092732,-278.80859375,-36.1328125,-9.765625,-108.88671875,0.0,0,0
1766593690.6457338,1766593690.6131694,-970.21484375,56.640625,106.4453125,-30.76171875,0.0,0,0
1766593690.6457841,1766593690.6170657,856.4453125,121.09375,14.6484375,-1.953125,0.0,0,0
1766593690.645834,1766593690.620962,-410.64453125,40.52734375,-156.25,-32.71484375,0.0,0,0
1766593690.6458838,1766593690.6248581,-1000.0,-83.984375,-170.8984375,-76.171875,0.0,0,0
1766593690.68985,1766593690.6288352,-420.8984375,-11.23046875,-25.87890625,-88.37890625,0.0,0,0
1766593690.6899772,1766593690.6327314,910.15625,93.26171875,94.23828125,-33.203125,0.0,0,0
1766593690.690021,1766593690.6366277,975.09765625,69.3359375,20.5078125,5.37109375,0.0,0,0
1766593690.6900601,1766593690.640524,-260.25390625,17.578125,-156.25,-34.66796875,0.0,0,0
1766593690.6900969,1766593690.6444201,-1000.0,-53.7109375,-189.453125,-83.984375,0.0,0,0
1766593690.690134,1766593690.6483164,-586.42578125,-42.48046875,-62.5,-94.7265625,0.0,0,0
1766593690.6901708,1766593690.6522126,747.0703125,40.52734375,69.3359375,-57.6171875,0.0,0,0
1766593690.690208,1766593690.6561089,-926.7578125,54.6875,31.25,-18.06640625,0.0,0,0
1766593690.6902452,1766593690.660005,-144.53125,-6.8359375,-146.484375,-45.8984375,0.0,0,0
1766593690.690281,1766593690.6639013,-1000.0,-61.5234375,-201.66015625,-112.3046875,0.0,0,0
1766593690.6903172,1766593690.6677976,-889.6484375,-58.10546875,-68.84765625,-120.60546875,0.0,0,0
1766593690.690361,1766593690.6716938,329.1015625,59.08203125,60.05859375,-72.75390625,0.0,0,0
1766593690.735287,1766593690.6756616,-826.171875,134.27734375,33.69140625,-37.59765625,0.0,0,0
1766593690.73547,1766593690.6795578,-14.6484375,-13.18359375,-96.6796875,-56.15234375,0.0,0,0
1766593690.735533,1766593690.683454,-1000.0,-118.65234375,-144.53125,-61.03515625,0.0,0,0
1766593690.735577,1766593690.6873503,-1000.0,-36.62109375,-54.6875,-82.51953125,0.0,0,0
1766593690.735614,1766593690.6912465,84.47265625,48.33984375,67.87109375,-98.14453125,0.0,0,0
1766593690.7356522,1766593690.6951427,-798.33984375,125.48828125,71.77734375,-70.80078125,0.0,0,0
1766593690.735689,1766593690.699039,91.30859375,39.0625,-93.26171875,-71.77734375,0.0,0,0
1766593690.7357252,1766593690.7029352,-1000.0,-91.796875,-217.7734375,-112.79296875,0.0,0,0
1766593690.735765,1766593690.7068315,-1000.0,-74.21875,-124.0234375,-137.20703125,0.0,0,0
1766593690.735837,1766593690.7107277,-57.6171875,20.99609375,43.9453125,-87.40234375,0.0,0,0
1766593690.735897,1766593690.7146242,-799.8046875,90.33203125,86.42578125,-31.25,0.0,0,0
1766593690.735939,1766593690.7185204,204.1015625,51.26953125,-52.734375,-45.41015625,0.0,0,0
1766593690.810084,1766593690.7226346,-1000.0,-37.109375,-203.61328125,-104.00390625,0.0,0,0
1766593690.810524,1766593690.7265308,-1000.0,-84.9609375,-145.99609375,-146.484375,0.0,0,0
1766593690.810569,1766593690.730427,-111.81640625,-2.9296875,32.71484375,-115.72265625,0.0,0,0
1766593690.8106089,1766593690.7343233,-828.125,115.234375,97.16796875,-53.22265625,0.0,0,0
1766593690.810647,1766593690.7382195,435.546875,101.5625,-53.22265625,-29.296875,0.0,0,0
1766593690.810688,1766593690.742116,-879.8828125,-11.23046875,-189.453125,-57.6171875,0.0,0,0
1766593690.8107252,1766593690.7460122,-1000.0,-94.7265625,-141.11328125,-108.3984375,0.0,0,0
1766593690.810761,1766593690.7499084,-126.953125,-23.4375,0.9765625,-98.6328125,0.0,0,0
1766593690.8107991,1766593690.7538047,-874.0234375,81.0546875,86.9140625,-44.921875,0.0,0,0
1766593690.810835,1766593690.757701,640.625,106.93359375,-15.625,-26.3671875,0.0,0,0
1766593690.810891,1766593690.7615974,-672.36328125,11.71875,-165.0390625,-70.80078125,0.0,0,0
1766593690.8109272,1766593690.7654936,-1000.0,-77.63671875,-160.64453125,-129.39453125,0.0,0,0
1766593690.840287,1766593690.7695236,-159.1796875,-1.953125,-25.87890625,-136.23046875,0.0,0,0
1766593690.84037,1766593690.7734199,-947.75390625,35.15625,71.77734375,-66.89453125,0.0,0,0
1766593690.8404129,1766593690.777316,892.08984375,26.85546875,-38.57421875,-6.34765625,0.0,0,0
1766593690.840451,1766593690.7812123,-320.3125,36.62109375,-208.0078125,-43.45703125,0.0,0,0
1766593690.840536,1766593690.7851088,-1000.0,-40.0390625,-167.48046875,-102.5390625,0.0,0,0
1766593690.84059,1766593690.789005,-228.515625,-2.9296875,14.6484375,-115.234375,0.0,0,0
1766593690.84063,1766593690.7929013,-988.76953125,76.171875,102.5390625,-72.75390625,0.0,0,0
1766593690.840668,1766593690.7967978,972.65625,63.96484375,16.6015625,-33.69140625,0.0,0,0
1766593690.840705,1766593690.800694,-160.64453125,6.34765625,-158.69140625,-70.3125,0.0,0,0
1766593690.8407419,1766593690.8045902,-1000.0,-90.8203125,-187.98828125,-120.60546875,0.0,0,0
1766593690.8407779,1766593690.8084865,-392.578125,-103.02734375,-38.0859375,-106.4453125,0.0,0,0
1766593690.840815,1766593690.812383,915.0390625,10.25390625,85.9375,-48.33984375,0.0,0,0
1766593690.884799,1766593690.8163986,-949.70703125,115.234375,41.50390625,-14.6484375,0.0,0,0
1766593690.8849652,1766593690.820295,-69.3359375,62.98828125,-114.74609375,-30.2734375,0.0,0,0
1766593690.885029,1766593690.8241913,-1000.0,-31.25,-183.59375,-75.68359375,0.0,0,0
1766593690.885081,1766593690.8280876,-713.37890625,-73.2421875,-70.80078125,-83.0078125,0.0,0,0
1766593690.885133,1766593690.831984,605.46875,-34.1796875,100.5859375,-34.66796875,0.0,0,0
1766593690.8851829,1766593690.8358803,-863.76953125,80.078125,82.51953125,-4.8828125,0.0,0,0
1766593690.8852339,1766593690.8397765,-34.66796875,53.22265625,-108.3984375,-36.62109375,0.0,0,0
1766593690.8852842,1766593690.843673,-1000.0,-39.0625,-209.9609375,-93.75,0.0,0,0
1766593690.885344,1766593690.8475692,-916.50390625,-100.09765625,-94.23828125,-104.00390625,0.0,0,0
1766593690.8854048,1766593690.8514657,283.69140625,-41.50390625,65.4296875,-66.40625,0.0,0,0
1766593690.885466,1766593690.855362,-805.17578125,93.26171875,66.89453125,-19.53125,0.0,0,0
1766593690.885534,1766593690.8592582,81.54296875,76.66015625,-74.70703125,-7.8125,0.0,0,0
1766593690.93025,1766593690.8632624,-1000.0,-54.19921875,-181.15234375,-61.03515625,0.0,0,0
1766593690.930357,1766593690.8671587,-1000.0,-117.67578125,-83.0078125,-97.16796875,0.0,0,0
1766593690.930414,1766593690.871055,121.58203125,-9.27734375,81.0546875,-68.359375,0.0,0,0
1766593690.930466,1766593690.8749514,-794.43359375,87.40234375,80.56640625,-14.6484375,0.0,0,0
1766593690.930519,1766593690.8788476,146.484375,19.04296875,-81.54296875,-13.18359375,0.0,0,0
1766593690.93057,1766593690.882744,-1000.0,-69.3359375,-213.8671875,-75.1953125,0.0,0,0
1766593690.930621,1766593690.8866403,-1000.0,-81.54296875,-131.34765625,-100.09765625,0.0,0,0
1766593690.930665,1766593690.8905368,-70.3125,-20.01953125,42.96875,-62.98828125,0.0,0,0
1766593690.9307039,1766593690.894433,-808.59375,80.56640625,85.44921875,-22.4609375,0.0,0,0
1766593690.930741,1766593690.8983293,317.87109375,57.12890625,-36.1328125,-1.46484375,0.0,0,0
1766593690.930781,1766593690.9022257,-962.890625,-53.22265625,-169.43359375,-36.1328125,0.0,0,0
1766593690.930818,1766593690.906122,-1000.0,-116.69921875,-142.08984375,-70.80078125,0.0,0,0
1766593690.974714,1766593690.9101162,-125.48828125,-43.9453125,13.18359375,-59.5703125,0.0,0,0
1766593690.9748201,1766593690.9140127,-852.5390625,63.4765625,116.2109375,-10.7421875,0.0,0,0
1766593690.974879,1766593690.917909,553.7109375,60.546875,11.71875,0.9765625,0.0,0,0
1766593690.974933,1766593690.9218054,-769.53125,-25.390625,-171.38671875,-53.7109375,0.0,0,0
1766593690.974984,1766593690.9257016,-1000.0,-107.421875,-157.71484375,-88.37890625,0.0,0,0
1766593690.975034,1766593690.929598,-145.5078125,-80.56640625,20.99609375,-64.94140625,0.0,0,0
1766593690.975086,1766593690.9334943,-911.1328125,28.80859375,119.62890625,-3.41796875,0.0,0,0
1766593690.975203,1766593690.9373908,784.66796875,46.38671875,1.46484375,20.99609375,0.0,0,0
1766593690.975289,1766593690.941287,-500.0,-40.52734375,-178.7109375,-23.92578125,0.0,0,0
1766593690.9753458,1766593690.9451835,-1000.0,-98.14453125,-183.10546875,-81.54296875,0.0,0,0
1766593690.9754,1766593690.9490798,-176.26953125,-45.41015625,-4.8828125,-66.89453125,0.0,0,0
1766593690.975451,1766593690.9529762,-955.078125,59.08203125,114.2578125,7.8125,0.0,0,0
1766593691.0202398,1766593690.9569607,911.1328125,82.03125,5.37109375,23.4375,0.0,0,0
1766593691.020349,1766593690.9608572,-291.9921875,-15.13671875,-161.62109375,-11.23046875,0.0,0,0
1766593691.020407,1766593690.9647534,-1000.0,-128.41796875,-187.98828125,-51.7578125,0.0,0,0
1766593691.020461,1766593690.9686499,-248.53515625,-106.4453125,-18.5546875,-46.875,0.0,0,0
1766593691.020513,1766593690.972546,975.5859375,5.859375,111.81640625,5.859375,0.0,0,0
1766593691.020564,1766593690.9764426,-958.984375,79.1015625,32.71484375,41.015625,0.0,0,0
1766593691.0206149,1766593690.980339,-5.859375,30.76171875,-122.0703125,13.18359375,0.0,0,0
1766593691.0206668,1766593690.9842353,-1000.0,-152.34375,-172.36328125,-32.71484375,0.0,0,0
1766593691.0207171,1766593690.9881318,-418.45703125,-158.203125,-37.109375,-46.875,0.0,0,0
1766593691.020766,1766593690.992028,890.625,32.2265625,87.40234375,-28.3203125,0.0,0,0
1766593691.0208151,1766593690.9959245,-912.59765625,112.79296875,27.83203125,-20.5078125,0.0,0,0
1766593691.020884,1766593690.9998207,38.0859375,23.4375,-153.3203125,-40.0390625,0.0,0,0
1766593691.065204,1766593691.0037954,-1000.0,-116.69921875,-222.16796875,-65.4296875,0.0,0,0
1766593691.065314,1766593691.0076916,-694.3359375,-116.2109375,-70.80078125,-73.2421875,0.0,0,0
1766593691.0653708,1766593691.011588,615.234375,-12.6953125,94.7265625,-48.828125,0.0,0,0
1766593691.065422,1766593691.0154843,-836.9140625,53.7109375,75.1953125,-9.765625,0.0,0,0
1766593691.065473,1766593691.0193808,104.4921875,16.6015625,-94.23828125,-20.01953125,0.0,0,0
1766593691.065523,1766593691.0232773,-1000.0,-57.6171875,-179.6875,-68.84765625,0.0,0,0
1766593691.065593,1766593691.0271735,-897.4609375,-94.23828125,-77.63671875,-80.078125,0.0,0,0
1766593691.065643,1766593691.03107,338.37890625,-54.19921875,67.3828125,-42.48046875,0.0,0,0
1766593691.065692,1766593691.0349662,-800.29296875,48.33984375,85.44921875,15.13671875,0.0,0,0
1766593691.065742,1766593691.0388627,141.6015625,2.9296875,-65.91796875,18.06640625,0.0,0,0
1766593691.065793,1766593691.0427592,-1000.0,-109.86328125,-194.3359375,-43.45703125,0.0,0,0
1766593691.065842,1766593691.0466554,-1000.0,-133.7890625,-106.4453125,-73.73046875,0.0,0,0
1766593691.124342,1766593691.0506234,93.75,-29.78515625,78.61328125,-36.1328125,0.0,0,0
1766593691.124455,1766593691.0545197,-794.921875,83.49609375,115.234375,16.11328125,0.0,0,0
1766593691.12451,1766593691.0584161,213.8671875,51.7578125,-37.109375,5.859375,0.0,0,0
1766593691.1245608,1766593691.0623126,-1000.0,-94.23828125,-188.96484375,-40.52734375,0.0,0,0
1766593691.1246111,1766593691.0662088,-1000.0,-177.734375,-126.953125,-70.3125,0.0,0,0
1766593691.124659,1766593691.0701053,-91.796875,-27.34375,58.10546875,-42.48046875,0.0,0,0
1766593691.125094,1766593691.0740018,-812.5,84.9609375,102.05078125,-1.46484375,0.0,0,0
1766593691.12515,1766593691.077898,338.8671875,22.94921875,-43.45703125,-20.5078125,0.0,0,0
1766593691.1251998,1766593691.0817945,-946.77734375,-80.56640625,-200.1953125,-78.61328125,0.0,0,0
1766593691.1252532,1766593691.0856907,-1000.0,-139.6484375,-149.90234375,-114.74609375,0.0,0,0
1766593691.125312,1766593691.0895872,-170.41015625,-67.87109375,46.875,-81.0546875,0.0,0,0
1766593691.125361,1766593691.0934837,-856.4453125,40.52734375,120.60546875,-31.25,0.0,0,0
1766593691.1696918,1766593691.097439,540.52734375,62.5,-4.8828125,-20.01953125,0.0,0,0
1766593691.169756,1766593691.1013355,-780.2734375,-59.08203125,-162.59765625,-53.22265625,0.0,0,0
1766593691.169795,1766593691.1052318,-1000.0,-160.15625,-145.5078125,-89.84375,0.0,0,0
1766593691.1698308,1766593691.1091282,-234.375,-113.76953125,24.4140625,-87.40234375,0.0,0,0
1766593691.169867,1766593691.1130247,-926.7578125,28.80859375,125.48828125,-31.25,0.0,0,0
1766593691.169903,1766593691.116921,763.18359375,71.2890625,17.08984375,-4.39453125,0.0,0,0
1766593691.169939,1766593691.1208174,-536.62109375,-40.52734375,-160.64453125,-54.19921875,0.0,0,0
1766593691.169976,1766593691.124714,-1000.0,-148.4375,-169.921875,-90.8203125,0.0,0,0
1766593691.170012,1766593691.1286101,-278.3203125,-156.25,9.765625,-61.03515625,0.0,0,0
1766593691.170048,1766593691.1325066,997.55859375,-22.94921875,130.859375,-17.08984375,0.0,0,0
1766593691.170084,1766593691.136403,950.68359375,43.9453125,23.4375,-11.23046875,0.0,0,0
1766593691.17012,1766593691.1402993,-244.62890625,-28.80859375,-154.296875,-45.8984375,0.0,0,0
1766593691.215584,1766593691.1443238,-1000.0,-139.16015625,-178.7109375,-94.23828125,0.0,0,0
1766593691.215748,1766593691.1482203,-363.76953125,-148.92578125,-19.53125,-92.28515625,0.0,0,0
1766593691.215806,1766593691.1521168,920.41015625,-22.94921875,127.9296875,-39.55078125,0.0,0,0
1766593691.215861,1766593691.1560133,-943.359375,77.1484375,70.80078125,-2.9296875,0.0,0,0
1766593691.215914,1766593691.1599095,-31.73828125,16.11328125,-115.234375,-19.53125,0.0,0,0
1766593691.215965,1766593691.163806,-1000.0,-123.046875,-177.24609375,-72.75390625,0.0,0,0
1766593691.216015,1766593691.1677024,-545.8984375,-126.953125,-46.875,-74.70703125,0.0,0,0
1766593691.2160661,1766593691.171599,766.6015625,-34.1796875,121.09375,-12.20703125,0.0,0,0
1766593691.216116,1766593691.1754951,-869.62890625,41.015625,77.1484375,13.18359375,0.0,0,0
1766593691.2161658,1766593691.1793916,87.40234375,-46.875,-125.9765625,-27.34375,0.0,0,0
1766593691.216216,1766593691.183288,-1000.0,-173.828125,-204.58984375,-89.84375,0.0,0,0
1766593691.216264,1766593691.1871846,-809.5703125,-136.71875,-94.23828125,-123.046875,0.0,0,0
1766593691.26076,1766593691.1911976,479.98046875,0.0,31.25,-78.125,0.0,0,0
1766593691.260915,1766593691.195094,-816.40625,78.61328125,59.08203125,-14.16015625,0.0,0,0
1766593691.260976,1766593691.1989906,109.86328125,-1.46484375,-58.59375,-19.53125,0.0,0,0
1766593691.261031,1766593691.202887,-1000.0,-109.86328125,-175.29296875,-78.61328125,0.0,0,0
1766593691.2610822,1766593691.2067835,-949.70703125,-144.53125,-83.49609375,-109.375,0.0,0,0
1766593691.261133,1766593691.21068,243.65234375,-59.08203125,90.8203125,-76.66015625,0.0,0,0
1766593691.261184,1766593691.2145762,-793.9453125,48.33984375,110.83984375,-25.87890625,0.0,0,0
1766593691.261236,1766593691.2184727,193.84765625,36.1328125,-61.5234375,-18.5546875,0.0,0,0
1766593691.261287,1766593691.2223692,-1000.0,-107.421875,-199.21875,-61.5234375,0.0,0,0
1766593691.261336,1766593691.2262657,-1000.0,-199.21875,-120.60546875,-83.984375,0.0,0,0
1766593691.261386,1766593691.2301621,71.77734375,-81.0546875,66.89453125,-42.48046875,0.0,0,0
1766593691.261455,1766593691.2340584,-804.19921875,20.5078125,124.0234375,20.5078125,0.0,0,0
1766593691.3053708,1766593691.2380626,342.28515625,-5.37109375,-25.87890625,30.2734375,0.0,0,0
1766593691.305514,1766593691.241959,-947.265625,-65.91796875,-192.3828125,-42.96875,0.0,0,0
1766593691.3055732,1766593691.2458556,-1000.0,-126.953125,-130.859375,-80.078125,0.0,0,0
1766593691.3056262,1766593691.249752,-52.24609375,-83.49609375,62.98828125,-25.87890625,0.0,0,0
1766593691.305677,1766593691.2536483,-851.5625,33.203125,132.32421875,28.3203125,0.0,0,0
1766593691.305727,1766593691.2575448,582.51953125,76.171875,1.46484375,21.484375,0.0,0,0
1766593691.3057761,1766593691.2614412,-735.3515625,-17.08984375,-178.22265625,-28.80859375,0.0,0,0
1766593691.305828,1766593691.2653377,-1000.0,-139.6484375,-155.2734375,-63.4765625,0.0,0,0
1766593691.305878,1766593691.2692342,-147.4609375,-129.8828125,21.484375,-37.109375,0.0,0,0
1766593691.30594,1766593691.2731307,-903.80859375,-35.64453125,124.51171875,28.80859375,0.0,0,0
1766593691.305989,1766593691.2770271,749.0234375,25.390625,15.13671875,33.69140625,0.0,0,0
1766593691.3060591,1766593691.2809236,-566.89453125,-43.9453125,-177.734375,-36.1328125,0.0,0,0
1766593691.349312,1766593691.2849154,-1000.0,-158.69140625,-163.0859375,-82.03125,0.0,0,0
1766593691.3493671,1766593691.288812,-132.32421875,-127.44140625,26.85546875,-66.89453125,0.0,0,0
1766593691.3493938,1766593691.2927084,-966.796875,13.671875,127.44140625,-12.6953125,0.0,0,0
1766593691.34942,1766593691.2966049,875.9765625,36.1328125,25.390625,28.3203125,0.0,0,0
1766593691.3494442,1766593691.3005013,-360.83984375,-59.08203125,-145.01953125,2.9296875,0.0,0,0
1766593691.349468,1766593691.3043978,-1000.0,-129.8828125,-167.48046875,-57.6171875,0.0,0,0
1766593691.349492,1766593691.3082943,-308.10546875,-86.42578125,-17.578125,-60.546875,0.0,0,0
1766593691.349516,1766593691.3121908,970.703125,20.01953125,104.98046875,-0.9765625,0.0,0,0
1766593691.3495412,1766593691.3160872,997.0703125,36.62109375,41.015625,38.0859375,0.0,0,0
1766593691.349565,1766593691.3199837,-153.3203125,-38.0859375,-129.8828125,6.34765625,0.0,0,0
1766593691.349588,1766593691.3238802,-1000.0,-120.1171875,-183.10546875,-48.33984375,0.0,0,0
1766593691.349613,1766593691.3277767,-474.12109375,-109.375,-37.59765625,-54.6875,0.0,0,0
1766593691.469491,1766593691.3321426,834.9609375,5.37109375,118.1640625,10.7421875,0.0,0,0
1766593691.469646,1766593691.336039,-907.71484375,86.42578125,77.1484375,61.03515625,0.0,0,0
1766593691.469874,1766593691.3399358,5.37109375,11.71875,-99.609375,26.3671875,0.0,0,0
1766593691.470022,1766593691.3438323,-1000.0,-117.67578125,-179.6875,-35.15625,0.0,0,0
1766593691.4700701,1766593691.3477287,-682.12890625,-145.99609375,-45.41015625,-54.6875,0.0,0,0
1766593691.47011,1766593691.3516252,629.8828125,-16.6015625,129.39453125,-28.80859375,0.0,0,0
1766593691.470148,1766593691.3555217,-842.28515625,68.84765625,91.30859375,-10.25390625,0.0,0,0
1766593691.470185,1766593691.3594184,91.796875,-58.59375,-111.328125,-44.43359375,0.0,0,0
1766593691.470222,1766593691.3633149,-1000.0,-178.22265625,-225.09765625,-111.328125,0.0,0,0
1766593691.470258,1766593691.3672113,-842.7734375,-159.66796875,-72.75390625,-123.53515625,0.0,0,0
1766593691.470295,1766593691.3711078,416.9921875,-50.29296875,111.328125,-99.12109375,0.0,0,0
1766593691.470332,1766593691.3750045,-806.15234375,56.15234375,43.45703125,-103.02734375,0.0,0,0
1766593691.472085,1766593691.3791468,170.41015625,41.9921875,-139.6484375,-111.328125,0.0,0,0
1766593691.472157,1766593691.3830435,-1000.0,-72.265625,-243.65234375,-174.31640625,0.0,0,0
1766593691.47219,1766593691.38694,-1000.0,-137.6953125,-158.69140625,-225.5859375,0.0,0,0
1766593691.472219,1766593691.3908365,140.625,-78.61328125,37.109375,-181.640625,0.0,0,0
1766593691.472248,1766593691.3947332,-797.36328125,42.96875,83.984375,-109.86328125,0.0,0,0
1766593691.472277,1766593691.3986297,271.484375,27.83203125,-41.015625,-80.078125,0.0,0,0
1766593691.472306,1766593691.4025261,-990.72265625,-80.56640625,-179.6875,-113.28125,0.0,0,0
1766593691.4723341,1766593691.4064229,-1000.0,-132.32421875,-137.6953125,-143.06640625,0.0,0,0
1766593691.472362,1766593691.4103193,-19.53125,-118.1640625,44.43359375,-98.6328125,0.0,0,0
1766593691.47239,1766593691.414216,-821.77734375,24.4140625,101.07421875,-37.59765625,0.0,0,0
1766593691.4726038,1766593691.4181125,429.19921875,80.56640625,-37.109375,-40.52734375,0.0,0,0
1766593691.472636,1766593691.422009,-876.953125,-34.66796875,-198.2421875,-86.9140625,0.0,0,0
1766593691.499496,1766593691.4259765,-1000.0,-133.30078125,-160.15625,-113.76953125,0.0,0,0
1766593691.499574,1766593691.429873,-121.58203125,-95.21484375,21.484375,-96.19140625,0.0,0,0
1766593691.499616,1766593691.4337697,-867.1875,30.2734375,109.86328125,-33.69140625,0.0,0,0
1766593691.4996538,1766593691.4376662,614.74609375,38.57421875,-12.20703125,-8.7890625,0.0,0,0
1766593691.499691,1766593691.441563,-701.66015625,-63.96484375,-186.5234375,-59.08203125,0.0,0,0
1766593691.499728,1766593691.4454594,-1000.0,-145.01953125,-154.78515625,-98.14453125,0.0,0,0
1766593691.499764,1766593691.4493558,-172.8515625,-98.6328125,23.92578125,-75.1953125,0.0,0,0
1766593691.499825,1766593691.4532526,-928.22265625,19.53125,116.69921875,-14.6484375,0.0,0,0
1766593691.499892,1766593691.457149,820.3125,60.546875,22.94921875,9.765625,0.0,0,0
1766593691.499982,1766593691.4610457,-441.40625,-18.5546875,-166.50390625,-33.203125,0.0,0,0
1766593691.500257,1766593691.4649422,-1000.0,-129.39453125,-175.78125,-65.91796875,0.0,0,0
1766593691.500302,1766593691.468839,-243.65234375,-124.51171875,-2.44140625,-60.546875,0.0,0,0
1766593691.544003,1766593691.4727921,-995.60546875,1.46484375,117.1875,-23.4375,0.0,0,0
1766593691.54409,1766593691.4766886,969.23828125,76.171875,46.38671875,10.25390625,0.0,0,0
1766593691.544142,1766593691.4805853,-191.89453125,-106.4453125,-141.11328125,-30.76171875,0.0,0,0
1766593691.544202,1766593691.4844818,-1000.0,-227.5390625,-182.6171875,-102.5390625,0.0,0,0
1766593691.544251,1766593691.4883785,-331.0546875,-103.02734375,-30.76171875,-108.3984375,0.0,0,0
1766593691.544302,1766593691.492275,940.4296875,14.16015625,118.65234375,-45.41015625,0.0,0,0
1766593691.544352,1766593691.4961715,-940.91796875,90.8203125,59.08203125,0.9765625,0.0,0,0
1766593691.5444028,1766593691.5000682,3.41796875,1.953125,-123.53515625,-11.23046875,0.0,0,0
1766593691.5444531,1766593691.5039647,-1000.0,-161.1328125,-175.29296875,-58.10546875,0.0,0,0
1766593691.544502,1766593691.5078614,-509.27734375,-181.640625,-46.38671875,-83.0078125,0.0,0,0
1766593691.544551,1766593691.5117579,800.78125,-65.91796875,100.09765625,-40.52734375,0.0,0,0
1766593691.54461,1766593691.5156546,-875.0,93.75,79.1015625,37.109375,0.0,0,0
1766593691.5894132,1766593691.5196743,114.74609375,64.453125,-119.62890625,16.11328125,0.0,0,0
1766593691.589534,1766593691.5235708,-1000.0,-71.2890625,-214.35546875,-76.66015625,0.0,0,0
1766593691.5895638,1766593691.5274675,-728.02734375,-121.09375,-68.359375,-98.14453125,0.0,0,0
1766593691.5895889,1766593691.531364,583.0078125,-49.8046875,103.515625,-42.96875,0.0,0,0
1766593691.589615,1766593691.5352607,-827.63671875,61.5234375,105.46875,4.39453125,0.0,0,0
1766593691.589639,1766593691.5391572,153.80859375,4.39453125,-52.24609375,-12.6953125,0.0,0,0
1766593691.589663,1766593691.5430539,-1000.0,-123.046875,-190.91796875,-79.58984375,0.0,0,0
1766593691.589716,1766593691.5469503,-896.97265625,-104.4921875,-114.2578125,-110.83984375,0.0,0,0
1766593691.589741,1766593691.550847,342.7734375,-17.578125,62.5,-62.5,0.0,0,0
1766593691.589782,1766593691.5547438,-800.78125,52.734375,93.26171875,0.0,0.0,0,0
1766593691.5898151,1766593691.5586402,246.09375,38.57421875,-58.10546875,12.6953125,0.0,0,0
1766593691.589847,1766593691.562537,-1000.0,-66.40625,-196.2890625,-32.2265625,0.0,0,0
1766593691.635199,1766593691.5665474,-1000.0,-165.52734375,-119.62890625,-69.82421875,0.0,0,0
1766593691.6353018,1766593691.5704439,112.79296875,-98.6328125,69.82421875,-36.62109375,0.0,0,0
1766593691.635355,1766593691.5743406,-805.17578125,58.10546875,115.72265625,21.97265625,0.0,0,0
1766593691.635408,1766593691.578237,343.26171875,72.75390625,-21.97265625,40.52734375,0.0,0,0
1766593691.6354592,1766593691.5821338,-942.3828125,-49.8046875,-176.7578125,-20.01953125,0.0,0,0
1766593691.635509,1766593691.5860305,-1000.0,-113.28125,-140.13671875,-67.3828125,0.0,0,0
1766593691.635558,1766593691.589927,-59.08203125,-38.57421875,27.34375,-40.0390625,0.0,0,0
1766593691.635608,1766593691.5938237,-836.9140625,54.6875,88.37890625,10.7421875,0.0,0,0
1766593691.635658,1766593691.5977201,496.58203125,33.203125,-41.9921875,14.16015625,0.0,0,0
1766593691.6357088,1766593691.6016169,-814.94140625,-98.14453125,-192.87109375,-42.48046875,0.0,0,0
1766593691.635759,1766593691.6055136,-1000.0,-136.71875,-155.76171875,-84.9609375,0.0,0,0
1766593691.635807,1766593691.60941,-157.71484375,-89.35546875,20.01953125,-76.66015625,0.0,0,0
1766593691.680026,1766593691.6134105,-902.34375,-25.87890625,87.40234375,-32.2265625,0.0,0,0
1766593691.680143,1766593691.617307,739.2578125,28.3203125,-26.85546875,-5.859375,0.0,0,0
1766593691.680199,1766593691.6212037,-551.7578125,-23.92578125,-147.94921875,-24.90234375,0.0,0,0
1766593691.680254,1766593691.6251004,-1000.0,-129.8828125,-146.484375,-70.3125,0.0,0,0
1766593691.680305,1766593691.6289968,-220.21484375,-99.12109375,-15.13671875,-84.9609375,0.0,0,0
1766593691.680356,1766593691.6328936,-960.44921875,34.1796875,93.75,-36.1328125,0.0,0,0
1766593691.680407,1766593691.6367903,889.6484375,78.125,14.6484375,1.953125,0.0,0,0
1766593691.6804569,1766593691.6406868,-337.40234375,-8.30078125,-136.71875,-14.16015625,0.0,0,0
1766593691.680508,1766593691.6445835,-1000.0,-156.25,-154.296875,-48.828125,0.0,0,0
1766593691.680566,1766593691.6484802,-304.19921875,-146.97265625,-17.578125,-55.6640625,0.0,0,0
1766593691.680626,1766593691.6523767,965.33203125,5.37109375,101.07421875,-26.85546875,0.0,0,0
1766593691.680686,1766593691.6562734,-985.83984375,62.01171875,38.0859375,-4.39453125,0.0,0,0
1766593691.784805,1766593691.660566,-105.95703125,-18.5546875,-117.67578125,-22.4609375,0.0,0,0
1766593691.784938,1766593691.6644628,-1000.0,-124.0234375,-143.5546875,-49.31640625,0.0,0,0
1766593691.7854028,1766593691.6683595,-449.21875,-89.84375,-8.7890625,-47.36328125,0.0,0,0
1766593691.785558,1766593691.6722562,846.6796875,6.8359375,118.1640625,-14.16015625,0.0,0,0
1766593691.785855,1766593691.676153,-893.06640625,22.4609375,73.2421875,19.04296875,0.0,0,0
1766593691.786036,1766593691.6800494,84.47265625,2.44140625,-99.12109375,8.30078125,0.0,0,0
1766593691.7861,1766593691.6839461,-1000.0,-49.31640625,-188.4765625,-46.38671875,0.0,0,0
1766593691.7862499,1766593691.6878428,-610.83984375,-94.23828125,-87.40234375,-82.03125,0.0,0,0
1766593691.786487,1766593691.6917396,710.44921875,-35.64453125,71.77734375,-55.6640625,0.0,0,0
1766593691.786647,1766593691.6956363,-853.02734375,50.29296875,75.1953125,-13.671875,0.0,0,0
1766593691.786767,1766593691.699533,131.8359375,11.71875,-64.94140625,-13.18359375,0.0,0,0
1766593691.786916,1766593691.7034297,-1000.0,-90.33203125,-155.2734375,-51.7578125,0.0,0,0
1766593691.798516,1766593691.7075,-807.6171875,-115.234375,-67.3828125,-69.82421875,0.0,0,0
1766593691.798581,1766593691.7113967,472.65625,-22.4609375,88.37890625,-44.43359375,0.0,0,0
1766593691.798613,1766593691.7152934,-812.98828125,49.8046875,100.09765625,6.8359375,0.0,0,0
1766593691.798647,1766593691.7191901,200.1953125,-0.48828125,-47.36328125,11.71875,0.0,0,0
1766593691.798678,1766593691.7230868,-1000.0,-124.51171875,-163.0859375,-44.921875,0.0,0,0
1766593691.798707,1766593691.7269835,-959.47265625,-149.90234375,-68.84765625,-77.63671875,0.0,0,0
1766593691.7987368,1766593691.7308803,237.79296875,-17.578125,81.54296875,-58.10546875,0.0,0,0
1766593691.7987661,1766593691.734777,-799.31640625,62.01171875,99.609375,-11.23046875,0.0,0,0
1766593691.798794,1766593691.7386737,279.78515625,0.48828125,-34.66796875,-5.859375,0.0,0,0
1766593691.7988229,1766593691.7425704,-981.4453125,-103.515625,-157.71484375,-38.0859375,0.0,0,0
1766593691.7988522,1766593691.746467,-1000.0,-119.140625,-88.37890625,-46.38671875,0.0,0,0
1766593691.79888,1766593691.7503638,-16.11328125,-37.59765625,55.6640625,-47.36328125,0.0,0,0
1766593691.814937,1766593691.7543387,-825.1953125,57.12890625,77.63671875,-22.4609375,0.0,0,0
1766593691.815003,1766593691.7582355,441.89453125,31.73828125,-62.98828125,-3.41796875,0.0,0,0
1766593691.815367,1766593691.7621322,-863.28125,-77.1484375,-184.5703125,-37.59765625,0.0,0,0
1766593691.815407,1766593691.766029,-1000.0,-141.6015625,-132.8125,-73.2421875,0.0,0,0
1766593691.815445,1766593691.7699256,-131.34765625,-82.51953125,29.296875,-62.98828125,0.0,0,0
1766593691.8154821,1766593691.7738223,-872.55859375,24.90234375,110.3515625,-6.34765625,0.0,0,0
1766593691.815518,1766593691.7777193,633.30078125,54.6875,20.01953125,20.99609375,0.0,0,0
1766593691.8155541,1766593691.781616,-682.12890625,-71.2890625,-131.8359375,-25.87890625,0.0,0,0
1766593691.81559,1766593691.7855127,-1000.0,-201.66015625,-114.2578125,-73.2421875,0.0,0,0
1766593691.815626,1766593691.7894094,-175.78125,-104.4921875,37.59765625,-57.12890625,0.0,0,0
1766593691.815661,1766593691.793306,-923.33984375,41.9921875,107.421875,-11.23046875,0.0,0,0
1766593691.815697,1766593691.7972028,802.24609375,21.484375,6.34765625,0.0,0.0,0,0
1766593691.859753,1766593691.801164,-464.84375,-62.98828125,-161.62109375,-41.50390625,0.0,0,0
1766593691.8598669,1766593691.8050606,-1000.0,-127.44140625,-178.7109375,-105.46875,0.0,0,0
1766593691.859924,1766593691.8089573,-263.671875,-116.69921875,-29.78515625,-110.83984375,0.0,0,0
1766593691.859977,1766593691.812854,995.1171875,-5.859375,81.0546875,-68.359375,0.0,0,0
1766593691.8600268,1766593691.8167508,968.75,43.45703125,21.484375,-25.87890625,0.0,0,0
1766593691.860076,1766593691.8206475,-187.5,-19.04296875,-122.0703125,-8.7890625,0.0,0,0
1766593691.860126,1766593691.8245442,-1000.0,-113.28125,-172.36328125,-47.36328125,0.0,0,0
1766593691.8601751,1766593691.828441,-357.91015625,-125.0,-37.59765625,-59.5703125,0.0,0,0
1766593691.860224,1766593691.8323379,924.8046875,-41.9921875,105.95703125,-30.2734375,0.0,0,0
1766593691.860321,1766593691.8362346,-938.4765625,53.7109375,55.17578125,-6.8359375,0.0,0,0
1766593691.860407,1766593691.8401313,-4.8828125,15.625,-112.3046875,-6.8359375,0.0,0,0
1766593691.860464,1766593691.844028,-1000.0,-105.95703125,-176.7578125,-50.29296875,0.0,0,0
1766593691.91998,1766593691.8479822,-531.73828125,-91.30859375,-61.03515625,-76.66015625,0.0,0,0
1766593691.9201732,1766593691.851879,778.80859375,-21.484375,67.87109375,-57.6171875,0.0,0,0
1766593691.920235,1766593691.8557756,-871.09375,29.296875,64.94140625,-15.625,0.0,0,0
1766593691.92029,1766593691.8596723,107.91015625,16.6015625,-62.98828125,-13.18359375,0.0,0,0
1766593691.920342,1766593691.863569,-1000.0,-96.19140625,-138.671875,-73.73046875,0.0,0,0
1766593691.920394,1766593691.8674657,-713.37890625,-100.5859375,-39.55078125,-100.09765625,0.0,0,0
1766593691.9204538,1766593691.8713624,590.8203125,13.671875,93.75,-51.26953125,0.0,0,0
1766593691.920504,1766593691.8752594,-830.078125,79.1015625,94.23828125,0.0,0.0,0,0
1766593691.920552,1766593691.879156,165.0390625,25.390625,-57.12890625,9.765625,0.0,0,0
1766593691.920602,1766593691.8830528,-1000.0,-115.234375,-168.9453125,-40.0390625,0.0,0,0
1766593691.920663,1766593691.8869495,-901.85546875,-152.34375,-91.30859375,-95.703125,0.0,0,0
1766593691.920743,1766593691.8908463,338.37890625,-54.19921875,62.5,-76.66015625,0.0,0,0
1766593691.964611,1766593691.8948636,-800.78125,42.96875,78.125,-16.11328125,0.0,0,0
1766593691.964683,1766593691.8987603,232.91015625,19.53125,-56.15234375,-5.859375,0.0,0,0
1766593691.964725,1766593691.9026573,-1000.0,-75.68359375,-168.9453125,-62.98828125,0.0,0,0
1766593691.964763,1766593691.906554,-1000.0,-100.09765625,-115.72265625,-85.44921875,0.0,0,0
1766593691.964801,1766593691.9104507,94.23828125,-36.62109375,46.38671875,-52.24609375,0.0,0,0
1766593691.9648378,1766593691.9143474,-806.15234375,71.2890625,106.93359375,-8.7890625,0.0,0,0
1766593691.964875,1766593691.9182441,332.51953125,52.24609375,-27.83203125,2.44140625,0.0,0,0
1766593691.964913,1766593691.9221408,-945.3125,-56.640625,-162.109375,-35.64453125,0.0,0,0
1766593691.964949,1766593691.9260378,-1000.0,-125.0,-119.140625,-71.77734375,0.0,0,0
1766593691.9649842,1766593691.9299345,-82.03125,-102.05078125,52.24609375,-51.26953125,0.0,0,0
1766593691.965021,1766593691.9338312,-843.26171875,46.875,129.39453125,-8.30078125,0.0,0,0
1766593691.965058,1766593691.937728,516.11328125,67.3828125,-9.765625,-12.6953125,0.0,0,0
1766593692.009878,1766593691.9417355,-797.8515625,-70.3125,-170.41015625,-56.15234375,0.0,0,0
1766593692.009993,1766593691.9456322,-1000.0,-119.140625,-142.08984375,-83.0078125,0.0,0,0
1766593692.01005,1766593691.9495292,-154.78515625,-54.19921875,44.43359375,-53.22265625,0.0,0,0
1766593692.0101519,1766593691.953426,-893.06640625,46.38671875,123.046875,-47.36328125,0.0,0,0
1766593692.010229,1766593691.9573226,702.1484375,65.4296875,10.25390625,-55.17578125,0.0,0,0
1766593692.010284,1766593691.9612193,-593.75,-7.32421875,-126.46484375,-73.73046875,0.0,0,0
1766593692.010336,1766593691.9651163,-1000.0,-78.61328125,-136.71875,-149.4140625,0.0,0,0
1766593692.010387,1766593691.969013,-236.81640625,-84.47265625,33.69140625,-156.25,0.0,0,0
1766593692.010437,1766593691.9729097,-959.9609375,-22.4609375,135.25390625,-116.2109375,0.0,0,0
1766593692.010487,1766593691.9768064,870.60546875,3.41796875,63.4765625,-123.53515625,0.0,0,0
1766593692.010536,1766593691.9807034,-373.046875,-62.98828125,-84.47265625,-159.1796875,0.0,0,0
1766593692.010585,1766593691.9846,-1000.0,-148.4375,-135.25390625,-197.75390625,0.0,0,0
1766593692.070732,1766593691.9886732,-330.56640625,-153.3203125,35.64453125,-189.453125,0.0,0,0
1766593692.070855,1766593691.99257,963.37890625,-47.36328125,176.26953125,-142.08984375,0.0,0,0
1766593692.070889,1766593691.9964669,989.74609375,19.53125,96.6796875,-100.09765625,0.0,0,0
1766593692.070921,1766593692.0003636,-172.36328125,-99.609375,-45.8984375,-112.79296875,0.0,0,0
1766593692.071002,1766593692.0042603,-1000.0,-199.70703125,-62.98828125,-155.76171875,0.0,0,0
1766593692.071054,1766593692.0081573,-458.49609375,-147.94921875,80.56640625,-128.90625,0.0,0,0
1766593692.071146,1766593692.012054,849.609375,-65.91796875,201.171875,-79.58984375,0.0,0,0
1766593692.071198,1766593692.015951,-917.96875,-56.640625,86.9140625,-62.5,0.0,0,0
1766593692.071232,1766593692.0198476,-7.8125,-96.6796875,-108.88671875,-66.40625,0.0,0,0
1766593692.071262,1766593692.0237443,-1000.0,-159.1796875,-103.02734375,-108.88671875,0.0,0,0
1766593692.071319,1766593692.0276413,-644.04296875,-164.0625,14.16015625,-109.86328125,0.0,0,0
1766593692.071371,1766593692.031538,662.59765625,-100.09765625,153.3203125,-20.5078125,0.0,0,0
1766593692.100018,1766593692.0355294,-847.16796875,-8.30078125,164.55078125,35.64453125,0.0,0,0
1766593692.100141,1766593692.039426,115.72265625,-33.69140625,27.34375,27.83203125,0.0,0,0
1766593692.1001961,1766593692.043323,-1000.0,-136.71875,-40.0390625,-4.39453125,0.0,0,0
1766593692.100248,1766593692.0472198,-810.546875,-143.06640625,43.45703125,1.46484375,0.0,0,0
1766593692.1002991,1766593692.0511167,465.33203125,-42.96875,176.26953125,57.12890625,0.0,0,0
1766593692.100349,1766593692.0550134,-812.01171875,50.78125,149.4140625,78.125,0.0,0,0
1766593692.100399,1766593692.0589101,223.6328125,31.73828125,-11.23046875,89.35546875,0.0,0,0
1766593692.1004622,1766593692.062807,-1000.0,-65.91796875,-121.09375,63.96484375,0.0,0,0
1766593692.100511,1766593692.0667038,-963.8671875,-126.953125,-62.01171875,20.99609375,0.0,0,0
1766593692.100559,1766593692.0706007,236.81640625,-45.8984375,86.42578125,52.24609375,0.0,0,0
1766593692.100596,1766593692.0744975,-804.6875,42.96875,111.328125,94.7265625,0.0,0,0
1766593692.100642,1766593692.0783942,320.3125,43.45703125,-22.94921875,75.1953125,0.0,0,0
1766593692.144777,1766593692.0823734,-965.8203125,-49.31640625,-133.30078125,44.921875,0.0,0,0
1766593692.144879,1766593692.0862703,-1000.0,-141.6015625,-83.0078125,16.6015625,0.0,0,0
1766593692.1449358,1766593692.090167,37.109375,-67.87109375,52.24609375,18.5546875,0.0,0,0
1766593692.1449869,1766593692.094064,-839.35546875,47.36328125,84.9609375,51.26953125,0.0,0,0
1766593692.1450381,1766593692.0979607,520.99609375,71.77734375,-36.62109375,56.15234375,0.0,0,0
1766593692.14509,1766593692.1018577,-783.69140625,-15.13671875,-138.18359375,23.4375,0.0,0,0
1766593692.145139,1766593692.1057544,-1000.0,-97.65625,-116.2109375,-23.4375,0.0,0,0
1766593692.145556,1766593692.1096513,-113.76953125,-19.04296875,-11.23046875,-24.90234375,0.0,0,0
1766593692.145612,1766593692.113548,-889.16015625,72.75390625,46.875,12.20703125,0.0,0,0
1766593692.145664,1766593692.117445,704.1015625,55.17578125,-37.109375,21.97265625,0.0,0,0
1766593692.1457138,1766593692.1213417,-586.42578125,-39.55078125,-146.97265625,12.20703125,0.0,0,0
1766593692.145764,1766593692.1252384,-1000.0,-114.74609375,-132.8125,-24.4140625,0.0,0,0
1766593692.190262,1766593692.1292086,-176.7578125,-20.5078125,-1.46484375,-25.390625,0.0,0,0
1766593692.19035,1766593692.1331055,-943.84765625,83.984375,79.58984375,32.71484375,0.0,0,0
1766593692.190402,1766593692.1370022,864.2578125,87.40234375,2.9296875,30.76171875,0.0,0,0
1766593692.190453,1766593692.1408992,-354.4921875,2.9296875,-125.9765625,-17.08984375,0.0,0,0
1766593692.190503,1766593692.144796,-1000.0,-77.63671875,-137.20703125,-26.3671875,0.0,0,0
1766593692.1905532,1766593692.1486928,-277.83203125,-42.48046875,-9.765625,-17.08984375,0.0,0,0
1766593692.190602,1766593692.1525896,985.83984375,63.96484375,81.54296875,8.7890625,0.0,0,0
1766593692.190652,1766593692.1564865,988.28125,70.3125,-6.8359375,18.06640625,0.0,0,0
1766593692.190701,1766593692.1603832,-143.5546875,-25.87890625,-126.46484375,-7.32421875,0.0,0,0
1766593692.19075,1766593692.1642802,-1000.0,-92.7734375,-150.87890625,-88.8671875,0.0,0,0
1766593692.190799,1766593692.168177,-363.76953125,-49.31640625,-46.875,-94.23828125,0.0,0,0
1766593692.190848,1766593692.1720738,913.57421875,16.6015625,60.546875,29.296875,0.0,0,0
1766593692.248493,1766593692.1760342,-924.8046875,29.296875,16.11328125,68.359375,0.0,0,0
1766593692.2486012,1766593692.1799312,43.45703125,6.8359375,-108.3984375,30.2734375,0.0,0,0
1766593692.248659,1766593692.1838279,-1000.0,-63.4765625,-151.3671875,-47.8515625,0.0,0,0
1766593692.2487109,1766593692.1877248,-591.30859375,-87.40234375,-70.80078125,-85.9375,0.0,0,0
1766593692.2487621,1766593692.1916218,722.65625,-16.6015625,33.69140625,-23.4375,0.0,0,0
1766593692.248811,1766593692.1955185,-864.74609375,95.703125,55.17578125,19.53125,0.0,0,0
1766593692.2488608,1766593692.1994154,98.6328125,96.19140625,-60.546875,-1.46484375,0.0,0,0
1766593692.2489111,1766593692.2033122,-1000.0,-39.55078125,-164.0625,-34.1796875,0.0,0,0
1766593692.24896,1766593692.207209,-687.5,-110.83984375,-91.796875,-101.07421875,0.0,0,0
1766593692.2490098,1766593692.2111058,602.5390625,-43.9453125,35.15625,-109.375,0.0,0,0
1766593692.249077,1766593692.2150028,-833.984375,77.1484375,24.4140625,-94.7265625,0.0,0,0
1766593692.249126,1766593692.2188995,190.4296875,71.77734375,-93.75,-116.2109375,0.0,0,0
1766593692.294868,1766593692.2228508,-1000.0,-71.2890625,-157.71484375,-69.82421875,0.0,0,0
1766593692.294981,1766593692.2267475,-923.828125,-104.4921875,-84.47265625,-43.9453125,0.0,0,0
1766593692.29504,1766593692.2306445,258.7890625,28.80859375,39.0625,-58.59375,0.0,0,0
1766593692.295094,1766593692.2345412,-812.01171875,97.16796875,42.48046875,7.8125,0.0,0,0
1766593692.2951481,1766593692.2384381,276.3671875,-5.859375,-41.9921875,-0.9765625,0.0,0,0
1766593692.295201,1766593692.2423348,-1000.0,-40.0390625,-120.1171875,-131.8359375,0.0,0,0
1766593692.29526,1766593692.2462318,-1000.0,-41.015625,-87.890625,-119.62890625,0.0,0,0
1766593692.2953112,1766593692.2501287,72.265625,-21.484375,18.5546875,-66.89453125,0.0,0,0
1766593692.295368,1766593692.2540255,-824.21875,34.66796875,32.71484375,-14.6484375,0.0,0,0
1766593692.295418,1766593692.2579224,405.2734375,43.45703125,-38.57421875,-57.6171875,0.0,0,0
1766593692.295468,1766593692.2618191,-875.0,3.90625,-113.28125,-129.8828125,0.0,0,0
1766593692.295535,1766593692.265716,-1000.0,-106.93359375,-93.75,-16.6015625,0.0,0,0
1766593692.3702872,1766593692.2698798,-170.8984375,-84.9609375,11.23046875,41.9921875,0.0,0,0
1766593692.37038,1766593692.2737765,-864.74609375,67.87109375,38.0859375,-1.953125,0.0,0,0
1766593692.370432,1766593692.2776735,501.46484375,95.21484375,-35.64453125,-9.765625,0.0,0,0
1766593692.370483,1766593692.2815704,-780.2734375,-24.4140625,-112.3046875,-42.48046875,0.0,0,0
1766593692.370535,1766593692.2854671,-1000.0,-75.1953125,-104.4921875,-57.12890625,0.0,0,0
1766593692.3705869,1766593692.289364,-223.6328125,11.71875,8.7890625,-14.16015625,0.0,0,0
1766593692.370637,1766593692.293261,-897.4609375,95.703125,70.3125,-52.24609375,0.0,0,0
1766593692.3706958,1766593692.297158,626.46484375,94.23828125,9.27734375,-85.44921875,0.0,0,0
1766593692.3707461,1766593692.3010547,-674.8046875,0.0,-90.8203125,11.23046875,0.0,0,0
1766593692.370795,1766593692.3049517,-1000.0,-23.92578125,-119.62890625,3.90625,0.0,0,0
1766593692.370854,1766593692.3088486,-276.3671875,37.109375,-13.671875,-7.8125,0.0,0,0
1766593692.370903,1766593692.3127456,-968.75,92.7734375,68.359375,71.2890625,0.0,0,0
1766593692.38537,1766593692.3167584,838.37890625,86.42578125,20.5078125,83.49609375,0.0,0,0
1766593692.385469,1766593692.3206553,-400.87890625,32.71484375,-90.33203125,70.80078125,0.0,0,0
1766593692.3855271,1766593692.3245523,-1000.0,-3.90625,-113.76953125,0.9765625,0.0,0,0
1766593692.38558,1766593692.328449,-432.6171875,25.390625,-11.71875,40.0390625,0.0,0,0
1766593692.385631,1766593692.332346,877.44140625,91.796875,73.73046875,129.8828125,0.0,0,0
1766593692.385739,1766593692.336243,-991.69921875,89.84375,47.8515625,6.8359375,0.0,0,0
1766593692.385817,1766593692.3401399,-176.26953125,75.68359375,-62.98828125,0.9765625,0.0,0,0
1766593692.3858821,1766593692.3440368,-1000.0,-17.08984375,-114.74609375,141.6015625,0.0,0,0
1766593692.385935,1766593692.3479335,-764.6484375,-33.69140625,-44.921875,154.296875,0.0,0,0
1766593692.385986,1766593692.3518305,494.62890625,65.4296875,62.01171875,-7.32421875,0.0,0,0
1766593692.3860369,1766593692.3557274,-863.76953125,121.58203125,34.66796875,-16.11328125,0.0,0,0
1766593692.386088,1766593692.3596244,-20.5078125,77.63671875,-73.2421875,140.13671875,0.0,0,0
1766593692.429641,1766593692.363622,-1000.0,-27.83203125,-95.703125,69.82421875,0.0,0,0
1766593692.42974,1766593692.367519,-800.78125,-74.70703125,-31.25,24.90234375,0.0,0,0
1766593692.42978,1766593692.3714159,422.8515625,105.46875,54.19921875,-53.22265625,0.0,0,0
1766593692.4298282,1766593692.3753126,-824.21875,271.97265625,34.66796875,-11.71875,0.0,0,0
1766593692.429865,1766593692.3792095,150.87890625,75.1953125,-66.89453125,178.7109375,0.0,0,0
1766593692.429903,1766593692.3831065,-1000.0,-116.69921875,-100.5859375,131.34765625,0.0,0,0
1766593692.42994,1766593692.3870034,-854.4921875,-41.50390625,-60.05859375,87.40234375,0.0,0,0
1766593692.4299772,1766593692.3909004,395.99609375,40.52734375,36.1328125,193.359375,0.0,0,0
1766593692.430015,1766593692.3947973,-812.01171875,71.2890625,51.7578125,194.82421875,0.0,0,0
1766593692.430052,1766593692.398694,276.85546875,29.296875,-59.5703125,86.42578125,0.0,0,0
1766593692.4300969,1766593692.402591,-1000.0,-28.3203125,-114.74609375,52.734375,0.0,0,0
1766593692.430153,1766593692.406488,-944.3359375,-67.3828125,-62.98828125,121.58203125,0.0,0,0
1766593692.4752588,1766593692.4104755,267.578125,-15.625,18.5546875,128.90625,0.0,0,0
1766593692.475359,1766593692.4143724,-833.49609375,81.0546875,41.50390625,98.6328125,0.0,0,0
1766593692.475415,1766593692.4182694,435.546875,50.78125,-53.22265625,85.9375,0.0,0,0
1766593692.475468,1766593692.422166,-873.046875,-17.578125,-136.71875,26.3671875,0.0,0,0
1766593692.475519,1766593692.426063,-1000.0,-49.8046875,-88.37890625,-12.6953125,0.0,0,0
1766593692.475569,1766593692.42996,77.63671875,3.41796875,37.59765625,46.38671875,0.0,0,0
1766593692.475626,1766593692.433857,-879.39453125,166.9921875,69.3359375,-14.6484375,0.0,0,0
1766593692.475677,1766593692.437754,662.59765625,128.90625,-33.69140625,82.03125,0.0,0,0
1766593692.4757252,1766593692.4416509,-631.34765625,-95.21484375,-125.48828125,166.50390625,0.0,0,0
1766593692.4757628,1766593692.4455478,-1000.0,-164.55078125,-82.51953125,82.51953125,0.0,0,0
1766593692.4758,1766593692.4494448,-20.5078125,0.9765625,7.32421875,51.26953125,0.0,0,0
1766593692.475855,1766593692.4533417,-878.41796875,111.328125,43.9453125,33.69140625,0.0,0,0
1766593692.519636,1766593692.4573202,676.26953125,76.66015625,-27.34375,-48.828125,0.0,0,0
1766593692.519745,1766593692.4612172,-613.76953125,32.2265625,-149.90234375,-71.77734375,0.0,0,0
1766593692.5198772,1766593692.465114,-1000.0,-18.06640625,-132.8125,33.203125,0.0,0,0
1766593692.519945,1766593692.469011,-75.1953125,-19.04296875,-11.23046875,71.2890625,0.0,0,0
1766593692.5199978,1766593692.472908,-930.6640625,55.17578125,56.640625,66.40625,0.0,0,0
1766593692.5200489,1766593692.476805,867.1875,102.05078125,1.953125,71.2890625,0.0,0,0
1766593692.5201,1766593692.480702,-323.73046875,73.2421875,-106.93359375,19.04296875,0.0,0,0
1766593692.5201511,1766593692.4845989,-1000.0,-21.484375,-121.58203125,-11.71875,0.0,0,0
1766593692.520201,1766593692.4884958,-241.69921875,7.8125,-21.97265625,5.37109375,0.0,0,0
1766593692.5202508,1766593692.4923928,992.67578125,104.98046875,64.94140625,0.0,0.0,0,0
1766593692.520301,1766593692.4962895,995.1171875,118.65234375,20.01953125,-0.48828125,0.0,0,0
1766593692.520351,1766593692.5001864,-89.84375,20.99609375,-81.54296875,22.4609375,0.0,0,0
1766593692.564446,1766593692.5041556,-1000.0,-68.359375,-108.88671875,-22.94921875,0.0,0,0
1766593692.56456,1766593692.5080526,-428.7109375,-34.1796875,-31.25,-7.32421875,0.0,0,0
1766593692.5646038,1766593692.5119495,892.578125,77.63671875,60.546875,87.890625,0.0,0,0
1766593692.5646431,1766593692.5158465,-962.40234375,138.18359375,26.3671875,67.87109375,0.0,0,0
1766593692.564681,1766593692.5197434,-90.8203125,104.00390625,-71.77734375,-10.7421875,0.0,0,0
1766593692.5647192,1766593692.5236404,-1000.0,-0.9765625,-104.98046875,-13.671875,0.0,0,0
1766593692.564756,1766593692.5275373,-669.921875,-15.13671875,-39.0625,20.01953125,0.0,0,0
1766593692.5647922,1766593692.5314343,604.4921875,99.12109375,39.55078125,42.48046875,0.0,0,0
1766593692.564828,1766593692.5353312,-858.88671875,150.390625,17.08984375,71.2890625,0.0,0,0
1766593692.564865,1766593692.5392282,40.0390625,67.87109375,-70.3125,-10.7421875,0.0,0,0
1766593692.5649002,1766593692.5431252,-1000.0,-36.1328125,-117.67578125,-33.203125,0.0,0,0
1766593692.564935,1766593692.547022,-804.6875,-36.62109375,-47.8515625,11.23046875,0.0,0,0
1766593692.610255,1766593692.5509822,432.12890625,82.51953125,37.109375,26.3671875,0.0,0,0
1766593692.610359,1766593692.5548792,-819.82421875,89.84375,56.640625,59.08203125,0.0,0,0
1766593692.6104152,1766593692.5587761,138.18359375,33.69140625,-34.1796875,18.5546875,0.0,0,0
1766593692.610469,1766593692.562673,-1000.0,-12.20703125,-128.90625,37.59765625,0.0,0,0
1766593692.610518,1766593692.56657,-957.03125,-28.3203125,-82.51953125,-34.66796875,0.0,0,0
1766593692.610569,1766593692.570467,192.87109375,93.75,24.4140625,-54.6875,0.0,0,0
1766593692.61062,1766593692.574364,-806.640625,135.25390625,30.2734375,33.203125,0.0,0,0
1766593692.61067,1766593692.578261,267.08984375,80.078125,-72.265625,2.9296875,0.0,0,0
1766593692.61072,1766593692.5821579,-1000.0,11.71875,-157.71484375,-61.5234375,0.0,0,0
1766593692.61077,1766593692.5860548,-1000.0,-35.15625,-108.88671875,-69.3359375,0.0,0,0
1766593692.610819,1766593692.5899518,110.3515625,35.15625,5.859375,-32.71484375,0.0,0,0
1766593692.610868,1766593692.5938487,-824.70703125,113.28125,28.80859375,-53.7109375,0.0,0,0
1766593692.669796,1766593692.5978734,392.08984375,99.12109375,-46.875,-12.6953125,0.0,0,0
1766593692.66995,1766593692.6017704,-905.76171875,9.27734375,-128.90625,14.6484375,0.0,0,0
1766593692.67001,1766593692.6056674,-1000.0,-36.1328125,-114.74609375,-36.1328125,0.0,0,0
1766593692.670062,1766593692.6095643,-28.80859375,-9.765625,20.01953125,-26.3671875,0.0,0,0
1766593692.670113,1766593692.6134613,-859.86328125,100.5859375,60.546875,-15.13671875,0.0,0,0
1766593692.670165,1766593692.6173582,578.125,119.62890625,-29.296875,-19.53125,0.0,0,0
1766593692.670215,1766593692.6212554,-707.51953125,25.390625,-117.67578125,-39.55078125,0.0,0,0
1766593692.6702669,1766593692.6251523,-1000.0,-57.6171875,-107.91015625,-99.12109375,0.0,0,0
1766593692.670325,1766593692.6290493,-185.546875,-2.44140625,-10.7421875,-117.1875,0.0,0,0
1766593692.6703749,1766593692.6329463,-893.5546875,70.3125,36.1328125,-103.02734375,0.0,0,0
1766593692.6704261,1766593692.6368432,650.390625,72.75390625,-11.23046875,-87.40234375,0.0,0,0
1766593692.670476,1766593692.6407402,-643.06640625,-2.9296875,-133.30078125,-105.46875,0.0,0,0
1766593692.71463,1766593692.6447546,-1000.0,-145.99609375,-131.34765625,-142.08984375,0.0,0,0
1766593692.714721,1766593692.6486516,-248.53515625,-58.59375,-20.01953125,-147.94921875,0.0,0,0
