timestamp,lsl_timestamp,TP9,AF7,AF8,TP10,Right AUX,keypress_A,keypress_B
1766593611.914283,1766593611.8450892,-998.53515625,-2.9296875,128.41796875,5.859375,0.0,0,0
1766593611.914495,1766593611.8489816,-979.00390625,27.83203125,59.5703125,33.203125,0.0,0,0
1766593611.9145238,1766593611.8528738,-5.859375,-45.8984375,-108.88671875,-24.4140625,0.0,0,0
1766593611.91455,1766593611.8567662,-1000.0,-174.8046875,-185.546875,-116.2109375,0.0,0,0
1766593611.914575,1766593611.8606584,-317.87109375,-116.2109375,-37.59765625,-133.7890625,0.0,0,0
1766593611.9146,1766593611.8645508,944.82421875,18.06640625,151.85546875,-36.1328125,0.0,0,0
1766593611.9146318,1766593611.8684433,-922.36328125,70.80078125,117.67578125,37.109375,0.0,0,0
1766593611.914656,1766593611.8723354,96.6796875,44.43359375,-88.37890625,-23.4375,0.0,0,0
1766593611.91468,1766593611.8762279,-1000.0,-64.453125,-176.7578125,-140.13671875,0.0,0,0
1766593611.9147038,1766593611.8801203,-516.6015625,-133.30078125,-40.0390625,-153.3203125,0.0,0,0
1766593611.914728,1766593611.8840125,773.4375,-18.5546875,128.41796875,-85.44921875,0.0,0,0
1766593611.914752,1766593611.887905,-870.60546875,75.68359375,88.37890625,-70.80078125,0.0,0,0
1766593611.970093,1766593611.8919284,207.03125,-1.46484375,-107.421875,-97.65625,0.0,0,0
1766593611.970186,1766593611.8958206,-1000.0,-114.2578125,-186.03515625,-151.3671875,0.0,0,0
1766593611.9702132,1766593611.899713,-636.23046875,-92.28515625,-76.66015625,-178.7109375,0.0,0,0
1766593611.970239,1766593611.9036055,663.57421875,-8.30078125,107.421875,-115.234375,0.0,0,0
1766593611.970263,1766593611.9074976,-853.515625,76.171875,128.41796875,-61.5234375,0.0,0,0
1766593611.970288,1766593611.91139,227.5390625,70.80078125,-51.7578125,-103.515625,0.0,0,0
1766593611.970311,1766593611.9152825,-1000.0,-36.1328125,-177.734375,-187.98828125,0.0,0,0
1766593611.970335,1766593611.919175,-852.05078125,-75.68359375,-58.59375,-223.6328125,0.0,0,0
1766593611.970359,1766593611.923067,386.71875,11.71875,155.76171875,-120.1171875,0.0,0,0
1766593611.9703832,1766593611.9269595,-840.8203125,156.25,173.828125,-64.94140625,0.0,0,0
1766593611.9704058,1766593611.930852,426.26953125,154.78515625,-6.34765625,-109.86328125,0.0,0,0
1766593611.970431,1766593611.9347441,-896.97265625,20.99609375,-132.8125,-130.859375,0.0,0,0
1766593612.03041,1766593611.938971,-1000.0,-30.76171875,-67.3828125,-178.22265625,0.0,0,0
1766593612.030526,1766593611.9428635,179.6875,55.6640625,134.27734375,-176.7578125,0.0,0,0
1766593612.030554,1766593611.946756,-848.6328125,171.38671875,196.2890625,-117.1875,0.0,0,0
1766593612.03058,1766593611.9506483,496.09375,148.4375,7.8125,-114.74609375,0.0,0,0
1766593612.030605,1766593611.9545407,-810.546875,23.92578125,-161.62109375,-174.8046875,0.0,0,0
1766593612.0306299,1766593611.9584332,-1000.0,-30.76171875,-76.171875,-222.16796875,0.0,0,0
1766593612.030654,1766593611.9623256,36.62109375,59.08203125,140.625,-205.078125,0.0,0,0
1766593612.030678,1766593611.966218,-880.37109375,175.29296875,196.77734375,-96.6796875,0.0,0,0
1766593612.030704,1766593611.9701104,665.52734375,187.5,41.50390625,-52.24609375,0.0,0,0
1766593612.0307279,1766593611.9740028,-594.23828125,83.49609375,-151.3671875,-133.7890625,0.0,0,0
1766593612.0307531,1766593611.9778953,-1000.0,-3.41796875,-134.765625,-179.6875,0.0,0,0
1766593612.030785,1766593611.9817877,-151.3671875,26.3671875,81.54296875,-128.90625,0.0,0,0
1766593612.0605261,1766593611.9857953,-910.15625,142.578125,180.6640625,-73.73046875,0.0,0,0
1766593612.060579,1766593611.9896877,747.0703125,165.0390625,46.875,-53.7109375,0.0,0,0
1766593612.0606039,1766593611.9935803,-502.44140625,30.76171875,-136.23046875,-81.54296875,0.0,0,0
1766593612.060629,1766593611.9974728,-1000.0,-52.734375,-149.4140625,-141.6015625,0.0,0,0
1766593612.0606878,1766593612.0013652,-300.29296875,33.69140625,43.9453125,-125.9765625,0.0,0,0
1766593612.060714,1766593612.0052576,-995.1171875,190.91796875,187.5,-52.734375,0.0,0,0
1766593612.060738,1766593612.00915,892.578125,190.91796875,73.73046875,6.8359375,0.0,0,0
1766593612.0608032,1766593612.0130424,-314.94140625,45.41015625,-126.46484375,-4.39453125,0.0,0,0
1766593612.060829,1766593612.0169349,-1000.0,-75.1953125,-150.87890625,-43.45703125,0.0,0,0
1766593612.060852,1766593612.0208273,-450.1953125,-33.203125,46.875,7.8125,0.0,0,0
1766593612.060875,1766593612.0247197,860.83984375,109.86328125,230.95703125,81.54296875,0.0,0,0
1766593612.0609002,1766593612.0286121,-973.14453125,170.8984375,147.94921875,108.88671875,0.0,0,0
1766593612.107025,1766593612.0326116,-131.34765625,104.4921875,-69.82421875,88.37890625,0.0,0,0
1766593612.107195,1766593612.036504,-1000.0,7.32421875,-125.48828125,20.5078125,0.0,0,0
1766593612.107252,1766593612.0403965,-665.52734375,-12.6953125,43.9453125,1.46484375,0.0,0,0
1766593612.107306,1766593612.0442889,623.046875,81.0546875,230.46875,62.5,0.0,0,0
1766593612.107357,1766593612.0481813,-875.0,165.52734375,174.31640625,119.140625,0.0,0,0
1766593612.1073952,1766593612.052074,-0.9765625,93.26171875,-54.19921875,71.2890625,0.0,0,0
1766593612.107434,1766593612.0559664,-1000.0,-50.78125,-160.64453125,-17.578125,0.0,0,0
1766593612.10747,1766593612.0598588,-791.50390625,-86.42578125,4.8828125,23.4375,0.0,0,0
1766593612.107507,1766593612.0637512,457.03125,17.08984375,193.84765625,102.5390625,0.0,0,0
1766593612.107544,1766593612.0676436,-822.75390625,102.5390625,167.48046875,129.8828125,0.0,0,0
1766593612.107581,1766593612.071536,118.1640625,39.0625,-6.34765625,97.65625,0.0,0,0
1766593612.107618,1766593612.0754287,-1000.0,-83.0078125,-123.046875,40.52734375,0.0,0,0
1766593612.153047,1766593612.0795095,-903.80859375,-100.09765625,-0.9765625,26.3671875,0.0,0,0
1766593612.1532621,1766593612.0834022,291.015625,21.484375,187.01171875,30.2734375,0.0,0,0
1766593612.153319,1766593612.0872946,-809.08203125,129.39453125,175.78125,49.31640625,0.0,0,0
1766593612.1533718,1766593612.091187,214.84375,52.24609375,-2.44140625,80.56640625,0.0,0,0
1766593612.153425,1766593612.0950797,-1000.0,-73.2421875,-140.13671875,-7.8125,0.0,0,0
1766593612.153475,1766593612.098972,-959.47265625,-57.12890625,-49.8046875,-44.43359375,0.0,0,0
1766593612.153526,1766593612.1028645,208.0078125,19.53125,135.7421875,57.12890625,0.0,0,0
1766593612.153576,1766593612.1067572,-812.5,76.66015625,179.6875,83.984375,0.0,0,0
1766593612.153625,1766593612.1106496,313.4765625,12.6953125,35.64453125,59.5703125,0.0,0,0
1766593612.153675,1766593612.114542,-985.83984375,-116.69921875,-143.5546875,13.18359375,0.0,0,0
1766593612.153724,1766593612.1184347,-1000.0,-125.48828125,-93.26171875,-55.6640625,0.0,0,0
1766593612.153773,1766593612.122327,85.44921875,-25.390625,113.76953125,-9.765625,0.0,0,0
1766593612.198383,1766593612.1263952,-838.37890625,66.40625,168.45703125,78.125,0.0,0,0
1766593612.198557,1766593612.130288,473.14453125,37.59765625,28.3203125,61.03515625,0.0,0,0
1766593612.198615,1766593612.1341803,-813.4765625,-81.0546875,-142.578125,-20.01953125,0.0,0,0
1766593612.198684,1766593612.138073,-1000.0,-141.6015625,-108.88671875,-54.19921875,0.0,0,0
1766593612.198743,1766593612.1419654,-124.0234375,-87.890625,100.09765625,-20.01953125,0.0,0,0
1766593612.198793,1766593612.145858,-909.1796875,37.59765625,196.2890625,68.359375,0.0,0,0
1766593612.1989162,1766593612.1497505,750.9765625,86.9140625,49.8046875,99.12109375,0.0,0,0
1766593612.198974,1766593612.1536431,-498.53515625,-44.921875,-153.3203125,52.734375,0.0,0,0
1766593612.1990159,1766593612.1575356,-1000.0,-190.4296875,-146.97265625,-27.34375,0.0,0,0
1766593612.199054,1766593612.1614282,-206.54296875,-147.94921875,71.2890625,-41.015625,0.0,0,0
1766593612.199092,1766593612.1653206,-954.1015625,6.8359375,190.91796875,62.5,0.0,0,0
1766593612.199147,1766593612.1692133,871.09375,57.12890625,57.12890625,115.72265625,0.0,0,0
1766593612.2414222,1766593612.1732666,-330.078125,-64.94140625,-154.78515625,93.26171875,0.0,0,0
1766593612.241604,1766593612.177159,-1000.0,-179.6875,-155.76171875,57.12890625,0.0,0,0
1766593612.241647,1766593612.1810517,-288.0859375,-133.30078125,37.109375,11.71875,0.0,0,0
1766593612.241686,1766593612.1849442,969.7265625,-5.859375,174.8046875,59.08203125,0.0,0,0
1766593612.2426722,1766593612.1888368,-988.28125,35.15625,87.890625,153.80859375,0.0,0,0
1766593612.242728,1766593612.1927295,-74.70703125,-72.265625,-105.46875,154.296875,0.0,0,0
1766593612.24277,1766593612.196622,-1000.0,-186.03515625,-143.06640625,88.37890625,0.0,0,0
1766593612.242815,1766593612.2005146,-404.78515625,-176.26953125,11.71875,81.0546875,0.0,0,0
1766593612.2428539,1766593612.2044072,894.04296875,-62.98828125,186.5234375,126.46484375,0.0,0,0
1766593612.242892,1766593612.2082996,-936.03515625,45.8984375,123.53515625,173.33984375,0.0,0,0
1766593612.242929,1766593612.2121923,1.46484375,-26.3671875,-86.42578125,183.10546875,0.0,0,0
1766593612.242966,1766593612.2160847,-1000.0,-171.38671875,-159.1796875,91.796875,0.0,0,0
1766593612.2931352,1766593612.220117,-547.8515625,-167.96875,-23.4375,46.875,0.0,0,0
1766593612.2932281,1766593612.2240098,749.51171875,-58.10546875,177.734375,145.01953125,0.0,0,0
1766593612.29326,1766593612.2279024,-874.0234375,29.296875,161.1328125,220.21484375,0.0,0,0
1766593612.293291,1766593612.231795,92.28515625,-37.59765625,-75.1953125,169.43359375,0.0,0,0
1766593612.29332,1766593612.2356875,-1000.0,-172.36328125,-167.48046875,114.74609375,0.0,0,0
1766593612.29335,1766593612.2395802,-771.97265625,-171.875,-18.5546875,101.5625,0.0,0,0
1766593612.293378,1766593612.2434728,483.3984375,-51.26953125,163.57421875,138.671875,0.0,0,0
1766593612.293407,1766593612.2473655,-824.70703125,-8.7890625,156.73828125,185.05859375,0.0,0,0
1766593612.2934358,1766593612.251258,263.18359375,-67.87109375,-54.6875,169.921875,0.0,0,0
1766593612.2934651,1766593612.2551506,-1000.0,-148.4375,-187.01171875,84.47265625,0.0,0,0
1766593612.293493,1766593612.2590432,-842.7734375,-188.96484375,-59.5703125,33.203125,0.0,0,0
1766593612.293529,1766593612.2629359,420.8984375,-105.95703125,149.90234375,76.66015625,0.0,0,0
1766593612.3325608,1766593612.26697,-832.51953125,-8.7890625,162.59765625,141.6015625,0.0,0,0
1766593612.332683,1766593612.2708623,370.1171875,-18.5546875,-20.99609375,136.23046875,0.0,0,0
1766593612.332722,1766593612.274755,-952.1484375,-111.328125,-169.921875,55.6640625,0.0,0,0
1766593612.332758,1766593612.2786477,-992.67578125,-161.1328125,-92.28515625,19.04296875,0.0,0,0
1766593612.3327959,1766593612.2825403,207.03125,-67.87109375,115.72265625,66.40625,0.0,0,0
1766593612.332834,1766593612.286433,-845.21484375,77.1484375,175.29296875,112.3046875,0.0,0,0
1766593612.33287,1766593612.2903256,495.1171875,47.8515625,-3.90625,116.2109375,0.0,0,0
1766593612.332907,1766593612.2942183,-794.43359375,-117.67578125,-194.82421875,42.96875,0.0,0,0
1766593612.3329432,1766593612.298111,-1000.0,-184.5703125,-145.5078125,-13.671875,0.0,0,0
1766593612.33298,1766593612.3020034,-34.66796875,-110.83984375,83.49609375,21.484375,0.0,0,0
1766593612.3330162,1766593612.305896,-895.99609375,3.41796875,171.875,83.984375,0.0,0,0
1766593612.333051,1766593612.3097887,726.5625,9.27734375,22.94921875,106.4453125,0.0,0,0
1766593612.376791,1766593612.3137965,-529.296875,-106.4453125,-164.0625,42.96875,0.0,0,0
1766593612.376954,1766593612.3176892,-1000.0,-189.94140625,-154.78515625,-33.69140625,0.0,0,0
1766593612.377012,1766593612.3215818,-104.4921875,-123.046875,57.6171875,-44.43359375,0.0,0,0
1766593612.3770611,1766593612.3254745,-928.22265625,-25.390625,188.4765625,12.20703125,0.0,0,0
1766593612.3771,1766593612.3293672,847.65625,15.13671875,52.734375,88.8671875,0.0,0,0
1766593612.377208,1766593612.3332598,-348.6328125,-34.66796875,-161.1328125,39.55078125,0.0,0,0
1766593612.37727,1766593612.3371525,-1000.0,-165.52734375,-173.33984375,-54.6875,0.0,0,0
1766593612.377308,1766593612.3410451,-216.30859375,-156.25,13.671875,-44.921875,0.0,0,0
1766593612.377346,1766593612.3449378,-995.1171875,4.39453125,162.59765625,19.04296875,0.0,0,0
1766593612.37742,1766593612.3488305,980.46875,59.08203125,61.03515625,59.5703125,0.0,0,0
1766593612.3774562,1766593612.3527231,-107.91015625,-36.62109375,-135.7421875,41.015625,0.0,0,0
1766593612.377493,1766593612.3566158,-1000.0,-168.45703125,-169.921875,-12.20703125,0.0,0,0
1766593612.436758,1766593612.3606162,-373.53515625,-155.2734375,3.90625,-27.34375,0.0,0,0
1766593612.436912,1766593612.3645089,924.31640625,-15.13671875,166.9921875,5.859375,0.0,0,0
1766593612.4369652,1766593612.3684015,-959.47265625,47.36328125,91.30859375,42.48046875,0.0,0,0
1766593612.4370172,1766593612.3722942,-44.921875,-61.5234375,-123.53515625,18.06640625,0.0,0,0
1766593612.437067,1766593612.3761868,-1000.0,-175.78125,-194.82421875,-40.52734375,0.0,0,0
1766593612.4371169,1766593612.3800795,-436.5234375,-137.6953125,-12.20703125,-48.828125,0.0,0,0
1766593612.4371681,1766593612.3839722,851.5625,-32.71484375,163.57421875,9.765625,0.0,0,0
1766593612.4372191,1766593612.3878648,-896.97265625,14.16015625,111.81640625,77.1484375,0.0,0,0
1766593612.43727,1766593612.3917575,89.35546875,-60.546875,-92.28515625,53.22265625,0.0,0,0
1766593612.437361,1766593612.3956501,-1000.0,-224.12109375,-180.6640625,-20.01953125,0.0,0,0
1766593612.43741,1766593612.3995428,-683.59375,-200.1953125,-33.69140625,-55.6640625,0.0,0,0
1766593612.437469,1766593612.4034355,600.5859375,-10.25390625,135.7421875,-44.921875,0.0,0,0
1766593612.481886,1766593612.4075234,-839.84375,71.2890625,111.328125,7.8125,0.0,0,0
1766593612.482029,1766593612.411416,169.43359375,7.32421875,-82.51953125,21.484375,0.0,0,0
1766593612.482071,1766593612.415309,-1000.0,-115.234375,-220.21484375,-13.18359375,0.0,0,0
1766593612.4821088,1766593612.4192016,-819.3359375,-184.08203125,-94.23828125,-39.0625,0.0,0,0
1766593612.4821482,1766593612.4230943,431.640625,-104.00390625,138.671875,-15.625,0.0,0,0
1766593612.482186,1766593612.426987,-822.265625,63.4765625,162.109375,51.7578125,0.0,0,0
1766593612.482222,1766593612.4308796,238.76953125,18.5546875,-37.59765625,70.3125,0.0,0,0
1766593612.482259,1766593612.4347725,-1000.0,-177.734375,-206.0546875,-12.6953125,0.0,0,0
1766593612.482294,1766593612.4386652,-953.125,-207.51953125,-100.5859375,-74.21875,0.0,0,0
1766593612.482332,1766593612.4425578,224.609375,-146.97265625,114.74609375,-3.90625,0.0,0,0
1766593612.482369,1766593612.4464505,-821.2890625,-7.32421875,158.203125,78.125,0.0,0,0
1766593612.482404,1766593612.4503431,355.95703125,41.015625,-22.4609375,55.17578125,0.0,0,0
1766593612.526432,1766593612.4544208,-930.17578125,-74.70703125,-202.63671875,-37.59765625,0.0,0,0
1766593612.526565,1766593612.4583137,-1000.0,-174.8046875,-123.53515625,-89.84375,0.0,0,0
1766593612.526623,1766593612.4622064,-4.8828125,-130.859375,94.7265625,-56.15234375,0.0,0,0
1766593612.526677,1766593612.466099,-856.4453125,-22.4609375,170.8984375,21.484375,0.0,0,0
1766593612.526728,1766593612.469992,550.29296875,-7.8125,23.4375,73.2421875,0.0,0,0
1766593612.526779,1766593612.4738846,-745.1171875,-132.8125,-170.8984375,34.66796875,0.0,0,0
1766593612.526829,1766593612.4777772,-1000.0,-272.94921875,-146.97265625,-19.53125,0.0,0,0
1766593612.526879,1766593612.4816701,-101.07421875,-240.234375,70.3125,-17.08984375,0.0,0,0
1766593612.5269299,1766593612.4855628,-888.18359375,-129.39453125,176.26953125,26.3671875,0.0,0,0
1766593612.526986,1766593612.4894557,675.78125,-128.41796875,44.43359375,42.48046875,0.0,0,0
1766593612.527036,1766593612.4933484,-586.42578125,-237.3046875,-145.99609375,-3.41796875,0.0,0,0
1766593612.527095,1766593612.497241,-1000.0,-334.47265625,-136.23046875,-45.41015625,0.0,0,0
1766593612.571309,1766593612.5013,-215.8203125,-304.19921875,62.98828125,-47.8515625,0.0,0,0
1766593612.5714529,1766593612.505193,-958.49609375,-186.03515625,182.6171875,2.44140625,0.0,0,0
1766593612.571512,1766593612.5090857,859.86328125,-143.06640625,64.94140625,62.98828125,0.0,0,0
1766593612.5715652,1766593612.5129786,-348.6328125,-260.7421875,-148.92578125,16.11328125,0.0,0,0
1766593612.5716171,1766593612.5168712,-1000.0,-365.72265625,-167.96875,-75.68359375,0.0,0,0
1766593612.571737,1766593612.520764,-340.8203125,-325.68359375,43.45703125,-55.6640625,0.0,0,0
1766593612.5718012,1766593612.5246568,959.9609375,-189.94140625,197.265625,44.921875,0.0,0,0
1766593612.5718558,1766593612.5285497,967.28515625,-140.13671875,92.28515625,80.56640625,0.0,0,0
1766593612.5725062,1766593612.5324423,-191.89453125,-191.40625,-140.625,28.80859375,0.0,0,0
1766593612.572565,1766593612.5363352,-1000.0,-290.52734375,-188.96484375,-43.45703125,0.0,0,0
1766593612.5726159,1766593612.540228,-426.26953125,-355.46875,-4.8828125,-67.3828125,0.0,0,0
1766593612.57268,1766593612.5441208,876.46484375,-237.3046875,176.26953125,21.97265625,0.0,0,0
1766593612.6331751,1766593612.5482752,-947.265625,-139.16015625,115.234375,82.03125,0.0,0,0
1766593612.633322,1766593612.5521681,-55.6640625,-209.47265625,-104.4921875,51.26953125,0.0,0,0
1766593612.633365,1766593612.556061,-1000.0,-334.47265625,-172.36328125,-1.953125,0.0,0,0
1766593612.633404,1766593612.559954,-687.5,-334.9609375,-18.5546875,-35.64453125,0.0,0,0
1766593612.633441,1766593612.5638466,589.35546875,-215.33203125,173.828125,34.1796875,0.0,0,0
1766593612.6334789,1766593612.5677395,-846.6796875,-94.7265625,151.85546875,98.6328125,0.0,0,0
1766593612.633517,1766593612.5716324,77.63671875,-118.65234375,-85.9375,50.29296875,0.0,0,0
1766593612.633555,1766593612.575525,-1000.0,-244.62890625,-197.265625,-55.6640625,0.0,0,0
1766593612.633591,1766593612.579418,-858.88671875,-250.0,-54.6875,-33.69140625,0.0,0,0
1766593612.633627,1766593612.5833108,361.81640625,-156.73828125,140.625,63.4765625,0.0,0,0
1766593612.633663,1766593612.5872037,-817.87109375,-68.84765625,146.97265625,95.21484375,0.0,0,0
1766593612.633701,1766593612.5910964,127.9296875,-118.1640625,-67.3828125,67.3828125,0.0,0,0
1766593612.662218,1766593612.5951405,-1000.0,-250.9765625,-222.16796875,1.953125,0.0,0,0
1766593612.662317,1766593612.5990334,-965.33203125,-271.484375,-82.51953125,-8.30078125,0.0,0,0
1766593612.66237,1766593612.6029263,161.62109375,-143.5546875,140.625,22.94921875,0.0,0,0
1766593612.662422,1766593612.606819,-808.10546875,-20.99609375,152.34375,40.0390625,0.0,0,0
1766593612.662473,1766593612.6107118,253.90625,-59.08203125,-27.83203125,93.26171875,0.0,0,0
1766593612.662525,1766593612.6146047,-998.53515625,-187.5,-178.22265625,85.44921875,0.0,0,0
1766593612.6625762,1766593612.6184976,-1000.0,-196.2890625,-87.40234375,45.41015625,0.0,0,0
1766593612.6626172,1766593612.6223905,-29.296875,-79.1015625,141.11328125,112.3046875,0.0,0,0
1766593612.662654,1766593612.6262834,-830.078125,33.69140625,269.53125,240.234375,0.0,0,0
1766593612.662695,1766593612.630176,421.38671875,66.40625,153.80859375,320.3125,0.0,0,0
1766593612.6627321,1766593612.634069,-863.28125,-88.37890625,-166.015625,110.83984375,0.0,0,0
1766593612.6627882,1766593612.6379619,-1000.0,-392.578125,-229.4921875,-116.69921875,0.0,0,0
1766593612.706412,1766593612.6419854,-198.2421875,-384.765625,14.6484375,-98.6328125,0.0,0,0
1766593612.7065148,1766593612.6458783,-865.72265625,-97.65625,191.89453125,114.2578125,0.0,0,0
1766593612.706558,1766593612.6497712,506.8359375,-42.48046875,21.97265625,192.87109375,0.0,0,0
1766593612.706597,1766593612.653664,-801.26953125,-64.94140625,-206.0546875,79.1015625,0.0,0,0
1766593612.706635,1766593612.657557,-1000.0,-26.85546875,26.3671875,205.56640625,0.0,0,0
1766593612.7066739,1766593612.66145,-243.1640625,10.7421875,285.64453125,214.84375,0.0,0,0
1766593612.70671,1766593612.6653428,-926.7578125,5.859375,136.71875,-42.48046875,0.0,0,0
1766593612.706748,1766593612.6692357,695.3125,-92.28515625,-63.4765625,-101.07421875,0.0,0,0
1766593612.706785,1766593612.6731286,-590.33203125,6.8359375,-132.8125,35.15625,0.0,0,0
1766593612.7068212,1766593612.6770215,-1000.0,26.3671875,-42.48046875,106.93359375,0.0,0,0
1766593612.706867,1766593612.6809144,-284.1796875,66.89453125,290.52734375,187.01171875,0.0,0,0
1766593612.7069068,1766593612.6848073,984.375,282.2265625,504.39453125,368.1640625,0.0,0,0
1766593612.7517161,1766593612.688812,968.26171875,398.92578125,392.578125,472.65625,0.0,0,0
1766593612.751819,1766593612.692705,-173.33984375,410.15625,264.6484375,493.1640625,0.0,0,0
1766593612.751874,1766593612.6965978,-1000.0,373.53515625,299.31640625,503.41796875,0.0,0,0
1766593612.751926,1766593612.7004907,-401.85546875,219.23828125,437.98828125,408.69140625,0.0,0,0
1766593612.751978,1766593612.7043836,900.87890625,219.23828125,552.24609375,342.28515625,0.0,0,0
1766593612.75203,1766593612.7082765,-959.47265625,385.7421875,463.37890625,389.6484375,0.0,0,0
1766593612.752081,1766593612.7121694,-72.265625,296.875,173.828125,373.53515625,0.0,0,0
1766593612.752131,1766593612.7160623,-1000.0,147.4609375,36.62109375,286.1328125,0.0,0,0
1766593612.752181,1766593612.7199552,-667.48046875,66.40625,212.40234375,199.70703125,0.0,0,0
1766593612.7522318,1766593612.723848,628.41796875,143.06640625,493.65234375,239.2578125,0.0,0,0
1766593612.7522829,1766593612.7277412,-865.234375,215.33203125,463.37890625,248.046875,0.0,0,0
1766593612.7523332,1766593612.7316341,25.87890625,153.80859375,180.17578125,174.31640625,0.0,0,0
1766593612.811483,1766593612.7356257,-1000.0,78.61328125,29.296875,65.4296875,0.0,0,0
1766593612.811658,1766593612.7395186,-801.26953125,94.23828125,191.40625,36.62109375,0.0,0,0
1766593612.811716,1766593612.7434115,441.89453125,187.98828125,428.7109375,125.9765625,0.0,0,0
1766593612.811769,1766593612.7473044,-822.265625,280.76171875,400.390625,208.0078125,0.0,0,0
1766593612.8118222,1766593612.7511973,125.48828125,233.88671875,111.81640625,232.421875,0.0,0,0
1766593612.8118742,1766593612.7550902,-1000.0,172.36328125,16.11328125,160.15625,0.0,0,0
1766593612.811924,1766593612.7589834,-967.28515625,36.1328125,169.921875,59.5703125,0.0,0,0
1766593612.8119738,1766593612.7628763,175.29296875,53.7109375,412.109375,136.71875,0.0,0,0
1766593612.8120131,1766593612.7667692,-804.6875,268.06640625,453.61328125,182.12890625,0.0,0,0
1766593612.8120499,1766593612.770662,203.125,183.59375,95.703125,24.4140625,0.0,0,0
1766593612.812125,1766593612.774555,-1000.0,-2.9296875,-148.4375,-104.98046875,0.0,0,0
1766593612.812188,1766593612.7784479,-1000.0,-39.0625,-23.92578125,-115.234375,0.0,0,0
1766593612.855665,1766593612.7825298,-12.20703125,52.24609375,249.0234375,7.8125,0.0,0,0
1766593612.855768,1766593612.7864227,-812.5,158.203125,342.7734375,136.71875,0.0,0,0
1766593612.8558102,1766593612.7903156,311.5234375,112.79296875,149.4140625,110.3515625,0.0,0,0
1766593612.855849,1766593612.7942088,-957.03125,29.296875,-67.87109375,14.6484375,0.0,0,0
1766593612.855888,1766593612.7981017,-1000.0,-4.8828125,16.11328125,17.578125,0.0,0,0
1766593612.855927,1766593612.8019946,-144.04296875,4.39453125,281.25,59.5703125,0.0,0,0
1766593612.855964,1766593612.8058875,-832.51953125,258.30078125,424.31640625,119.62890625,0.0,0,0
1766593612.856002,1766593612.8097806,390.13671875,222.16796875,138.18359375,55.17578125,0.0,0,0
1766593612.85604,1766593612.8136735,-895.5078125,-93.75,-214.35546875,-83.984375,0.0,0,0
1766593612.856077,1766593612.8175664,-1000.0,-174.8046875,-169.43359375,-145.01953125,0.0,0,0
1766593612.85612,1766593612.8214593,-288.0859375,-77.63671875,84.9609375,-115.72265625,0.0,0,0
1766593612.8561568,1766593612.8253524,-903.3203125,104.00390625,243.1640625,-12.6953125,0.0,0,0
1766593612.9319239,1766593612.8296244,570.80078125,71.2890625,55.17578125,-1.46484375,0.0,0,0
1766593612.9320478,1766593612.8335176,-747.0703125,-59.08203125,-163.57421875,-43.45703125,0.0,0,0
1766593612.932106,1766593612.8374104,-1000.0,-89.35546875,-90.8203125,-55.6640625,0.0,0,0
1766593612.932159,1766593612.8413036,-361.81640625,-35.64453125,82.51953125,-63.96484375,0.0,0,0
1766593612.932213,1766593612.8451967,989.2578125,97.65625,161.62109375,-34.66796875,0.0,0,0
1766593612.932283,1766593612.8490896,846.19140625,126.953125,100.09765625,55.6640625,0.0,0,0
1766593612.9323342,1766593612.8529828,-435.05859375,-31.25,-85.9375,24.90234375,0.0,0,0
1766593612.932394,1766593612.8568757,-1000.0,-168.9453125,-138.18359375,-98.14453125,0.0,0,0
1766593612.9324439,1766593612.8607688,-454.1015625,-138.671875,46.875,-101.5625,0.0,0,0
1766593612.9324942,1766593612.8646617,873.53515625,-16.6015625,206.0546875,-9.27734375,0.0,0,0
1766593612.93255,1766593612.8685548,987.3046875,40.52734375,128.90625,25.390625,0.0,0,0
1766593612.932607,1766593612.872448,-211.9140625,-76.171875,-144.04296875,-22.94921875,0.0,0,0
1766593612.9459798,1766593612.8765078,-1000.0,-192.3828125,-236.81640625,-89.84375,0.0,0,0
1766593612.946053,1766593612.880401,-600.5859375,-141.11328125,-19.53125,-62.98828125,0.0,0,0
1766593612.946097,1766593612.8842938,697.75390625,-65.91796875,124.0234375,-44.43359375,0.0,0,0
1766593612.9461389,1766593612.888187,-892.578125,-38.0859375,43.9453125,-30.76171875,0.0,0,0
1766593612.946178,1766593612.89208,-20.5078125,-56.640625,-125.0,4.8828125,0.0,0,0
1766593612.9462159,1766593612.8959732,-1000.0,-189.94140625,-202.63671875,-112.79296875,0.0,0,0
1766593612.9462578,1766593612.899866,-754.8828125,-240.234375,-65.4296875,-165.0390625,0.0,0,0
1766593612.9462972,1766593612.9037592,506.34765625,-129.39453125,95.21484375,-77.1484375,0.0,0,0
1766593612.946334,1766593612.9076524,-829.58984375,-44.921875,20.99609375,-52.734375,0.0,0,0
1766593612.946371,1766593612.9115453,94.23828125,-150.390625,-253.90625,-86.42578125,0.0,0,0
1766593612.946408,1766593612.9154384,-1000.0,-270.5078125,-343.75,-161.1328125,0.0,0,0
1766593612.946444,1766593612.9193316,-954.1015625,-310.05859375,-159.1796875,-199.70703125,0.0,0,0
1766593612.990638,1766593612.923371,196.2890625,-299.31640625,23.92578125,-155.76171875,0.0,0,0
1766593612.990718,1766593612.927264,-805.6640625,-185.05859375,13.671875,-85.9375,0.0,0,0
1766593612.990773,1766593612.931157,145.99609375,-173.33984375,-192.87109375,-125.48828125,0.0,0,0
1766593612.9908311,1766593612.9350502,-1000.0,-310.05859375,-400.87890625,-301.26953125,0.0,0,0
1766593612.990883,1766593612.9389434,-1000.0,-409.66796875,-352.5390625,-382.8125,0.0,0,0
1766593612.9909341,1766593612.9428365,-44.43359375,-299.8046875,-82.51953125,-302.24609375,0.0,0,0
1766593612.990984,1766593612.9467297,-810.546875,-168.9453125,-50.78125,-209.9609375,0.0,0,0
1766593612.991035,1766593612.9506226,287.59765625,-290.0390625,-251.953125,-194.82421875,0.0,0,0
1766593612.991086,1766593612.9545157,-987.3046875,-416.015625,-407.71484375,-287.59765625,0.0,0,0
1766593612.991137,1766593612.9584088,-1000.0,-361.81640625,-318.359375,-329.58984375,0.0,0,0
1766593612.991186,1766593612.962302,-59.5703125,-162.109375,-34.1796875,-203.61328125,0.0,0,0
1766593612.9912362,1766593612.966195,-823.73046875,-117.67578125,-26.85546875,-200.1953125,0.0,0,0
1766593613.0391738,1766593612.9702346,387.20703125,-215.8203125,-261.71875,-263.18359375,0.0,0,0
1766593613.039329,1766593612.9741278,-888.671875,-322.265625,-452.63671875,-308.59375,0.0,0,0
1766593613.039386,1766593612.978021,-1000.0,-422.8515625,-384.27734375,-334.9609375,0.0,0,0
1766593613.0394392,1766593612.981914,-247.55859375,-375.48828125,-120.1171875,-261.71875,0.0,0,0
1766593613.03949,1766593612.9858072,-904.78515625,-194.3359375,-35.15625,-208.984375,0.0,0,0
1766593613.0395432,1766593612.9897003,630.859375,-90.33203125,-172.36328125,-169.921875,0.0,0,0
1766593613.039594,1766593612.9935935,-675.29296875,-203.125,-356.93359375,-212.40234375,0.0,0,0
1766593613.039655,1766593612.9974864,-1000.0,-390.625,-347.65625,-290.0390625,0.0,0,0
1766593613.039704,1766593613.0013795,-263.18359375,-357.91015625,-138.18359375,-215.33203125,0.0,0,0
1766593613.039758,1766593613.0052726,-947.75390625,-216.796875,-18.06640625,-125.48828125,0.0,0,0
1766593613.039818,1766593613.0091658,767.578125,-179.6875,-171.38671875,-156.25,0.0,0,0
1766593613.0398872,1766593613.013059,-499.51171875,-208.0078125,-397.94921875,-249.51171875,0.0,0,0
1766593613.081124,1766593613.0170794,-1000.0,-327.1484375,-414.55078125,-344.23828125,0.0,0,0
1766593613.081215,1766593613.0209725,-340.33203125,-331.54296875,-195.80078125,-328.61328125,0.0,0,0
1766593613.081268,1766593613.0248659,964.35546875,-128.90625,3.41796875,-195.3125,0.0,0,0
1766593613.08132,1766593613.028759,951.66015625,-69.82421875,-104.98046875,-120.1171875,0.0,0,0
1766593613.081444,1766593613.0326521,-238.28125,-200.1953125,-334.47265625,-169.43359375,0.0,0,0
1766593613.0814981,1766593613.0365453,-1000.0,-310.546875,-368.65234375,-246.58203125,0.0,0,0
1766593613.081547,1766593613.0404384,-560.05859375,-287.109375,-183.10546875,-239.2578125,0.0,0,0
1766593613.081599,1766593613.0443316,732.91015625,-220.703125,-2.9296875,-146.484375,0.0,0,0
1766593613.08165,1766593613.0482247,-907.71484375,-120.60546875,-33.203125,-73.2421875,0.0,0,0
1766593613.081703,1766593613.0521178,-35.15625,-245.60546875,-250.0,-114.2578125,0.0,0,0
1766593613.081758,1766593613.056011,-1000.0,-405.2734375,-314.453125,-178.22265625,0.0,0,0
1766593613.082138,1766593613.059904,-678.22265625,-371.09375,-175.29296875,-196.77734375,0.0,0,0
1766593613.126493,1766593613.0639136,598.14453125,-290.52734375,-16.6015625,-127.44140625,0.0,0,0
1766593613.126605,1766593613.0678067,-849.609375,-153.80859375,-24.4140625,-50.78125,0.0,0,0
1766593613.1266618,1766593613.0716999,76.171875,-149.4140625,-234.86328125,-114.2578125,0.0,0,0
1766593613.1267169,1766593613.075593,-1000.0,-251.953125,-371.58203125,-215.33203125,0.0,0,0
1766593613.126771,1766593613.0794864,-846.19140625,-302.734375,-242.67578125,-260.25390625,0.0,0,0
1766593613.1268249,1766593613.0833795,373.046875,-218.75,-3.90625,-189.453125,0.0,0,0
1766593613.126878,1766593613.0872726,-822.265625,-158.69140625,-1.953125,-74.21875,0.0,0,0
1766593613.12693,1766593613.0911658,115.234375,-242.67578125,-241.69921875,-95.703125,0.0,0,0
1766593613.126981,1766593613.095059,-1000.0,-347.16796875,-354.00390625,-164.55078125,0.0,0,0
1766593613.127031,1766593613.098952,-951.171875,-362.79296875,-187.5,-165.52734375,0.0,0,0
1766593613.12708,1766593613.1028452,178.22265625,-267.08984375,10.25390625,-122.0703125,0.0,0,0
1766593613.127131,1766593613.1067386,-810.546875,-166.015625,18.06640625,-45.41015625,0.0,0,0
1766593613.186039,1766593613.1107354,282.2265625,-200.1953125,-161.62109375,-34.1796875,0.0,0,0
1766593613.186176,1766593613.1146286,-988.28125,-305.17578125,-314.94140625,-129.8828125,0.0,0,0
1766593613.1862311,1766593613.1185217,-1000.0,-355.46875,-237.79296875,-162.109375,0.0,0,0
1766593613.186282,1766593613.1224148,2.44140625,-329.1015625,-18.5546875,-108.88671875,0.0,0,0
1766593613.186333,1766593613.1263082,-828.125,-232.421875,29.78515625,-45.8984375,0.0,0,0
1766593613.186385,1766593613.1302013,407.71484375,-193.84765625,-136.71875,-47.8515625,0.0,0,0
1766593613.1864362,1766593613.1340945,-888.671875,-320.80078125,-328.125,-139.16015625,0.0,0,0
1766593613.186486,1766593613.1379876,-1000.0,-397.94921875,-271.97265625,-146.484375,0.0,0,0
1766593613.186535,1766593613.141881,-108.3984375,-313.4765625,-50.78125,-96.19140625,0.0,0,0
1766593613.1865861,1766593613.1457741,-864.2578125,-179.6875,17.578125,-70.3125,0.0,0,0
1766593613.186636,1766593613.1496673,563.4765625,-133.30078125,-110.3515625,-43.9453125,0.0,0,0
1766593613.186687,1766593613.1535604,-732.421875,-248.53515625,-277.83203125,-94.23828125,0.0,0,0
1766593613.23152,1766593613.1576445,-1000.0,-329.58984375,-275.87890625,-185.05859375,0.0,0,0
1766593613.231661,1766593613.1615376,-189.94140625,-224.12109375,-81.54296875,-151.85546875,0.0,0,0
1766593613.23172,1766593613.1654308,-918.9453125,-93.75,45.41015625,-53.22265625,0.0,0,0
1766593613.231773,1766593613.1693242,747.0703125,-78.61328125,-86.42578125,-24.4140625,0.0,0,0
1766593613.2318258,1766593613.1732173,-518.5546875,-189.453125,-303.7109375,-111.81640625,0.0,0,0
1766593613.231882,1766593613.1771104,-1000.0,-279.296875,-284.66796875,-187.5,0.0,0,0
1766593613.231932,1766593613.1810038,-269.53125,-215.8203125,-64.94140625,-136.71875,0.0,0,0
1766593613.2319832,1766593613.184897,-984.375,-116.2109375,46.875,-53.22265625,0.0,0,0
1766593613.232033,1766593613.1887903,888.671875,-77.63671875,-58.10546875,-5.37109375,0.0,0,0
1766593613.2320771,1766593613.1926835,-304.19921875,-144.53125,-238.28125,-43.45703125,0.0,0,0
1766593613.2321138,1766593613.1965766,-1000.0,-250.9765625,-278.80859375,-125.48828125,0.0,0,0
1766593613.232168,1766593613.20047,-398.4375,-221.19140625,-109.375,-136.23046875,0.0,0,0
1766593613.2761118,1766593613.20454,896.97265625,-104.00390625,60.546875,-45.8984375,0.0,0,0
1766593613.276223,1766593613.2084332,-960.9375,-32.2265625,-19.04296875,46.875,0.0,0,0
1766593613.276275,1766593613.2123265,-74.70703125,-73.73046875,-199.21875,1.953125,0.0,0,0
1766593613.2766972,1766593613.2162197,-1000.0,-179.6875,-242.1875,-110.3515625,0.0,0,0
1766593613.2767518,1766593613.220113,-594.23828125,-186.5234375,-86.42578125,-144.53125,0.0,0,0
1766593613.276803,1766593613.2240062,721.19140625,-75.68359375,100.5859375,-73.73046875,0.0,0,0
1766593613.276856,1766593613.2278996,-905.76171875,-6.8359375,33.69140625,-19.53125,0.0,0,0
1766593613.276905,1766593613.2317927,-33.203125,-90.33203125,-178.7109375,-32.2265625,0.0,0,0
1766593613.276955,1766593613.235686,-1000.0,-194.3359375,-250.0,-66.40625,0.0,0,0
1766593613.27701,1766593613.2395792,-675.78125,-185.05859375,-120.60546875,-97.16796875,0.0,0,0
1766593613.27706,1766593613.2434726,595.21484375,-84.47265625,70.80078125,-26.85546875,0.0,0,0
1766593613.277109,1766593613.2473657,-839.84375,32.71484375,89.35546875,49.8046875,0.0,0,0
1766593613.324982,1766593613.251424,134.27734375,-28.80859375,-129.39453125,-8.7890625,0.0,0,0
1766593613.3251011,1766593613.2553174,-1000.0,-195.3125,-250.0,-69.82421875,0.0,0,0
1766593613.3251572,1766593613.2592106,-897.94921875,-210.44921875,-94.23828125,-70.80078125,0.0,0,0
1766593613.325224,1766593613.263104,295.8984375,-107.421875,78.125,-56.15234375,0.0,0,0
1766593613.325275,1766593613.2669973,-811.5234375,-22.94921875,38.0859375,-41.50390625,0.0,0,0
1766593613.3253272,1766593613.2708905,208.49609375,-23.92578125,-162.59765625,-67.3828125,0.0,0,0
1766593613.3253791,1766593613.2747838,-1000.0,-118.1640625,-272.4609375,-95.21484375,0.0,0,0
1766593613.32543,1766593613.2786772,-1000.0,-177.734375,-156.73828125,-112.3046875,0.0,0,0
1766593613.325493,1766593613.2825704,30.2734375,-136.23046875,48.828125,-74.21875,0.0,0,0
1766593613.325562,1766593613.2864637,-818.84765625,-27.34375,94.23828125,-2.9296875,0.0,0,0
1766593613.325612,1766593613.290357,354.4921875,5.37109375,-73.73046875,15.625,0.0,0,0
1766593613.3256671,1766593613.2942502,-932.6171875,-115.72265625,-214.35546875,-11.23046875,0.0,0,0
1766593613.366173,1766593613.2982948,-1000.0,-200.1953125,-144.04296875,-65.91796875,0.0,0,0
1766593613.366257,1766593613.3021882,-66.40625,-104.98046875,63.96484375,-65.4296875,0.0,0,0
1766593613.3663008,1766593613.3060815,-858.88671875,47.8515625,144.04296875,3.90625,0.0,0,0
1766593613.366343,1766593613.3099747,560.546875,48.828125,-16.6015625,47.8515625,0.0,0,0
1766593613.366384,1766593613.313868,-729.98046875,-93.26171875,-207.03125,13.18359375,0.0,0,0
1766593613.366422,1766593613.3177614,-1000.0,-171.38671875,-168.9453125,-36.1328125,0.0,0,0
1766593613.366473,1766593613.3216548,-196.2890625,-104.4921875,49.31640625,-51.7578125,0.0,0,0
1766593613.366511,1766593613.325548,-906.73828125,-17.578125,144.04296875,-20.5078125,0.0,0,0
1766593613.366557,1766593613.3294413,682.6171875,-26.3671875,-14.16015625,5.859375,0.0,0,0
1766593613.3665931,1766593613.3333347,-599.12109375,-85.44921875,-243.65234375,-44.43359375,0.0,0,0
1766593613.366648,1766593613.337228,-1000.0,-145.5078125,-220.703125,-81.54296875,0.0,0,0
1766593613.366685,1766593613.3411214,-257.8125,-118.1640625,31.73828125,-63.96484375,0.0,0,0
1766593613.4115908,1766593613.345155,-969.23828125,-12.6953125,163.57421875,-11.71875,0.0,0,0
1766593613.4117482,1766593613.3490484,854.98046875,51.7578125,32.71484375,40.52734375,0.0,0,0
1766593613.411794,1766593613.3529418,-372.0703125,-34.1796875,-183.59375,-0.9765625,0.0,0,0
1766593613.411833,1766593613.3568351,-1000.0,-142.08984375,-197.75390625,-74.70703125,0.0,0,0
1766593613.411872,1766593613.3607285,-427.24609375,-117.67578125,11.71875,-62.01171875,0.0,0,0
1766593613.4119098,1766593613.3646216,896.484375,-3.41796875,180.6640625,22.94921875,0.0,0,0
1766593613.411948,1766593613.368515,985.83984375,78.125,93.26171875,54.6875,0.0,0,0
1766593613.411984,1766593613.3724084,-202.63671875,-30.2734375,-143.5546875,28.80859375,0.0,0,0
1766593613.412024,1766593613.3763018,-1000.0,-164.0625,-191.89453125,-22.4609375,0.0,0,0
1766593613.412061,1766593613.3801951,-465.33203125,-140.625,4.8828125,-51.7578125,0.0,0,0
1766593613.412098,1766593613.3840885,831.54296875,-33.69140625,175.29296875,4.8828125,0.0,0,0
1766593613.412137,1766593613.387982,-924.8046875,48.33984375,93.26171875,49.8046875,0.0,0,0
1766593613.459172,1766593613.3920012,-19.04296875,-4.8828125,-146.97265625,8.7890625,0.0,0,0
1766593613.459302,1766593613.3958945,-1000.0,-108.3984375,-221.19140625,-57.12890625,0.0,0,0
1766593613.45936,1766593613.399788,-679.19921875,-158.69140625,-81.54296875,-105.46875,0.0,0,0
1766593613.459414,1766593613.4036813,597.16796875,-79.1015625,102.05078125,-27.83203125,0.0,0,0
1766593613.459467,1766593613.4075747,-841.796875,85.44921875,131.8359375,113.28125,0.0,0,0
1766593613.45952,1766593613.411468,116.2109375,33.69140625,-68.359375,75.1953125,0.0,0,0
1766593613.45957,1766593613.4153614,-1000.0,-125.48828125,-241.2109375,-86.42578125,0.0,0,0
1766593613.459622,1766593613.4192548,-855.46875,-127.44140625,-131.34765625,-135.25390625,0.0,0,0
1766593613.459692,1766593613.4231482,372.0703125,-54.19921875,95.703125,-65.91796875,0.0,0,0
1766593613.459743,1766593613.4270415,-813.4765625,20.5078125,119.140625,0.0,0.0,0,0
1766593613.459808,1766593613.430935,218.75,13.18359375,-87.40234375,6.8359375,0.0,0,0
1766593613.459858,1766593613.4348283,-1000.0,-83.0078125,-206.54296875,-18.5546875,0.0,0,0
1766593613.532684,1766593613.4390404,-961.42578125,-123.046875,-70.3125,-44.43359375,0.0,0,0
1766593613.532825,1766593613.4429338,201.66015625,-37.59765625,131.8359375,-10.7421875,0.0,0,0
1766593613.5328681,1766593613.4468272,-814.94140625,88.37890625,173.33984375,49.8046875,0.0,0,0
1766593613.532908,1766593613.4507208,302.24609375,57.12890625,8.30078125,62.01171875,0.0,0,0
1766593613.5329468,1766593613.4546142,-991.2109375,-81.0546875,-139.16015625,23.92578125,0.0,0,0
1766593613.5329862,1766593613.4585075,-1000.0,-110.3515625,-33.69140625,6.34765625,0.0,0,0
1766593613.533025,1766593613.462401,93.75,-56.640625,170.8984375,26.3671875,0.0,0,0
1766593613.5330718,1766593613.4662943,-838.8671875,32.2265625,196.2890625,80.56640625,0.0,0,0
1766593613.533132,1766593613.470188,472.65625,27.83203125,19.04296875,89.35546875,0.0,0,0
1766593613.53317,1766593613.4740813,-821.77734375,-90.8203125,-156.25,5.859375,0.0,0,0
1766593613.5332081,1766593613.4779747,-1000.0,-107.91015625,-94.7265625,-52.734375,0.0,0,0
1766593613.533244,1766593613.481868,-80.56640625,-14.16015625,128.90625,-9.27734375,0.0,0,0
1766593613.5606542,1766593613.4858627,-886.71875,91.30859375,221.19140625,77.63671875,0.0,0,0
1766593613.560799,1766593613.489756,678.7109375,78.125,69.3359375,93.26171875,0.0,0,0
1766593613.560856,1766593613.4936495,-594.23828125,-17.08984375,-140.625,39.55078125,0.0,0,0
1766593613.560909,1766593613.497543,-1000.0,-82.51953125,-120.1171875,-15.625,0.0,0,0
1766593613.56096,1766593613.5014365,-164.55078125,-41.015625,88.37890625,-11.71875,0.0,0,0
1766593613.5610108,1766593613.5053298,-926.26953125,81.0546875,215.8203125,59.08203125,0.0,0,0
1766593613.5610628,1766593613.5092235,802.734375,87.890625,85.44921875,92.28515625,0.0,0,0
1766593613.561113,1766593613.5131168,-430.6640625,-20.01953125,-133.30078125,39.55078125,0.0,0,0
1766593613.561175,1766593613.5170102,-1000.0,-118.1640625,-138.18359375,-29.296875,0.0,0,0
1766593613.561225,1766593613.5209036,-277.34375,-66.89453125,72.75390625,-7.8125,0.0,0,0
1766593613.5612748,1766593613.5247972,997.55859375,75.68359375,218.26171875,71.77734375,0.0,0,0
1766593613.561345,1766593613.5286906,946.2890625,92.28515625,78.125,74.70703125,0.0,0,0
1766593613.605951,1766593613.532668,-210.44921875,-5.859375,-153.3203125,21.484375,0.0,0,0
1766593613.6061,1766593613.5365615,-1000.0,-161.62109375,-156.73828125,-38.0859375,0.0,0,0
1766593613.606156,1766593613.540455,-382.32421875,-154.296875,71.2890625,-20.01953125,0.0,0,0
1766593613.606209,1766593613.5443485,902.34375,66.40625,246.58203125,75.1953125,0.0,0,0
1766593613.606261,1766593613.5482419,-939.94140625,187.98828125,143.06640625,125.48828125,0.0,0,0
1766593613.606323,1766593613.5521355,-7.32421875,40.52734375,-89.35546875,67.3828125,0.0,0,0
1766593613.6063738,1766593613.5560288,-1000.0,-109.86328125,-165.52734375,-19.04296875,0.0,0,0
1766593613.606761,1766593613.5599222,-550.29296875,-95.703125,-8.30078125,-35.64453125,0.0,0,0
1766593613.606818,1766593613.5638158,756.8359375,-3.90625,168.9453125,13.671875,0.0,0,0
1766593613.606869,1766593613.5677092,-889.16015625,60.05859375,109.375,48.828125,0.0,0,0
1766593613.606934,1766593613.5716028,41.015625,-8.30078125,-117.1875,1.46484375,0.0,0,0
1766593613.6069891,1766593613.5754962,-1000.0,-115.72265625,-214.84375,-55.17578125,0.0,0,0
1766593613.6521542,1766593613.5795662,-671.38671875,-123.53515625,-34.66796875,-45.41015625,0.0,0,0
1766593613.652294,1766593613.5834599,606.93359375,-20.5078125,170.41015625,14.16015625,0.0,0,0
1766593613.652334,1766593613.5873532,-840.8203125,71.77734375,148.92578125,59.08203125,0.0,0,0
1766593613.652371,1766593613.5912468,183.10546875,61.03515625,-42.96875,59.5703125,0.0,0,0
1766593613.65241,1766593613.5951402,-1000.0,-51.7578125,-154.78515625,11.71875,0.0,0,0
1766593613.652448,1766593613.5990338,-817.87109375,-87.890625,-0.48828125,-21.484375,0.0,0,0
1766593613.6524858,1766593613.6029272,430.17578125,14.16015625,193.359375,18.06640625,0.0,0,0
1766593613.652524,1766593613.6068208,-824.21875,127.9296875,178.7109375,72.265625,0.0,0,0
1766593613.652569,1766593613.6107142,307.12890625,104.4921875,-10.25390625,82.51953125,0.0,0,0
1766593613.6526148,1766593613.6146078,-982.91015625,-35.15625,-155.76171875,20.01953125,0.0,0,0
1766593613.6526709,1766593613.6185012,-1000.0,-84.9609375,-65.4296875,-49.31640625,0.0,0,0
1766593613.6527271,1766593613.6223948,128.90625,-7.8125,148.4375,-21.97265625,0.0,0,0
1766593613.698302,1766593613.626467,-831.0546875,75.1953125,208.984375,60.05859375,0.0,0,0
1766593613.6984189,1766593613.6303606,422.8515625,72.75390625,21.97265625,57.6171875,0.0,0,0
1766593613.6984751,1766593613.634254,-873.53515625,-22.94921875,-169.921875,-19.53125,0.0,0,0
1766593613.698528,1766593613.6381476,-1000.0,-90.8203125,-84.47265625,-72.75390625,0.0,0,0
1766593613.698578,1766593613.6420412,-28.80859375,-26.3671875,141.11328125,-54.6875,0.0,0,0
1766593613.6986291,1766593613.6459346,-863.76953125,89.35546875,213.8671875,22.4609375,0.0,0,0
1766593613.6986802,1766593613.6498282,592.28515625,101.5625,34.66796875,35.64453125,0.0,0,0
1766593613.698731,1766593613.6537218,-708.0078125,-24.90234375,-187.98828125,-37.109375,0.0,0,0
1766593613.698783,1766593613.6576152,-1000.0,-148.4375,-128.90625,-88.8671875,0.0,0,0
1766593613.6988318,1766593613.6615088,-80.078125,-100.5859375,114.2578125,-51.7578125,0.0,0,0
1766593613.698882,1766593613.6654024,-903.80859375,61.03515625,205.078125,6.8359375,0.0,0,0
1766593613.698932,1766593613.6692958,754.8828125,64.94140625,38.57421875,15.625,0.0,0,0
1766593613.74149,1766593613.6733377,-483.88671875,-46.875,-173.828125,-39.55078125,0.0,0,0
1766593613.741598,1766593613.677231,-1000.0,-112.3046875,-169.921875,-125.48828125,0.0,0,0
1766593613.741694,1766593613.6811247,-233.3984375,-64.453125,62.5,-113.76953125,0.0,0,0
1766593613.741815,1766593613.6850183,-965.8203125,58.59375,200.68359375,-20.99609375,0.0,0,0
1766593613.741929,1766593613.688912,871.58203125,95.21484375,51.7578125,5.859375,0.0,0,0
1766593613.741994,1766593613.6928053,-320.80078125,8.7890625,-180.6640625,-71.2890625,0.0,0,0
1766593613.742037,1766593613.696699,-1000.0,-96.19140625,-190.91796875,-124.51171875,0.0,0,0
1766593613.742076,1766593613.7005925,-339.84375,-81.54296875,33.203125,-96.19140625,0.0,0,0
1766593613.742115,1766593613.7044861,951.66015625,8.7890625,204.1015625,-22.94921875,0.0,0,0
1766593613.742187,1766593613.7083797,999.51171875,65.4296875,110.3515625,26.3671875,0.0,0,0
1766593613.7422469,1766593613.7122731,-120.60546875,32.2265625,-124.0234375,-30.76171875,0.0,0,0
1766593613.742291,1766593613.7161667,-1000.0,-64.94140625,-172.36328125,-115.72265625,0.0,0,0
1766593613.7853708,1766593613.7201943,-483.88671875,-87.890625,20.5078125,-125.9765625,0.0,0,0
1766593613.785485,1766593613.724088,812.98828125,10.7421875,202.1484375,-55.6640625,0.0,0,0
1766593613.785513,1766593613.7279816,-901.85546875,78.125,133.7890625,12.20703125,0.0,0,0
1766593613.785543,1766593613.7318752,39.55078125,6.8359375,-94.7265625,-20.01953125,0.0,0,0
1766593613.785568,1766593613.7357688,-1000.0,-92.28515625,-190.91796875,-92.28515625,0.0,0,0
1766593613.785593,1766593613.7396624,-625.0,-82.51953125,-27.83203125,-111.81640625,0.0,0,0
1766593613.785641,1766593613.7435558,665.52734375,53.22265625,187.98828125,-46.875,0.0,0,0
1766593613.7856839,1766593613.7474494,-854.00390625,107.421875,145.5078125,6.34765625,0.0,0,0
1766593613.7857122,1766593613.751343,110.83984375,20.99609375,-109.375,-43.45703125,0.0,0,0
1766593613.785738,1766593613.7552366,-1000.0,-116.69921875,-202.1484375,-110.3515625,0.0,0,0
1766593613.785792,1766593613.7591302,-805.6640625,-158.203125,-58.10546875,-108.3984375,0.0,0,0
1766593613.785839,1766593613.7630239,435.05859375,-17.578125,112.79296875,-60.05859375,0.0,0,0
1766593613.830094,1766593613.7670333,-821.2890625,90.8203125,131.34765625,-23.92578125,0.0,0,0
1766593613.830158,1766593613.770927,215.33203125,27.34375,-67.87109375,-47.8515625,0.0,0,0
1766593613.830186,1766593613.7748206,-1000.0,-82.03125,-209.9609375,-121.09375,0.0,0,0
1766593613.8302112,1766593613.7787142,-936.03515625,-132.32421875,-73.2421875,-154.78515625,0.0,0,0
1766593613.830236,1766593613.7826078,250.9765625,-69.82421875,159.1796875,-83.984375,0.0,0,0
1766593613.83026,1766593613.7865014,-814.94140625,84.47265625,173.33984375,-26.3671875,0.0,0,0
1766593613.830284,1766593613.790395,314.453125,66.40625,-70.80078125,-37.109375,0.0,0,0
1766593613.8303082,1766593613.7942886,-959.47265625,-83.0078125,-271.484375,-99.12109375,0.0,0,0
1766593613.8303318,1766593613.7981822,-1000.0,-170.8984375,-168.45703125,-145.5078125,0.0,0,0
1766593613.830362,1766593613.8020759,-6.8359375,-116.69921875,95.21484375,-113.76953125,0.0,0,0
1766593613.830386,1766593613.8059695,-835.44921875,25.390625,156.25,-57.6171875,0.0,0,0
1766593613.83041,1766593613.809863,461.9140625,53.7109375,-52.734375,-70.80078125,0.0,0,0
1766593613.879155,1766593613.813867,-841.30859375,-52.734375,-227.05078125,-125.48828125,0.0,0,0
1766593613.879262,1766593613.8177607,-1000.0,-120.60546875,-131.8359375,-176.26953125,0.0,0,0
1766593613.879318,1766593613.8216543,-109.375,-61.5234375,121.58203125,-142.08984375,0.0,0,0
1766593613.87937,1766593613.825548,-881.34765625,50.78125,205.56640625,-55.6640625,0.0,0,0
1766593613.879421,1766593613.8294415,644.53125,52.24609375,17.578125,-48.828125,0.0,0,0
1766593613.879472,1766593613.8333352,-637.20703125,-39.0625,-189.94140625,-126.46484375,0.0,0,0
1766593613.879522,1766593613.8372288,-1000.0,-112.79296875,-170.41015625,-189.453125,0.0,0,0
1766593613.879571,1766593613.8411224,-179.6875,-86.9140625,67.3828125,-140.13671875,0.0,0,0
1766593613.87962,1766593613.845016,-931.15234375,-0.48828125,201.171875,-43.45703125,0.0,0,0
1766593613.879671,1766593613.8489096,800.29296875,34.1796875,52.734375,-35.64453125,0.0,0,0
1766593613.879721,1766593613.8528032,-434.5703125,-26.3671875,-187.01171875,-112.3046875,0.0,0,0
1766593613.879771,1766593613.8566968,-1000.0,-104.4921875,-191.40625,-155.2734375,0.0,0,0
1766593613.935002,1766593613.8606827,-291.9921875,-78.61328125,62.01171875,-155.2734375,0.0,0,0
1766593613.935103,1766593613.8645766,-999.51171875,29.78515625,229.98046875,-94.7265625,0.0,0,0
1766593613.935162,1766593613.8684702,920.41015625,90.33203125,105.46875,-42.48046875,0.0,0,0
1766593613.9352162,1766593613.8723638,-269.53125,0.9765625,-163.0859375,-121.09375,0.0,0,0
1766593613.9352682,1766593613.8762574,-1000.0,-104.00390625,-213.37890625,-246.09375,0.0,0,0
1766593613.935319,1766593613.880151,-391.11328125,-74.21875,29.78515625,-248.53515625,0.0,0,0
1766593613.935369,1766593613.8840446,901.3671875,25.390625,209.9609375,-167.96875,0.0,0,0
1766593613.9354198,1766593613.8879383,-959.47265625,66.40625,89.84375,-96.6796875,0.0,0,0
1766593613.935471,1766593613.8918319,-62.98828125,-3.90625,-145.01953125,-165.52734375,0.0,0,0
1766593613.93552,1766593613.8957257,-1000.0,-102.5390625,-194.82421875,-362.3046875,0.0,0,0
1766593613.93557,1766593613.8996193,-584.47265625,-91.30859375,5.859375,-389.16015625,0.0,0,0
1766593613.935904,1766593613.903513,713.8671875,19.04296875,217.7734375,-187.01171875,0.0,0,0
1766593613.981877,1766593613.9074943,-875.9765625,87.890625,180.6640625,-90.33203125,0.0,0,0
1766593613.9819572,1766593613.911388,44.43359375,25.390625,-68.84765625,-239.2578125,0.0,0,0
1766593613.9820101,1766593613.9152818,-1000.0,-70.3125,-197.265625,-356.4453125,0.0,0,0
1766593613.982097,1766593613.9191754,-781.25,-109.86328125,-62.5,-283.69140625,0.0,0,0
1766593613.982164,1766593613.923069,464.35546875,-50.29296875,186.5234375,-286.62109375,0.0,0,0
1766593613.982218,1766593613.9269626,-823.73046875,9.765625,276.85546875,-272.4609375,0.0,0,0
1766593613.9822688,1766593613.9308562,153.3203125,-14.16015625,21.97265625,-202.63671875,0.0,0,0
1766593613.98232,1766593613.93475,-1000.0,-56.640625,-190.4296875,-257.8125,0.0,0,0
1766593613.9823701,1766593613.9386437,-918.9453125,-89.35546875,-83.984375,-310.05859375,0.0,0,0
1766593613.98242,1766593613.9425373,264.16015625,9.765625,140.625,-174.31640625,0.0,0,0
1766593613.982469,1766593613.946431,-810.546875,140.625,161.62109375,-99.12109375,0.0,0,0
1766593613.9825191,1766593613.9503245,232.91015625,75.1953125,-61.5234375,-144.04296875,0.0,0,0
1766593614.028918,1766593613.9543898,-1000.0,-60.05859375,-199.21875,-180.17578125,0.0,0,0
1766593614.029011,1766593613.9582837,-1000.0,-66.40625,-69.82421875,-247.0703125,0.0,0,0
1766593614.0290618,1766593613.9621773,51.26953125,-33.203125,170.8984375,-230.95703125,0.0,0,0
1766593614.029114,1766593613.966071,-825.1953125,15.625,196.2890625,-197.75390625,0.0,0,0
1766593614.029164,1766593613.9699647,403.3203125,57.12890625,-42.96875,-150.87890625,0.0,0,0
1766593614.0292149,1766593613.9738584,-896.484375,-18.5546875,-248.046875,-77.1484375,0.0,0,0
1766593614.029325,1766593613.977752,-1000.0,-63.4765625,-177.24609375,-136.23046875,0.0,0,0
1766593614.029386,1766593613.9816458,-56.640625,15.625,116.69921875,-141.11328125,0.0,0,0
1766593614.0294368,1766593613.9855394,-859.375,104.4921875,234.86328125,-34.66796875,0.0,0,0
1766593614.029488,1766593613.989433,558.59375,80.56640625,18.06640625,-33.69140625,0.0,0,0
1766593614.029537,1766593613.9933267,-731.93359375,-0.48828125,-248.53515625,-41.50390625,0.0,0,0
1766593614.029587,1766593613.9972205,-1000.0,-68.84765625,-211.9140625,-38.0859375,0.0,0,0
1766593614.070802,1766593614.0012724,-161.62109375,-48.828125,90.8203125,-73.73046875,0.0,0,0
1766593614.070892,1766593614.005166,-897.94921875,59.08203125,235.3515625,14.16015625,0.0,0,0
1766593614.0709262,1766593614.00906,692.3828125,105.46875,32.71484375,75.1953125,0.0,0,0
1766593614.070993,1766593614.0129535,-588.8671875,-35.15625,-252.9296875,1.953125,0.0,0,0
1766593614.071054,1766593614.0168474,-1000.0,-150.390625,-236.81640625,-91.796875,0.0,0,0
1766593614.0710971,1766593614.020741,-213.8671875,-37.109375,73.2421875,-46.38671875,0.0,0,0
1766593614.071129,1766593614.0246348,-958.0078125,134.765625,257.32421875,96.19140625,0.0,0,0
1766593614.0711591,1766593614.0285285,866.69921875,125.48828125,69.3359375,121.58203125,0.0,0,0
1766593614.07119,1766593614.032422,-340.33203125,-10.25390625,-228.02734375,37.109375,0.0,0,0
1766593614.071218,1766593614.036316,-1000.0,-92.7734375,-261.23046875,-16.6015625,0.0,0,0
1766593614.071247,1766593614.0402095,-362.79296875,-59.08203125,14.16015625,-11.71875,0.0,0,0
1766593614.071276,1766593614.0441034,929.19921875,25.87890625,230.95703125,45.41015625,0.0,0,0
1766593614.131548,1766593614.0482404,-979.00390625,82.51953125,115.72265625,88.37890625,0.0,0,0
1766593614.13168,1766593614.0521343,-99.12109375,50.78125,-173.33984375,36.62109375,0.0,0,0
1766593614.1317382,1766593614.056028,-1000.0,-60.546875,-262.20703125,-12.6953125,0.0,0,0
1766593614.131791,1766593614.0599217,-462.890625,-68.359375,-21.484375,8.30078125,0.0,0,0
1766593614.1318998,1766593614.0638156,844.23828125,33.69140625,218.26171875,74.70703125,0.0,0,0
1766593614.131974,1766593614.0677092,-916.015625,124.0234375,150.390625,86.9140625,0.0,0,0
1766593614.1320288,1766593614.071603,4.8828125,29.296875,-154.78515625,82.03125,0.0,0,0
1766593614.13208,1766593614.0754967,-1000.0,-69.3359375,-283.69140625,30.76171875,0.0,0,0
1766593614.1321301,1766593614.0793905,-659.1796875,27.34375,-55.17578125,-16.11328125,0.0,0,0
1766593614.1321669,1766593614.0832844,630.37109375,40.52734375,194.82421875,19.04296875,0.0,0,0
1766593614.132205,1766593614.087178,-845.703125,60.05859375,135.25390625,72.75390625,0.0,0,0
1766593614.132241,1766593614.0910718,120.1171875,41.015625,-132.8125,41.015625,0.0,0,0
1766593614.1626089,1766593614.0951064,-1000.0,-85.9375,-262.20703125,-27.83203125,0.0,0,0
1766593614.1627111,1766593614.099,-803.7109375,-105.95703125,-63.4765625,-51.26953125,0.0,0,0
1766593614.162768,1766593614.1028938,466.30859375,4.39453125,206.54296875,-3.90625,0.0,0,0
1766593614.162821,1766593614.1067877,-818.359375,90.33203125,193.359375,82.51953125,0.0,0,0
1766593614.1628742,1766593614.1106813,164.55078125,34.66796875,-77.63671875,115.234375,0.0,0,0
1766593614.1629262,1766593614.1145751,-1000.0,-68.359375,-265.625,15.625,0.0,0,0
1766593614.162976,1766593614.118469,-930.17578125,-85.9375,-110.3515625,-32.2265625,0.0,0,0
1766593614.163031,1766593614.1223629,262.20703125,-19.53125,165.52734375,33.69140625,0.0,0,0
1766593614.16309,1766593614.1262565,-805.6640625,31.25,199.70703125,91.796875,0.0,0,0
1766593614.163139,1766593614.1301503,269.53125,19.53125,-39.0625,55.6640625,0.0,0,0
1766593614.163189,1766593614.1340442,-1000.0,-35.64453125,-250.48828125,2.44140625,0.0,0,0
1766593614.1632378,1766593614.137938,-1000.0,-64.453125,-144.53125,-4.39453125,0.0,0,0
1766593614.2055922,1766593614.1419487,57.6171875,-15.625,121.58203125,8.30078125,0.0,0,0
1766593614.205674,1766593614.1458426,-819.82421875,34.66796875,205.56640625,65.4296875,0.0,0,0
1766593614.205715,1766593614.1497362,391.6015625,58.59375,2.9296875,42.48046875,0.0,0,0
1766593614.205754,1766593614.15363,-902.83203125,-27.83203125,-254.8828125,-19.53125,0.0,0,0
1766593614.205794,1766593614.1575239,-1000.0,-123.53515625,-202.1484375,-62.01171875,0.0,0,0
1766593614.2058308,1766593614.1614177,-87.40234375,-77.1484375,103.515625,-48.33984375,0.0,0,0
1766593614.205869,1766593614.1653116,-852.05078125,64.453125,230.95703125,26.3671875,0.0,0,0
1766593614.205906,1766593614.1692054,546.38671875,127.44140625,5.859375,50.29296875,0.0,0,0
1766593614.205943,1766593614.173099,-762.6953125,-13.671875,-256.34765625,-21.97265625,0.0,0,0
1766593614.2059798,1766593614.176993,-1000.0,-145.99609375,-207.03125,-82.51953125,0.0,0,0
1766593614.206016,1766593614.1808867,-164.0625,-95.21484375,67.3828125,-72.75390625,0.0,0,0
1766593614.206063,1766593614.1847806,-908.69140625,33.69140625,227.05078125,10.25390625,0.0,0,0
1766593614.251232,1766593614.1887844,748.046875,62.5,59.5703125,63.4765625,0.0,0,0
1766593614.251348,1766593614.1926782,-529.296875,-46.875,-227.05078125,-18.5546875,0.0,0,0
1766593614.2514062,1766593614.1965718,-1000.0,-126.46484375,-236.328125,-97.16796875,0.0,0,0
1766593614.2514591,1766593614.2004657,-251.46484375,-78.125,26.85546875,-75.1953125,0.0,0,0
1766593614.251515,1766593614.2043595,-971.19140625,15.13671875,202.1484375,-1.46484375,0.0,0,0
1766593614.2515671,1766593614.2082534,884.27734375,80.078125,68.84765625,21.97265625,0.0,0,0
1766593614.2516181,1766593614.2121472,-340.8203125,54.6875,-201.171875,-39.55078125,0.0,0,0
1766593614.251669,1766593614.216041,-1000.0,-50.29296875,-262.20703125,-130.859375,0.0,0,0
1766593614.25172,1766593614.219935,-330.078125,-100.09765625,-36.1328125,-97.65625,0.0,0,0
1766593614.25177,1766593614.2238288,948.2421875,0.48828125,202.63671875,1.953125,0.0,0,0
1766593614.251829,1766593614.2277226,-975.5859375,70.3125,111.81640625,33.69140625,0.0,0,0
1766593614.251891,1766593614.2316165,-84.9609375,1.46484375,-184.08203125,-11.23046875,0.0,0,0
1766593614.311625,1766593614.235607,-1000.0,-129.8828125,-262.6953125,-91.30859375,0.0,0,0
1766593614.3117702,1766593614.2395008,-516.11328125,-124.0234375,-36.62109375,-104.4921875,0.0,0,0
1766593614.311829,1766593614.2433946,794.43359375,17.08984375,193.84765625,-42.96875,0.0,0,0
1766593614.311882,1766593614.2472885,-894.53125,72.75390625,136.71875,19.04296875,0.0,0,0
1766593614.3122728,1766593614.2511823,32.2265625,-19.53125,-142.08984375,8.30078125,0.0,0,0
1766593614.312331,1766593614.2550762,-1000.0,-103.515625,-256.8359375,-54.6875,0.0,0,0
1766593614.312381,1766593614.25897,-708.49609375,-121.58203125,-78.61328125,-92.28515625,0.0,0,0
1766593614.312455,1766593614.2628639,587.40234375,-36.1328125,153.80859375,-54.19921875,0.0,0,0
1766593614.312505,1766593614.2667577,-833.49609375,74.70703125,142.578125,6.8359375,0.0,0,0
1766593614.312555,1766593614.2706516,126.46484375,33.69140625,-89.84375,-9.27734375,0.0,0,0
1766593614.312605,1766593614.2745454,-1000.0,-90.33203125,-211.9140625,-67.87109375,0.0,0,0
1766593614.312654,1766593614.2784393,-880.859375,-131.8359375,-71.77734375,-77.63671875,0.0,0,0
1766593614.3563468,1766593614.2824256,357.421875,-43.45703125,184.08203125,3.90625,0.0,0,0
1766593614.356478,1766593614.2863195,-804.19921875,67.87109375,208.984375,86.42578125,0.0,0,0
1766593614.356537,1766593614.2902133,199.21875,29.78515625,-37.109375,62.5,0.0,0,0
1766593614.35659,1766593614.2941072,-1000.0,-111.81640625,-220.703125,-16.11328125,0.0,0,0
1766593614.356641,1766593614.298001,-995.60546875,-199.70703125,-103.02734375,-43.9453125,0.0,0,0
1766593614.356695,1766593614.301895,152.83203125,-10.7421875,178.22265625,34.66796875,0.0,0,0
1766593614.356746,1766593614.3057888,-803.7109375,136.71875,247.0703125,123.046875,0.0,0,0
1766593614.356798,1766593614.3096828,306.640625,0.48828125,6.34765625,100.09765625,0.0,0,0
1766593614.3568692,1766593614.3135767,-965.8203125,-153.3203125,-208.49609375,19.04296875,0.0,0,0
1766593614.35692,1766593614.3174706,-1000.0,-127.44140625,-112.3046875,-37.109375,0.0,0,0
1766593614.3569899,1766593614.3213644,-41.50390625,-47.36328125,130.37109375,21.484375,0.0,0,0
1766593614.357049,1766593614.3252583,-839.84375,-24.90234375,228.515625,108.3984375,0.0,0,0
1766593614.431457,1766593614.329508,508.30078125,-18.06640625,64.94140625,117.67578125,0.0,0,0
1766593614.4316218,1766593614.3334022,-799.31640625,-116.2109375,-155.76171875,48.828125,0.0,0,0
1766593614.4316878,1766593614.337296,-1000.0,-189.94140625,-115.234375,-5.859375,0.0,0,0
1766593614.431749,1766593614.3411899,-139.6484375,-129.39453125,137.20703125,42.48046875,0.0,0,0
1766593614.431809,1766593614.345084,-897.4609375,-5.37109375,263.18359375,119.140625,0.0,0,0
1766593614.43187,1766593614.3489778,726.5625,13.671875,98.6328125,140.625,0.0,0,0
1766593614.4319282,1766593614.3528717,-562.01171875,-85.44921875,-166.015625,70.3125,0.0,0,0
1766593614.4319859,1766593614.3567657,-1000.0,-187.01171875,-184.08203125,-11.71875,0.0,0,0
1766593614.432042,1766593614.3606596,-185.546875,-150.87890625,64.94140625,-7.8125,0.0,0,0
1766593614.4320982,1766593614.3645535,-944.3359375,-25.390625,217.28515625,63.4765625,0.0,0,0
1766593614.432155,1766593614.3684475,862.79296875,31.25,89.35546875,92.28515625,0.0,0,0
1766593614.432211,1766593614.3723414,-366.2109375,-62.98828125,-156.25,21.97265625,0.0,0,0
1766593614.4481149,1766593614.376397,-1000.0,-189.94140625,-193.359375,-58.59375,0.0,0,0
1766593614.448202,1766593614.3802907,-253.90625,-162.109375,50.29296875,-32.2265625,0.0,0,0
1766593614.448255,1766593614.3841848,986.81640625,-0.9765625,213.8671875,48.828125,0.0,0,0
1766593614.448309,1766593614.3880787,-996.09375,71.77734375,80.56640625,69.82421875,0.0,0,0
1766593614.44836,1766593614.3919728,-96.6796875,-15.13671875,-157.71484375,18.5546875,0.0,0,0
1766593614.44841,1766593614.3958666,-1000.0,-102.05078125,-203.125,-58.10546875,0.0,0,0
1766593614.44846,1766593614.3997607,-385.7421875,-71.77734375,-5.37109375,-63.4765625,0.0,0,0
1766593614.44851,1766593614.4036546,903.80859375,37.59765625,187.01171875,23.4375,0.0,0,0
1766593614.448562,1766593614.4075484,-921.38671875,76.66015625,103.515625,71.77734375,0.0,0,0
1766593614.4486148,1766593614.4114425,42.48046875,-14.6484375,-135.25390625,14.6484375,0.0,0,0
1766593614.4486651,1766593614.4153364,-1000.0,-120.60546875,-215.33203125,-81.0546875,0.0,0,0
1766593614.448715,1766593614.4192305,-512.6953125,-124.51171875,-34.1796875,-113.28125,0.0,0,0
1766593614.49194,1766593614.4232683,793.45703125,-20.5078125,181.640625,-49.8046875,0.0,0,0
1766593614.4920561,1766593614.4271624,-870.1171875,52.734375,152.34375,14.6484375,0.0,0,0
1766593614.492098,1766593614.4310563,147.4609375,11.71875,-82.51953125,10.7421875,0.0,0,0
1766593614.492137,1766593614.4349504,-1000.0,-77.63671875,-221.19140625,-66.40625,0.0,0,0
1766593614.492175,1766593614.4388442,-781.73828125,-110.3515625,-85.44921875,-114.2578125,0.0,0,0
1766593614.492212,1766593614.4427383,507.32421875,-21.97265625,145.5078125,-59.08203125,0.0,0,0
1766593614.4922502,1766593614.4466321,-819.82421875,100.09765625,145.99609375,9.27734375,0.0,0,0
1766593614.492288,1766593614.4505262,211.9140625,49.8046875,-83.984375,-8.7890625,0.0,0,0
1766593614.492325,1766593614.4544203,-1000.0,-109.86328125,-236.328125,-105.95703125,0.0,0,0
1766593614.492362,1766593614.4583142,-897.94921875,-111.81640625,-104.4921875,-148.4375,0.0,0,0
1766593614.4923992,1766593614.4622083,337.40234375,21.484375,118.1640625,-86.9140625,0.0,0,0
1766593614.492436,1766593614.4661021,-810.546875,97.65625,144.04296875,-17.08984375,0.0,0,0
1766593614.537961,1766593614.4701345,296.875,67.3828125,-54.6875,-21.484375,0.0,0,0
1766593614.538116,1766593614.4740283,-997.55859375,-42.96875,-238.28125,-85.44921875,0.0,0,0
1766593614.53816,1766593614.4779224,-1000.0,-95.21484375,-145.5078125,-144.53125,0.0,0,0
1766593614.5382001,1766593614.4818165,141.11328125,-16.11328125,88.37890625,-109.375,0.0,0,0
1766593614.538239,1766593614.4857104,-823.2421875,75.1953125,151.3671875,-25.390625,0.0,0,0
1766593614.5383081,1766593614.4896045,443.84765625,84.47265625,-33.69140625,-29.296875,0.0,0,0
1766593614.538369,1766593614.4934983,-860.83984375,1.46484375,-222.65625,-85.9375,0.0,0,0
1766593614.538411,1766593614.4973924,-1000.0,-78.61328125,-165.52734375,-139.6484375,0.0,0,0
1766593614.5384488,1766593614.5012865,-43.9453125,-21.484375,45.8984375,-104.00390625,0.0,0,0
1766593614.5384881,1766593614.5051804,-880.37109375,107.421875,134.765625,-18.5546875,0.0,0,0
1766593614.538526,1766593614.5090744,681.640625,126.46484375,3.90625,-4.8828125,0.0,0,0
1766593614.538563,1766593614.5129685,-600.5859375,8.30078125,-188.4765625,-68.84765625,0.0,0,0
1766593614.583214,1766593614.516981,-1000.0,-74.70703125,-170.41015625,-132.32421875,0.0,0,0
1766593614.583314,1766593614.520875,-151.85546875,-22.4609375,45.8984375,-90.8203125,0.0,0,0
1766593614.583372,1766593614.5247688,-928.22265625,89.35546875,161.1328125,-9.765625,0.0,0,0
1766593614.5834281,1766593614.528663,832.03125,121.58203125,30.2734375,-5.859375,0.0,0,0
1766593614.5834801,1766593614.532557,-408.69140625,16.6015625,-188.4765625,-60.05859375,0.0,0,0
1766593614.583531,1766593614.536451,-1000.0,-86.42578125,-192.87109375,-96.6796875,0.0,0,0
1766593614.583581,1766593614.540345,-204.58984375,-44.43359375,6.8359375,-61.03515625,0.0,0,0
1766593614.5836318,1766593614.544239,-991.69921875,79.58984375,149.4140625,-6.8359375,0.0,0,0
1766593614.583683,1766593614.5481331,983.88671875,136.23046875,50.29296875,6.34765625,0.0,0,0
1766593614.5837371,1766593614.5520272,-119.140625,63.96484375,-162.59765625,-44.43359375,0.0,0,0
1766593614.583788,1766593614.555921,-1000.0,-41.50390625,-210.9375,-124.51171875,0.0,0,0
1766593614.583837,1766593614.5598152,-305.17578125,-13.671875,-33.203125,-135.7421875,0.0,0,0
1766593614.625553,1766593614.5638175,952.63671875,94.23828125,147.94921875,-64.453125,0.0,0,0
1766593614.625676,1766593614.5677116,-936.03515625,146.484375,81.54296875,-23.4375,0.0,0,0
1766593614.6257029,1766593614.5716054,48.33984375,71.2890625,-152.83203125,-71.77734375,0.0,0,0
1766593614.625728,1766593614.5754995,-1000.0,-27.83203125,-225.09765625,-142.578125,0.0,0,0
1766593614.625754,1766593614.5793936,-437.98828125,-19.04296875,-69.3359375,-145.5078125,0.0,0,0
1766593614.625778,1766593614.5832877,856.4453125,81.54296875,110.3515625,-76.171875,0.0,0,0
1766593614.625807,1766593614.5871818,-886.23046875,189.453125,73.73046875,-7.32421875,0.0,0,0
1766593614.625831,1766593614.591076,153.80859375,122.0703125,-156.25,-14.16015625,0.0,0,0
1766593614.626147,1766593614.5949697,-1000.0,-31.73828125,-256.34765625,-83.49609375,0.0,0,0
1766593614.626173,1766593614.5988638,-612.3046875,-46.875,-102.05078125,-113.76953125,0.0,0,0
1766593614.626197,1766593614.602758,699.21875,23.92578125,107.91015625,-61.5234375,0.0,0,0
1766593614.6262221,1766593614.606652,-850.5859375,120.1171875,108.3984375,16.6015625,0.0,0,0
1766593614.685517,1766593614.6106477,247.0703125,131.34765625,-106.93359375,5.859375,0.0,0,0
1766593614.6856792,1766593614.6145418,-1000.0,12.6953125,-231.4453125,-59.08203125,0.0,0,0
1766593614.685736,1766593614.6184359,-767.578125,-35.15625,-108.88671875,-71.77734375,0.0,0,0
1766593614.6857889,1766593614.6223297,537.109375,64.94140625,99.12109375,-34.1796875,0.0,0,0
1766593614.685842,1766593614.6262238,-836.9140625,174.8046875,119.140625,15.13671875,0.0,0,0
1766593614.685898,1766593614.630118,367.1875,147.94921875,-73.73046875,8.7890625,0.0,0,0
1766593614.685966,1766593614.634012,-974.609375,24.90234375,-238.28125,-59.08203125,0.0,0,0
1766593614.686017,1766593614.637906,-949.21875,-22.94921875,-163.0859375,-110.3515625,0.0,0,0
1766593614.6860669,1766593614.6418002,308.59375,59.5703125,63.4765625,-69.82421875,0.0,0,0
1766593614.6861289,1766593614.6456943,-831.0546875,153.3203125,131.8359375,18.5546875,0.0,0,0
1766593614.6861892,1766593614.6495883,447.265625,145.99609375,-56.15234375,20.99609375,0.0,0,0
1766593614.68624,1766593614.6534824,-852.5390625,28.3203125,-239.74609375,-55.17578125,0.0,0,0
1766593614.7318919,1766593614.6575491,-1000.0,-47.36328125,-153.80859375,-100.09765625,0.0,0,0
1766593614.732012,1766593614.6614432,13.18359375,23.4375,60.546875,-58.59375,0.0,0,0
1766593614.732071,1766593614.6653373,-844.7265625,144.04296875,141.11328125,19.53125,0.0,0,0
1766593614.732125,1766593614.6692314,528.80859375,140.13671875,-11.71875,31.73828125,0.0,0,0
1766593614.732178,1766593614.6731255,-777.34375,43.9453125,-209.9609375,-42.48046875,0.0,0,0
1766593614.73223,1766593614.6770196,-1000.0,0.0,-179.6875,-112.79296875,0.0,0,0
1766593614.732279,1766593614.6809137,-100.09765625,63.96484375,28.3203125,-87.40234375,0.0,0,0
1766593614.732331,1766593614.6848078,-907.71484375,150.87890625,133.30078125,-2.44140625,0.0,0,0
1766593614.7323809,1766593614.6887019,772.94921875,144.53125,2.9296875,28.3203125,0.0,0,0
1766593614.732453,1766593614.692596,-481.4453125,71.77734375,-192.3828125,-35.64453125,0.0,0,0
1766593614.732502,1766593614.69649,-1000.0,-16.6015625,-199.70703125,-115.234375,0.0,0,0
1766593614.732568,1766593614.7003841,-187.98828125,5.37109375,0.48828125,-103.02734375,0.0,0,0
1766593614.776886,1766593614.704446,-941.89453125,134.765625,138.18359375,-21.484375,0.0,0,0
1766593614.7770162,1766593614.7083404,853.02734375,182.12890625,27.83203125,29.296875,0.0,0,0
1766593614.777057,1766593614.7122345,-366.69921875,84.47265625,-170.41015625,-17.578125,0.0,0,0
1766593614.777096,1766593614.7161286,-1000.0,-16.6015625,-190.4296875,-105.46875,0.0,0,0
1766593614.7771351,1766593614.7200227,-292.48046875,10.25390625,-14.6484375,-102.5390625,0.0,0,0
1766593614.7771788,1766593614.7239168,976.5625,120.1171875,147.4609375,-26.85546875,0.0,0,0
1766593614.777217,1766593614.7278109,992.67578125,172.36328125,64.453125,20.01953125,0.0,0,0
1766593614.777259,1766593614.7317052,-130.859375,79.58984375,-150.390625,-20.5078125,0.0,0,0
1766593614.7772958,1766593614.7355993,-1000.0,-32.2265625,-211.42578125,-91.30859375,0.0,0,0
1766593614.777347,1766593614.7394934,-413.57421875,-22.94921875,-53.22265625,-99.609375,0.0,0,0
1766593614.7773929,1766593614.7433875,885.25390625,62.98828125,124.51171875,-37.59765625,0.0,0,0
1766593614.7774389,1766593614.7472816,-927.734375,133.30078125,85.44921875,31.73828125,0.0,0,0
1766593614.820692,1766593614.7513251,1.953125,96.19140625,-96.6796875,20.99609375,0.0,0,0
1766593614.82081,1766593614.7552192,-1000.0,-9.765625,-186.5234375,-44.921875,0.0,0,0
1766593614.820863,1766593614.7591133,-581.0546875,-15.625,-73.73046875,-95.21484375,0.0,0,0
1766593614.820915,1766593614.7630076,716.796875,68.84765625,95.703125,-61.5234375,0.0,0,0
1766593614.820967,1766593614.7669017,-856.4453125,132.8125,89.35546875,5.37109375,0.0,0,0
1766593614.82102,1766593614.7707958,145.5078125,125.9765625,-83.49609375,2.9296875,0.0,0,0
1766593614.8210702,1766593614.77469,-1000.0,19.04296875,-200.68359375,-63.96484375,0.0,0,0
1766593614.821121,1766593614.7785842,-763.18359375,-48.828125,-108.3984375,-97.16796875,0.0,0,0
1766593614.821172,1766593614.7824783,525.390625,33.69140625,80.078125,-62.98828125,0.0,0,0
1766593614.821281,1766593614.7863724,-823.73046875,147.4609375,104.98046875,0.0,0.0,0,0
1766593614.821328,1766593614.7902665,204.58984375,118.65234375,-59.08203125,9.27734375,0.0,0,0
1766593614.821368,1766593614.7941608,-1000.0,15.13671875,-212.890625,-74.70703125,0.0,0,0
1766593614.866838,1766593614.7981918,-910.64453125,-37.109375,-143.5546875,-115.234375,0.0,0,0
1766593614.866972,1766593614.802086,314.94140625,38.0859375,73.2421875,-78.61328125,0.0,0,0
1766593614.867032,1766593614.8059802,-808.10546875,125.0,130.859375,-11.71875,0.0,0,0
1766593614.867085,1766593614.8098743,280.76171875,109.375,-23.92578125,-1.46484375,0.0,0,0
1766593614.867137,1766593614.8137686,-1000.0,-5.859375,-183.59375,-56.15234375,0.0,0,0
1766593614.867188,1766593614.8176627,-1000.0,-48.33984375,-129.8828125,-109.375,0.0,0,0
1766593614.867239,1766593614.821557,117.67578125,71.2890625,47.8515625,-94.23828125,0.0,0,0
1766593614.867291,1766593614.8254511,-829.1015625,145.99609375,120.60546875,-7.32421875,0.0,0,0
1766593614.8673432,1766593614.8293452,451.171875,109.86328125,-24.4140625,4.8828125,0.0,0,0
1766593614.8673952,1766593614.8332396,-849.609375,-1.46484375,-193.359375,-59.08203125,0.0,0,0
1766593614.867452,1766593614.8371336,-1000.0,-52.24609375,-135.7421875,-94.23828125,0.0,0,0
1766593614.867521,1766593614.8410277,-61.03515625,14.16015625,40.52734375,-84.47265625,0.0,0,0
1766593614.910872,1766593614.8450477,-870.1171875,143.06640625,113.28125,-23.92578125,0.0,0,0
1766593614.91099,1766593614.848942,624.0234375,149.4140625,-4.39453125,4.8828125,0.0,0,0
1766593614.911032,1766593614.8528361,-676.7578125,-5.37109375,-185.05859375,-50.29296875,0.0,0,0
1766593614.911072,1766593614.8567305,-1000.0,-73.73046875,-169.43359375,-89.35546875,0.0,0,0
1766593614.9111109,1766593614.8606246,-120.1171875,-11.23046875,22.4609375,-60.546875,0.0,0,0
1766593614.911149,1766593614.864519,-902.83203125,86.9140625,127.44140625,-8.7890625,0.0,0,0
1766593614.911186,1766593614.868413,754.39453125,179.6875,1.46484375,5.859375,0.0,0,0
1766593614.9112241,1766593614.8723073,-516.11328125,41.015625,-173.828125,-41.015625,0.0,0,0
1766593614.9112608,1766593614.8762014,-1000.0,-124.0234375,-189.94140625,-109.86328125,0.0,0,0
1766593614.911307,1766593614.8800957,-187.98828125,-34.66796875,-21.97265625,-94.7265625,0.0,0,0
1766593614.911364,1766593614.8839898,-971.6796875,106.4453125,111.81640625,-31.25,0.0,0,0
1766593614.9114041,1766593614.887884,937.5,152.34375,30.76171875,0.0,0.0,0,0
1766593614.970712,1766593614.8919842,-217.28515625,61.03515625,-150.390625,-31.73828125,0.0,0,0
1766593614.970847,1766593614.8958783,-1000.0,-43.45703125,-189.453125,-90.8203125,0.0,0,0
1766593614.970905,1766593614.8997726,-293.9453125,-18.06640625,-25.390625,-89.84375,0.0,0,0
1766593614.9709592,1766593614.903667,954.1015625,88.8671875,116.69921875,-20.5078125,0.0,0,0
1766593614.971012,1766593614.907561,-942.3828125,127.9296875,57.6171875,49.31640625,0.0,0,0
1766593614.9710631,1766593614.9114554,29.296875,82.03125,-118.65234375,13.671875,0.0,0,0
1766593614.971113,1766593614.9153495,-1000.0,-22.94921875,-204.58984375,-59.5703125,0.0,0,0
1766593614.9711628,1766593614.9192438,-373.53515625,-35.15625,-75.1953125,-56.15234375,0.0,0,0
1766593614.971214,1766593614.9231381,909.1796875,77.63671875,102.5390625,-0.9765625,0.0,0,0
1766593614.971324,1766593614.9270322,-903.80859375,173.33984375,71.2890625,15.625,0.0,0,0
1766593614.971393,1766593614.9309266,118.65234375,109.375,-113.28125,-3.41796875,0.0,0,0
1766593614.971436,1766593614.9348207,-1000.0,-34.1796875,-203.125,-39.0625,0.0,0,0
1766593615.032028,1766593614.9390016,-560.546875,-29.78515625,-85.44921875,-59.5703125,0.0,0,0
1766593615.032501,1766593614.942896,748.53515625,75.1953125,81.54296875,-27.34375,0.0,0,0
1766593615.0325592,1766593614.9467902,-860.83984375,133.7890625,81.0546875,22.94921875,0.0,0,0
1766593615.0326111,1766593614.9506843,185.05859375,111.328125,-77.1484375,29.296875,0.0,0,0
1766593615.032685,1766593614.9545786,-1000.0,20.99609375,-198.2421875,-48.828125,0.0,0,0
1766593615.0327349,1766593614.958473,-766.11328125,-24.90234375,-105.46875,-103.02734375,0.0,0,0
1766593615.032785,1766593614.9623673,527.83203125,79.58984375,63.4765625,-56.640625,0.0,0,0
1766593615.0328362,1766593614.9662616,-825.1953125,163.57421875,67.87109375,-1.46484375,0.0,0,0
1766593615.032886,1766593614.970156,270.5078125,115.72265625,-82.51953125,-15.625,0.0,0,0
1766593615.032935,1766593614.97405,-1000.0,9.27734375,-200.1953125,-72.265625,0.0,0,0
1766593615.032985,1766593614.9779444,-889.6484375,-58.10546875,-121.09375,-101.5625,0.0,0,0
1766593615.033034,1766593614.9818387,367.67578125,1.953125,60.546875,-79.58984375,0.0,0,0
1766593615.060781,1766593614.9858255,-830.078125,129.39453125,116.2109375,-4.8828125,0.0,0,0
1766593615.0609128,1766593614.9897199,422.36328125,142.578125,-36.1328125,30.76171875,0.0,0,0
1766593615.060971,1766593614.993614,-899.4140625,35.64453125,-196.77734375,-25.87890625,0.0,0,0
1766593615.061026,1766593614.9975083,-1000.0,-34.1796875,-143.06640625,-69.3359375,0.0,0,0
1766593615.0610769,1766593615.0014026,141.11328125,28.80859375,49.8046875,-40.0390625,0.0,0,0
1766593615.0611289,1766593615.005297,-857.91015625,159.66796875,125.9765625,12.20703125,0.0,0,0
1766593615.061183,1766593615.0091913,599.609375,153.80859375,-21.484375,34.1796875,0.0,0,0
1766593615.061234,1766593615.0130856,-699.70703125,3.41796875,-194.82421875,-18.06640625,0.0,0,0
1766593615.061289,1766593615.01698,-1000.0,-96.6796875,-169.43359375,-88.8671875,0.0,0,0
1766593615.0613382,1766593615.0208743,-26.3671875,-6.34765625,18.5546875,-65.91796875,0.0,0,0
1766593615.061396,1766593615.0247686,-902.34375,104.00390625,107.91015625,5.859375,0.0,0,0
1766593615.061456,1766593615.0286627,780.76171875,127.44140625,-2.9296875,28.3203125,0.0,0,0
1766593615.105518,1766593615.032633,-471.19140625,71.2890625,-167.48046875,-32.71484375,0.0,0,0
1766593615.105642,1766593615.0365274,-1000.0,-42.96875,-169.921875,-112.79296875,0.0,0,0
1766593615.1057,1766593615.0404217,-138.671875,-10.25390625,-3.90625,-115.234375,0.0,0,0
1766593615.1057541,1766593615.044316,-950.68359375,118.1640625,101.5625,-55.6640625,0.0,0,0
1766593615.105807,1766593615.0482104,908.203125,154.296875,9.765625,-1.953125,0.0,0,0
1766593615.1058571,1766593615.0521047,-251.953125,57.12890625,-147.4609375,-31.25,0.0,0,0
1766593615.105908,1766593615.055999,-1000.0,-41.015625,-163.57421875,-83.0078125,0.0,0,0
1766593615.105957,1766593615.0598931,-261.71875,-11.23046875,-28.3203125,-75.68359375,0.0,0,0
1766593615.106009,1766593615.0637875,989.2578125,84.47265625,86.9140625,-21.97265625,0.0,0,0
1766593615.10606,1766593615.0676818,-996.58203125,148.92578125,33.203125,29.78515625,0.0,0,0
1766593615.106142,1766593615.071576,-91.30859375,94.7265625,-125.48828125,-10.7421875,0.0,0,0
1766593615.1062012,1766593615.0754704,-1000.0,-41.50390625,-165.0390625,-75.1953125,0.0,0,0
1766593615.154182,1766593615.0795271,-396.484375,-67.3828125,-39.0625,-65.4296875,0.0,0,0
1766593615.154285,1766593615.0834215,887.20703125,48.33984375,87.40234375,-29.78515625,0.0,0,0
1766593615.15434,1766593615.0873158,-908.69140625,124.51171875,63.96484375,29.78515625,0.0,0,0
1766593615.15446,1766593615.0912101,70.80078125,54.6875,-89.35546875,33.69140625,0.0,0,0
1766593615.154513,1766593615.0951045,-1000.0,-55.17578125,-163.0859375,-50.29296875,0.0,0,0
1766593615.1545641,1766593615.0989988,-573.2421875,-34.66796875,-58.10546875,-84.47265625,0.0,0,0
1766593615.154617,1766593615.102893,731.93359375,74.70703125,74.70703125,-27.34375,0.0,0,0
1766593615.154655,1766593615.1067874,-861.328125,121.58203125,56.640625,27.34375,0.0,0,0
1766593615.1546922,1766593615.1106818,138.18359375,73.73046875,-101.07421875,-5.859375,0.0,0,0
1766593615.1547341,1766593615.114576,-1000.0,-41.9921875,-180.17578125,-57.12890625,0.0,0,0
1766593615.154772,1766593615.1184704,-741.69921875,-58.10546875,-89.84375,-51.26953125,0.0,0,0
1766593615.154809,1766593615.1223648,541.015625,54.6875,57.6171875,-8.7890625,0.0,0,0
1766593615.1956449,1766593615.1264043,-827.1484375,143.06640625,80.56640625,50.29296875,0.0,0,0
1766593615.19575,1766593615.1302986,246.09375,100.09765625,-63.96484375,52.734375,0.0,0,0
1766593615.195808,1766593615.134193,-1000.0,-22.4609375,-181.640625,-25.87890625,0.0,0,0
1766593615.19586,1766593615.1380873,-916.9921875,-57.6171875,-109.375,-64.453125,0.0,0,0
1766593615.195912,1766593615.1419816,308.10546875,25.390625,62.5,-7.32421875,0.0,0,0
1766593615.1959622,1766593615.1458762,-817.87109375,122.55859375,115.234375,57.12890625,0.0,0,0
1766593615.1960151,1766593615.1497705,351.07421875,118.65234375,-20.01953125,67.87109375,0.0,0,0
1766593615.196065,1766593615.1536648,-950.68359375,3.41796875,-171.875,1.46484375,0.0,0,0
1766593615.196117,1766593615.1575592,-1000.0,-83.984375,-129.8828125,-69.3359375,0.0,0,0
1766593615.196167,1766593615.1614535,91.796875,-18.06640625,45.8984375,-36.1328125,0.0,0,0
1766593615.196217,1766593615.1653478,-837.40234375,68.84765625,107.91015625,51.26953125,0.0,0,0
1766593615.196267,1766593615.1692424,488.28125,56.15234375,-14.6484375,64.94140625,0.0,0,0
1766593615.24191,1766593615.1732795,-811.5234375,1.953125,-170.8984375,-9.765625,0.0,0,0
1766593615.2420108,1766593615.1771739,-1000.0,-38.0859375,-138.18359375,-58.10546875,0.0,0,0
1766593615.242054,1766593615.1810682,-72.265625,5.37109375,25.390625,-36.62109375,0.0,0,0
1766593615.242093,1766593615.1849627,-879.8828125,83.984375,105.95703125,36.62109375,0.0,0,0
1766593615.242132,1766593615.188857,666.9921875,126.46484375,9.27734375,63.96484375,0.0,0,0
1766593615.2421708,1766593615.1927514,-616.2109375,74.70703125,-146.97265625,-3.41796875,0.0,0,0
1766593615.2422101,1766593615.196646,-1000.0,-22.94921875,-159.66796875,-61.03515625,0.0,0,0
1766593615.2422469,1766593615.2005403,-173.828125,-24.4140625,7.32421875,-31.25,0.0,0,0
1766593615.242283,1766593615.2044346,-929.19921875,58.10546875,124.51171875,26.3671875,0.0,0,0
1766593615.242321,1766593615.208329,812.01171875,104.4921875,12.20703125,47.36328125,0.0,0,0
1766593615.242358,1766593615.2122235,-431.15234375,30.76171875,-148.4375,-2.9296875,0.0,0,0
1766593615.2423942,1766593615.2161179,-1000.0,-92.7734375,-150.87890625,-60.05859375,0.0,0,0
1766593615.2885618,1766593615.2201412,-295.8984375,-71.2890625,2.9296875,-40.52734375,0.0,0,0
1766593615.288712,1766593615.2240357,-999.0234375,67.87109375,122.0703125,34.66796875,0.0,0,0
1766593615.2887669,1766593615.22793,919.921875,113.28125,50.29296875,75.1953125,0.0,0,0
1766593615.288821,1766593615.2318244,-284.66796875,18.5546875,-115.234375,27.83203125,0.0,0,0
1766593615.288872,1766593615.235719,-1000.0,-90.8203125,-163.0859375,-33.203125,0.0,0,0
1766593615.288924,1766593615.2396133,-456.0546875,-72.265625,-9.27734375,-13.671875,0.0,0,0
1766593615.2889779,1766593615.2435076,867.1875,65.91796875,147.94921875,62.98828125,0.0,0,0
1766593615.2890291,1766593615.2474022,-974.609375,95.703125,70.80078125,89.35546875,0.0,0,0
1766593615.289082,1766593615.2512965,-148.92578125,-9.27734375,-121.58203125,45.41015625,0.0,0,0
1766593615.289134,1766593615.255191,-1000.0,-92.7734375,-174.8046875,-21.484375,0.0,0,0
1766593615.289192,1766593615.2590854,-707.51953125,-85.44921875,-42.96875,-29.296875,0.0,0,0
1766593615.289261,1766593615.2629797,580.078125,14.6484375,101.5625,23.4375,0.0,0,0
1766593615.3310442,1766593615.2669897,-853.515625,64.94140625,75.1953125,66.89453125,0.0,0,0
1766593615.33116,1766593615.270884,9.765625,8.30078125,-86.9140625,57.12890625,0.0,0,0
1766593615.3312168,1766593615.2747786,-1000.0,-77.63671875,-177.24609375,5.859375,0.0,0,0
1766593615.331271,1766593615.278673,-919.43359375,-101.5625,-76.66015625,-17.578125,0.0,0,0
1766593615.3313239,1766593615.2825675,274.4140625,-3.41796875,72.265625,14.16015625,0.0,0,0
1766593615.3313851,1766593615.2864618,-805.6640625,106.4453125,82.03125,83.49609375,0.0,0,0
1766593615.333184,1766593615.2903562,92.7734375,72.265625,-78.61328125,86.42578125,0.0,0,0
1766593615.3332438,1766593615.2942507,-1000.0,-87.40234375,-185.05859375,23.92578125,0.0,0,0
1766593615.3332858,1766593615.298145,-1000.0,-128.90625,-77.63671875,-0.9765625,0.0,0,0
1766593615.3333251,1766593615.3020396,82.51953125,-9.765625,78.61328125,34.66796875,0.0,0,0
1766593615.333363,1766593615.305934,-797.8515625,89.84375,85.9375,71.77734375,0.0,0,0
1766593615.333424,1766593615.3098285,209.9609375,42.48046875,-60.05859375,52.24609375,0.0,0,0
1766593615.37695,1766593615.3138316,-1000.0,-55.6640625,-184.5703125,-32.71484375,0.0,0,0
1766593615.377077,1766593615.317726,-1000.0,-99.609375,-110.3515625,-58.59375,0.0,0,0
1766593615.377187,1766593615.3216205,-66.40625,-13.18359375,59.08203125,-5.37109375,0.0,0,0
1766593615.3772311,1766593615.325515,-812.5,103.515625,100.09765625,67.3828125,0.0,0,0
1766593615.37727,1766593615.3294094,329.1015625,64.453125,-20.99609375,78.61328125,0.0,0,0
1766593615.377308,1766593615.333304,-946.2890625,-32.71484375,-157.2265625,15.13671875,0.0,0,0
1766593615.377346,1766593615.3371983,-1000.0,-115.72265625,-116.69921875,-44.921875,0.0,0,0
1766593615.377383,1766593615.3410928,-179.6875,-79.58984375,44.921875,-22.4609375,0.0,0,0
1766593615.377419,1766593615.3449872,-851.07421875,57.6171875,89.35546875,39.0625,0.0,0,0
1766593615.3774562,1766593615.3488817,491.2109375,66.89453125,-25.87890625,33.203125,0.0,0,0
1766593615.377493,1766593615.352776,-819.82421875,-48.828125,-168.9453125,-53.7109375,0.0,0,0
1766593615.3775308,1766593615.3566706,-1000.0,-131.34765625,-136.23046875,-112.79296875,0.0,0,0
1766593615.4361331,1766593615.3606586,-267.578125,-61.03515625,39.55078125,-76.66015625,0.0,0,0
1766593615.43628,1766593615.3645532,-921.38671875,66.89453125,119.140625,15.13671875,0.0,0,0
1766593615.436336,1766593615.3684475,691.40625,91.30859375,8.7890625,45.8984375,0.0,0,0
1766593615.4363892,1766593615.372342,-620.60546875,-11.23046875,-144.53125,-27.34375,0.0,0,0
1766593615.4364412,1766593615.3762364,-1000.0,-88.37890625,-142.08984375,-58.10546875,0.0,0,0
1766593615.436494,1766593615.380131,-350.09765625,-23.92578125,17.08984375,-49.8046875,0.0,0,0
1766593615.4365451,1766593615.3840256,994.140625,29.78515625,110.3515625,-31.25,0.0,0,0
1766593615.436598,1766593615.38792,864.2578125,49.31640625,7.8125,-20.99609375,0.0,0,0
1766593615.4366488,1766593615.3918145,-412.59765625,-23.92578125,-153.3203125,-76.66015625,0.0,0,0
1766593615.436712,1766593615.3957088,-1000.0,-108.3984375,-171.38671875,-143.5546875,0.0,0,0
1766593615.4367628,1766593615.3996034,-492.1875,-105.46875,-41.015625,-152.34375,0.0,0,0
1766593615.436813,1766593615.4034977,835.44921875,4.39453125,73.2421875,-114.2578125,0.0,0,0
1766593615.481898,1766593615.4074748,-970.21484375,125.9765625,6.8359375,-91.796875,0.0,0,0
1766593615.482053,1766593615.4113693,-164.0625,44.43359375,-165.0390625,-122.55859375,0.0,0,0
1766593615.4821088,1766593615.415264,-1000.0,-62.5,-215.33203125,-175.78125,0.0,0,0
1766593615.482163,1766593615.4191582,-634.765625,-49.8046875,-63.96484375,-184.5703125,0.0,0,0
1766593615.482216,1766593615.4230528,663.57421875,52.24609375,80.56640625,-121.58203125,0.0,0,0
1766593615.4822679,1766593615.4269474,-862.3046875,116.2109375,37.109375,-81.54296875,0.0,0,0
1766593615.482319,1766593615.4308417,40.0390625,50.78125,-120.60546875,-101.5625,0.0,0,0
1766593615.48238,1766593615.4347363,-1000.0,-52.734375,-200.1953125,-162.109375,0.0,0,0
1766593615.4824388,1766593615.4386308,-817.3828125,-79.1015625,-92.7734375,-169.921875,0.0,0,0
1766593615.482506,1766593615.4425251,445.3125,-7.32421875,65.4296875,-107.421875,0.0,0,0
1766593615.482568,1766593615.4464197,-815.4296875,87.890625,56.640625,-75.68359375,0.0,0,0
1766593615.482642,1766593615.4503143,121.58203125,52.734375,-108.88671875,-105.95703125,0.0,0,0
1766593615.5272708,1766593615.4543722,-1000.0,-59.5703125,-196.77734375,-125.0,0.0,0,0
1766593615.5274172,1766593615.4582665,-939.94140625,-97.16796875,-77.1484375,-108.3984375,0.0,0,0
1766593615.527462,1766593615.462161,249.0234375,-42.96875,92.28515625,-69.82421875,0.0,0,0
1766593615.527502,1766593615.4660556,-797.8515625,78.125,80.078125,-1.46484375,0.0,0,0
1766593615.52754,1766593615.4699502,215.33203125,67.3828125,-73.73046875,-4.39453125,0.0,0,0
1766593615.527578,1766593615.4738445,-1000.0,-34.1796875,-173.828125,-69.82421875,0.0,0,0
1766593615.527615,1766593615.477739,-1000.0,-73.73046875,-105.95703125,-79.58984375,0.0,0,0
1766593615.527651,1766593615.4816337,20.01953125,-10.7421875,50.29296875,-35.64453125,0.0,0,0
1766593615.5276968,1766593615.4855282,-808.59375,93.75,81.0546875,35.64453125,0.0,0,0
1766593615.527744,1766593615.4894226,327.63671875,48.828125,-49.8046875,52.734375,0.0,0,0
1766593615.52778,1766593615.4933171,-949.70703125,-77.63671875,-172.36328125,-7.32421875,0.0,0,0
1766593615.52782,1766593615.4972117,-1000.0,-123.53515625,-116.69921875,-49.31640625,0.0,0,0
1766593615.574181,1766593615.5012593,-117.67578125,-38.0859375,58.10546875,4.8828125,0.0,0,0
1766593615.5743082,1766593615.505154,-842.7734375,90.8203125,102.5390625,50.78125,0.0,0,0
1766593615.5743659,1766593615.5090482,484.86328125,71.2890625,-33.69140625,62.5,0.0,0,0
1766593615.57442,1766593615.5129428,-823.2421875,-28.3203125,-166.015625,30.76171875,0.0,0,0
1766593615.574472,1766593615.5168374,-1000.0,-72.265625,-135.25390625,-25.87890625,0.0,0,0
1766593615.5745249,1766593615.520732,-189.453125,-36.62109375,43.45703125,4.8828125,0.0,0,0
1766593615.5745769,1766593615.5246265,-896.97265625,84.47265625,125.9765625,67.3828125,0.0,0,0
1766593615.574639,1766593615.528521,687.01171875,101.5625,-12.6953125,74.21875,0.0,0,0
1766593615.57469,1766593615.5324156,-616.2109375,-52.24609375,-179.19921875,14.16015625,0.0,0,0
1766593615.574741,1766593615.5363102,-1000.0,-125.48828125,-157.71484375,-45.8984375,0.0,0,0
1766593615.574813,1766593615.5402048,-260.7421875,-55.17578125,1.46484375,-35.64453125,0.0,0,0
1766593615.57491,1766593615.544099,-971.6796875,48.828125,114.2578125,39.55078125,0.0,0,0
1766593615.631433,1766593615.5482233,875.0,55.6640625,22.4609375,101.5625,0.0,0,0
1766593615.631571,1766593615.5521178,-365.72265625,-37.109375,-144.04296875,80.56640625,0.0,0,0
1766593615.631616,1766593615.5560124,-1000.0,-70.80078125,-156.25,-7.32421875,0.0,0,0
1766593615.631656,1766593615.559907,-338.37890625,-31.25,-14.16015625,-71.77734375,0.0,0,0
1766593615.631695,1766593615.5638015,943.84765625,77.63671875,109.86328125,-41.50390625,0.0,0,0
1766593615.631758,1766593615.567696,-978.515625,137.20703125,54.19921875,11.71875,0.0,0,0
1766593615.631798,1766593615.5715907,-97.16796875,26.3671875,-106.4453125,20.5078125,0.0,0,0
1766593615.631835,1766593615.5754852,-1000.0,-111.328125,-140.13671875,-57.6171875,0.0,0,0
1766593615.631871,1766593615.5793798,-473.14453125,-73.2421875,-14.6484375,-150.87890625,0.0,0,0
1766593615.6319091,1766593615.5832744,834.47265625,57.12890625,87.890625,-114.2578125,0.0,0,0
1766593615.631946,1766593615.587169,-898.92578125,120.60546875,40.0390625,53.7109375,0.0,0,0
1766593615.632004,1766593615.5910635,42.48046875,28.3203125,-128.90625,81.0546875,0.0,0,0
1766593615.662303,1766593615.5950875,-1000.0,-98.14453125,-198.73046875,-111.81640625,0.0,0,0
1766593615.662442,1766593615.598982,-687.5,-96.19140625,-37.109375,-309.08203125,0.0,0,0
1766593615.6624808,1766593615.6028767,625.9765625,0.9765625,102.5390625,-133.30078125,0.0,0,0
1766593615.6625202,1766593615.6067712,-843.26171875,98.6328125,48.33984375,44.43359375,0.0,0,0
1766593615.6625578,1766593615.6106658,97.16796875,57.12890625,-111.328125,-175.78125,0.0,0,0
1766593615.662595,1766593615.6145604,-1000.0,-31.73828125,-201.171875,-293.45703125,0.0,0,0
1766593615.662632,1766593615.6184552,-805.17578125,-43.9453125,-128.90625,-120.1171875,0.0,0,0
1766593615.662755,1766593615.6223497,474.609375,17.578125,28.80859375,10.25390625,0.0,0,0
1766593615.662857,1766593615.6262443,-812.5,91.30859375,38.57421875,-137.6953125,0.0,0,0
1766593615.662931,1766593615.6301389,161.62109375,56.15234375,-95.703125,-266.6015625,0.0,0,0
1766593615.6629791,1766593615.6340334,-1000.0,-49.31640625,-195.3125,-83.984375,0.0,0,0
1766593615.6644108,1766593615.637928,-996.09375,-90.8203125,-126.46484375,-232.91015625,0.0,0,0
1766593615.720274,1766593615.6419368,170.8984375,-5.37109375,14.6484375,-142.08984375,0.0,0,0
1766593615.7204401,1766593615.6458313,-792.96875,87.40234375,79.1015625,69.82421875,0.0,0,0
1766593615.720499,1766593615.6497262,248.53515625,77.63671875,-33.69140625,-117.67578125,0.0,0,0
1766593615.720553,1766593615.6536207,-1000.0,2.44140625,-230.95703125,-58.10546875,0.0,0,0
1766593615.720604,1766593615.6575153,-1000.0,-87.40234375,-127.44140625,40.0390625,0.0,0,0
1766593615.720654,1766593615.6614099,83.984375,-30.2734375,144.53125,27.83203125,0.0,0,0
1766593615.720705,1766593615.6653044,-804.19921875,119.62890625,155.2734375,150.87890625,0.0,0,0
1766593615.7207549,1766593615.6691992,331.0546875,84.9609375,-25.390625,244.140625,0.0,0,0
1766593615.720806,1766593615.6730938,-944.82421875,-34.1796875,-134.27734375,-220.21484375,0.0,0,0
1766593615.720856,1766593615.6769884,-1000.0,-59.08203125,-110.83984375,-195.3125,0.0,0,0
1766593615.720906,1766593615.680883,-98.14453125,-30.2734375,37.109375,145.01953125,0.0,0,0
1766593615.7209558,1766593615.6847775,-833.984375,107.421875,99.12109375,194.3359375,0.0,0,0
1766593615.751164,1766593615.6887686,475.09765625,133.7890625,-9.27734375,188.96484375,0.0,0,0
1766593615.751269,1766593615.6926632,-846.6796875,-19.53125,-166.9921875,-78.61328125,0.0,0,0
1766593615.751328,1766593615.6965578,-1000.0,-99.609375,-177.24609375,-43.45703125,0.0,0,0
1766593615.751383,1766593615.7004523,-162.109375,-47.8515625,24.4140625,243.1640625,0.0,0,0
1766593615.751437,1766593615.7043471,-901.3671875,85.9375,163.0859375,77.1484375,0.0,0,0
1766593615.751489,1766593615.7082417,742.1875,138.18359375,66.89453125,-54.19921875,0.0,0,0
1766593615.751541,1766593615.7121363,-563.4765625,-3.41796875,-125.9765625,-72.75390625,0.0,0,0
1766593615.751592,1766593615.716031,-1000.0,-107.91015625,-213.37890625,45.41015625,0.0,0,0
1766593615.751643,1766593615.7199256,-224.12109375,-56.640625,-34.1796875,139.6484375,0.0,0,0
1766593615.751693,1766593615.7238202,-945.80078125,35.15625,145.99609375,32.71484375,0.0,0,0
1766593615.751744,1766593615.7277148,835.44921875,106.4453125,46.38671875,24.4140625,0.0,0,0
1766593615.7517939,1766593615.7316096,-426.26953125,60.546875,-158.203125,-130.37109375,0.0,0,0
1766593615.8094778,1766593615.7355924,-1000.0,-92.7734375,-187.5,-19.53125,0.0,0,0
1766593615.80964,1766593615.739487,-321.2890625,-92.28515625,-25.390625,111.81640625,0.0,0,0
1766593615.809698,1766593615.7433817,950.68359375,71.77734375,116.2109375,100.5859375,0.0,0,0
1766593615.809751,1766593615.7472763,-974.609375,103.02734375,80.078125,97.16796875,0.0,0,0
1766593615.809804,1766593615.7511709,-95.703125,28.80859375,-142.578125,29.78515625,0.0,0,0
1766593615.8098629,1766593615.7550657,-1000.0,-53.22265625,-219.7265625,-47.8515625,0.0,0,0
1766593615.8099148,1766593615.7589602,-510.7421875,-59.5703125,-43.9453125,-93.26171875,0.0,0,0
1766593615.809974,1766593615.7628548,800.78125,36.1328125,137.20703125,-9.765625,0.0,0,0
1766593615.810096,1766593615.7667496,-883.7890625,100.09765625,83.0078125,26.3671875,0.0,0,0
1766593615.810158,1766593615.7706442,69.3359375,5.859375,-133.30078125,17.08984375,0.0,0,0
1766593615.8102138,1766593615.7745388,-1000.0,-95.703125,-204.1015625,-37.59765625,0.0,0,0
1766593615.810267,1766593615.7784336,-648.92578125,-83.49609375,-56.15234375,-99.609375,0.0,0,0
1766593615.85569,1766593615.7824028,672.8515625,3.90625,123.046875,-29.296875,0.0,0,0
1766593615.85582,1766593615.7862973,-844.7265625,89.35546875,116.2109375,-23.4375,0.0,0,0
1766593615.8558779,1766593615.7901921,129.39453125,35.64453125,-91.796875,-98.14453125,0.0,0,0
1766593615.855932,1766593615.7940867,-1000.0,-92.28515625,-216.796875,-148.92578125,0.0,0,0
1766593615.855988,1766593615.7979813,-860.3515625,-113.76953125,-83.49609375,-176.7578125,0.0,0,0
1766593615.85604,1766593615.801876,411.62109375,8.30078125,132.32421875,-166.50390625,0.0,0,0
1766593615.856092,1766593615.8057706,-802.24609375,123.046875,141.6015625,-95.21484375,0.0,0,0
1766593615.856151,1766593615.8096654,208.984375,68.84765625,-60.05859375,-101.07421875,0.0,0,0
1766593615.856203,1766593615.81356,-1000.0,-89.35546875,-210.9375,-177.734375,0.0,0,0
1766593615.8562691,1766593615.8174546,-979.98046875,-133.30078125,-109.86328125,-217.7734375,0.0,0,0
1766593615.85633,1766593615.8213494,212.890625,-42.96875,92.28515625,-190.4296875,0.0,0,0
1766593615.85638,1766593615.825244,-797.36328125,56.15234375,150.87890625,-121.58203125,0.0,0,0
1766593615.9318259,1766593615.8294759,294.921875,42.96875,-13.671875,-110.3515625,0.0,0,0
1766593615.931953,1766593615.8333707,-974.609375,-108.88671875,-185.546875,-161.1328125,0.0,0,0
1766593615.931995,1766593615.8372655,-1000.0,-157.71484375,-118.1640625,-207.03125,0.0,0,0
1766593615.932034,1766593615.84116,-14.16015625,-41.9921875,82.03125,-197.75390625,0.0,0,0
1766593615.932074,1766593615.8450549,-821.77734375,71.77734375,144.53125,-138.671875,0.0,0,0
1766593615.932111,1766593615.8489497,442.87109375,107.91015625,-16.6015625,-137.6953125,0.0,0,0
1766593615.932148,1766593615.8528442,-870.60546875,-2.44140625,-203.125,-189.453125,0.0,0,0
1766593615.9321952,1766593615.856739,-1000.0,-148.4375,-175.78125,-234.375,0.0,0,0
1766593615.932244,1766593615.8606336,-122.0703125,-97.65625,49.8046875,-215.33203125,0.0,0,0
1766593615.93228,1766593615.8645284,-868.1640625,65.91796875,166.015625,-148.4375,0.0,0,0
1766593615.932329,1766593615.8684232,625.0,62.5,11.71875,-135.7421875,0.0,0,0
1766593615.932378,1766593615.8723178,-697.75390625,-76.66015625,-178.22265625,-180.6640625,0.0,0,0
1766593615.947173,1766593615.876364,-1000.0,-138.18359375,-162.59765625,-229.4921875,0.0,0,0
1766593615.9472818,1766593615.8802586,-161.62109375,-52.24609375,21.484375,-220.703125,0.0,0,0
1766593615.947341,1766593615.8841534,-932.6171875,67.87109375,150.87890625,-139.16015625,0.0,0,0
1766593615.947477,1766593615.8880482,847.16796875,89.84375,47.36328125,-114.74609375,0.0,0,0
1766593615.947567,1766593615.891943,-404.78515625,-13.18359375,-158.69140625,-166.015625,0.0,0,0
1766593615.947663,1766593615.8958375,-1000.0,-95.21484375,-166.015625,-222.16796875,0.0,0,0
1766593615.9477298,1766593615.8997324,-230.95703125,-52.24609375,15.625,-215.8203125,0.0,0,0
1766593615.947783,1766593615.9036272,-999.0234375,41.50390625,144.04296875,-146.97265625,0.0,0,0
1766593615.947836,1766593615.907522,993.1640625,75.68359375,48.33984375,-124.0234375,0.0,0,0
1766593615.947944,1766593615.9114165,-139.6484375,-24.4140625,-153.3203125,-164.55078125,0.0,0,0
1766593615.9480052,1766593615.9153113,-1000.0,-144.04296875,-193.84765625,-206.0546875,0.0,0,0
1766593615.9480572,1766593615.9192061,-306.15234375,-125.9765625,-0.48828125,-203.61328125,0.0,0,0
1766593615.9919412,1766593615.9232328,948.2421875,12.6953125,156.73828125,-163.57421875,0.0,0,0
1766593615.992095,1766593615.9271276,-930.17578125,103.515625,68.359375,-152.34375,0.0,0,0
1766593615.992151,1766593615.9310222,49.8046875,21.484375,-123.046875,-215.8203125,0.0,0,0
1766593615.9922051,1766593615.934917,-1000.0,-122.55859375,-187.01171875,-305.17578125,0.0,0,0
1766593615.992268,1766593615.9388118,-466.796875,-151.3671875,-42.48046875,-329.1015625,0.0,0,0
1766593615.9923189,1766593615.9427066,845.703125,-15.625,151.85546875,-279.78515625,0.0,0,0
1766593615.9923708,1766593615.9466014,-881.8359375,92.7734375,120.60546875,-229.98046875,0.0,0,0
1766593615.992426,1766593615.9504962,134.765625,10.25390625,-90.33203125,-241.2109375,0.0,0,0
1766593615.992478,1766593615.954391,-1000.0,-132.32421875,-190.91796875,-303.22265625,0.0,0,0
1766593615.992535,1766593615.9582856,-717.7734375,-134.765625,-62.98828125,-323.2421875,0.0,0,0
1766593615.992597,1766593615.9621804,603.515625,4.8828125,115.234375,-300.29296875,0.0,0,0
1766593615.992643,1766593615.9660752,-829.1015625,106.4453125,108.88671875,-261.23046875,0.0,0,0
1766593616.0354471,1766593615.9700894,172.36328125,46.875,-81.0546875,-258.7890625,0.0,0,0
1766593616.0356119,1766593615.9739842,-1000.0,-91.796875,-213.8671875,-316.89453125,0.0,0,0
1766593616.0356638,1766593615.9778788,-892.578125,-105.46875,-89.84375,-327.1484375,0.0,0,0
1766593616.036046,1766593615.9817736,368.65234375,4.8828125,110.3515625,-264.16015625,0.0,0,0
1766593616.036088,1766593615.9856684,-798.828125,92.7734375,111.328125,-230.46875,0.0,0,0
1766593616.036126,1766593615.9895632,244.140625,72.75390625,-49.8046875,-235.83984375,0.0,0,0
1766593616.036163,1766593615.993458,-1000.0,-31.25,-195.3125,-259.27734375,0.0,0,0
1766593616.0362,1766593615.9973528,-1000.0,-191.40625,-136.23046875,-295.41015625,0.0,0,0
1766593616.036235,1766593616.0012476,71.2890625,-150.390625,58.59375,-252.44140625,0.0,0,0
1766593616.036271,1766593616.0051425,-802.734375,56.640625,126.46484375,-170.41015625,0.0,0,0
1766593616.036308,1766593616.0090373,352.05078125,49.8046875,-26.3671875,-152.34375,0.0,0,0
1766593616.036344,1766593616.012932,-936.5234375,-70.3125,-204.58984375,-201.66015625,0.0,0,0
1766593616.080582,1766593616.0169353,-1000.0,-119.140625,-159.1796875,-241.69921875,0.0,0,0
1766593616.080693,1766593616.0208302,-82.03125,-59.08203125,47.8515625,-200.68359375,0.0,0,0
1766593616.0807319,1766593616.024725,-845.21484375,44.921875,130.859375,-129.39453125,0.0,0,0
1766593616.08077,1766593616.0286198,544.921875,66.89453125,-11.71875,-113.76953125,0.0,0,0
1766593616.080807,1766593616.0325146,-773.92578125,-42.48046875,-192.87109375,-156.25,0.0,0,0
1766593616.080843,1766593616.0364094,-1000.0,-137.20703125,-157.71484375,-205.078125,0.0,0,0
1766593616.0808792,1766593616.0403042,-176.7578125,-74.70703125,19.04296875,-191.40625,0.0,0,0
1766593616.0809221,1766593616.044199,-907.71484375,0.9765625,104.00390625,-119.140625,0.0,0,0
1766593616.080972,1766593616.0480938,752.44140625,61.5234375,0.9765625,-84.47265625,0.0,0,0
1766593616.081009,1766593616.0519886,-546.875,2.44140625,-176.26953125,-114.74609375,0.0,0,0
1766593616.081056,1766593616.0558834,-1000.0,-122.0703125,-177.734375,-165.0390625,0.0,0,0
1766593616.081096,1766593616.0597782,-238.28125,-86.42578125,5.859375,-153.3203125,0.0,0,0
1766593616.126697,1766593616.0637689,-977.05078125,27.83203125,133.30078125,-67.87109375,0.0,0,0
1766593616.1268039,1766593616.0676637,920.8984375,83.0078125,29.78515625,-30.76171875,0.0,0,0
1766593616.126862,1766593616.0715585,-292.96875,-20.5078125,-164.55078125,-69.82421875,0.0,0,0
1766593616.1269171,1766593616.0754533,-1000.0,-116.69921875,-189.94140625,-120.60546875,0.0,0,0
1766593616.126969,1766593616.079348,-328.61328125,-125.9765625,-20.99609375,-116.2109375,0.0,0,0
1766593616.127021,1766593616.083243,950.68359375,-2.9296875,147.4609375,-53.7109375,0.0,0,0
1766593616.127073,1766593616.0871377,-968.75,117.67578125,66.40625,-24.4140625,0.0,0,0
1766593616.127124,1766593616.0910325,-85.9375,-3.90625,-163.0859375,-62.98828125,0.0,0,0
1766593616.12716,1766593616.0949275,-1000.0,-144.53125,-210.9375,-122.55859375,0.0,0,0
1766593616.127197,1766593616.0988224,-470.21484375,-106.4453125,-37.109375,-124.51171875,0.0,0,0
1766593616.127234,1766593616.1027172,830.078125,36.1328125,122.0703125,-71.77734375,0.0,0,0
1766593616.12727,1766593616.106612,-884.765625,90.8203125,51.7578125,-19.53125,0.0,0,0
1766593616.184299,1766593616.110591,94.7265625,21.484375,-136.23046875,-30.76171875,0.0,0,0
1766593616.184432,1766593616.114486,-1000.0,-105.95703125,-189.453125,-110.3515625,0.0,0,0
1766593616.184492,1766593616.1183808,-687.01171875,-130.859375,-55.6640625,-144.53125,0.0,0,0
1766593616.184549,1766593616.1222756,630.859375,-9.27734375,126.46484375,-70.80078125,0.0,0,0
1766593616.184601,1766593616.1261704,-834.47265625,86.42578125,102.5390625,-12.6953125,0.0,0,0
1766593616.184654,1766593616.1300652,155.2734375,47.36328125,-89.84375,-30.76171875,0.0,0,0
1766593616.184714,1766593616.13396,-1000.0,-111.328125,-201.66015625,-99.12109375,0.0,0,0
1766593616.184764,1766593616.1378548,-887.6953125,-166.9921875,-98.6328125,-136.23046875,0.0,0,0
1766593616.184854,1766593616.1417496,364.2578125,-17.08984375,106.4453125,-90.8203125,0.0,0,0
1766593616.184905,1766593616.1456447,-801.26953125,100.09765625,118.1640625,-27.34375,0.0,0,0
1766593616.184983,1766593616.1495395,222.16796875,54.6875,-68.84765625,-8.7890625,0.0,0,0
1766593616.185051,1766593616.1534343,-1000.0,-67.87109375,-205.078125,-75.68359375,0.0,0,0
1766593616.275637,1766593616.1576715,-1000.0,-103.515625,-115.234375,-119.140625,0.0,0,0
1766593616.275785,1766593616.1615663,128.41796875,-22.94921875,66.89453125,-65.91796875,0.0,0,0
1766593616.2758431,1766593616.165461,-797.8515625,92.7734375,113.76953125,29.78515625,0.0,0,0
1766593616.275897,1766593616.169356,299.8046875,87.890625,-35.15625,25.87890625,0.0,0,0
1766593616.275947,1766593616.173251,-969.23828125,-68.359375,-177.24609375,-41.9921875,0.0,0,0
1766593616.275999,1766593616.1771457,-1000.0,-185.05859375,-93.75,-78.125,0.0,0,0
1766593616.276048,1766593616.1810408,-64.94140625,-51.26953125,79.58984375,-46.875,0.0,0,0
1766593616.276099,1766593616.1849356,-826.171875,106.93359375,122.0703125,20.99609375,0.0,0,0
1766593616.2761521,1766593616.1888306,445.3125,61.03515625,-15.13671875,34.1796875,0.0,0,0
1766593616.276204,1766593616.1927254,-867.1875,-74.70703125,-172.36328125,-11.71875,0.0,0,0
1766593616.276253,1766593616.1966202,-1000.0,-168.9453125,-122.55859375,-46.38671875,0.0,0,0
1766593616.276361,1766593616.2005153,-146.97265625,-93.26171875,80.078125,-21.484375,0.0,0,0
1766593616.277678,1766593616.2045765,-866.2109375,22.4609375,180.6640625,35.64453125,0.0,0,0
1766593616.277768,1766593616.2084715,625.9765625,18.06640625,50.29296875,72.75390625,0.0,0,0
1766593616.277816,1766593616.2123663,-713.8671875,-80.078125,-139.6484375,13.18359375,0.0,0,0
1766593616.277854,1766593616.2162614,-1000.0,-142.578125,-132.32421875,-61.5234375,0.0,0,0
1766593616.2778912,1766593616.2201562,-187.98828125,-102.05078125,64.453125,-13.18359375,0.0,0,0
1766593616.2779279,1766593616.2240512,-930.6640625,28.80859375,200.1953125,65.4296875,0.0,0,0
1766593616.277965,1766593616.227946,819.3359375,59.5703125,72.265625,82.51953125,0.0,0,0
1766593616.2780008,1766593616.231841,-453.125,-70.80078125,-123.53515625,14.6484375,0.0,0,0
1766593616.278038,1766593616.235736,-1000.0,-165.0390625,-143.06640625,-51.7578125,0.0,0,0
1766593616.278075,1766593616.239631,-266.6015625,-136.71875,38.0859375,-39.0625,0.0,0,0
1766593616.278112,1766593616.2435257,998.046875,-13.671875,197.75390625,20.01953125,0.0,0,0
1766593616.2781482,1766593616.2474208,966.30859375,49.31640625,119.62890625,56.15234375,0.0,0,0
1766593616.320687,1766593616.251454,-215.33203125,-27.83203125,-91.796875,-7.8125,0.0,0,0
1766593616.3207932,1766593616.2553492,-1000.0,-151.85546875,-138.18359375,-72.75390625,0.0,0,0
1766593616.320844,1766593616.259244,-366.69921875,-161.1328125,34.66796875,-62.98828125,0.0,0,0
1766593616.320895,1766593616.263139,942.87109375,-21.97265625,193.84765625,-27.83203125,0.0,0,0
1766593616.320987,1766593616.267034,-996.09375,50.78125,134.765625,-19.53125,0.0,0,0
1766593616.3210628,1766593616.2709289,-109.375,4.8828125,-69.82421875,-76.171875,0.0,0,0
1766593616.3211179,1766593616.274824,-1000.0,-114.74609375,-136.23046875,-125.9765625,0.0,0,0
1766593616.321171,1766593616.2787187,-563.96484375,-117.1875,6.34765625,-135.7421875,0.0,0,0
1766593616.321225,1766593616.2826138,748.046875,-71.2890625,163.0859375,-110.3515625,0.0,0,0
1766593616.321265,1766593616.2865086,-865.234375,-47.36328125,127.9296875,-85.44921875,0.0,0,0
1766593616.3213031,1766593616.2904036,94.7265625,-23.92578125,-50.78125,-100.09765625,0.0,0,0
1766593616.3213398,1766593616.2942986,-1000.0,-131.8359375,-144.53125,-137.6953125,0.0,0,0
1766593616.3654761,1766593616.2983196,-779.78515625,-146.484375,-18.06640625,-154.296875,0.0,0,0
1766593616.365579,1766593616.3022144,513.671875,-3.41796875,161.62109375,-130.37109375,0.0,0,0
1766593616.3656461,1766593616.3061094,-816.40625,104.98046875,164.0625,-64.94140625,0.0,0,0
1766593616.365689,1766593616.3100045,153.3203125,48.33984375,-23.92578125,-54.19921875,0.0,0,0
1766593616.365728,1766593616.3138993,-1000.0,-32.71484375,-162.109375,-107.421875,0.0,0,0
1766593616.3657658,1766593616.3177943,-965.33203125,-67.3828125,-64.453125,-153.3203125,0.0,0,0
1766593616.3658051,1766593616.3216894,235.3515625,-17.578125,126.46484375,-116.69921875,0.0,0,0
1766593616.366176,1766593616.3255842,-791.9921875,101.07421875,153.3203125,-34.1796875,0.0,0,0
1766593616.366217,1766593616.3294792,236.81640625,30.2734375,-15.13671875,-13.18359375,0.0,0,0
1766593616.366254,1766593616.3333743,-1000.0,-55.17578125,-164.0625,-60.05859375,0.0,0,0
1766593616.366291,1766593616.337269,-1000.0,-69.3359375,-87.890625,-98.6328125,0.0,0,0
1766593616.366327,1766593616.341164,84.47265625,18.5546875,96.6796875,-54.19921875,0.0,0,0
1766593616.411838,1766593616.3451755,-806.15234375,182.6171875,133.30078125,21.484375,0.0,0,0
1766593616.411968,1766593616.3490705,365.234375,184.5703125,-10.7421875,57.6171875,0.0,0,0
1766593616.412027,1766593616.3529656,-919.921875,57.6171875,-161.1328125,37.109375,0.0,0,0
1766593616.412079,1766593616.3568606,-1000.0,-33.203125,-134.765625,-36.62109375,0.0,0,0
1766593616.412131,1766593616.3607554,-109.86328125,16.6015625,42.48046875,-4.39453125,0.0,0,0
1766593616.412183,1766593616.3646505,-846.6796875,154.78515625,135.25390625,111.328125,0.0,0,0
1766593616.412235,1766593616.3685455,533.203125,208.49609375,-9.765625,104.4921875,0.0,0,0
1766593616.412286,1766593616.3724406,-790.52734375,80.078125,-206.0546875,23.92578125,0.0,0,0
1766593616.4123368,1766593616.3763354,-1000.0,-43.45703125,-201.66015625,-25.390625,0.0,0,0
1766593616.412388,1766593616.3802304,-165.0390625,81.54296875,-26.3671875,-10.7421875,0.0,0,0
1766593616.412457,1766593616.3841255,-902.34375,230.95703125,66.40625,55.17578125,0.0,0,0
1766593616.4125261,1766593616.3880205,735.83984375,256.8359375,-42.48046875,88.8671875,0.0,0,0
1766593616.455905,1766593616.392022,-560.546875,158.203125,-208.49609375,49.8046875,0.0,0,0
1766593616.4560268,1766593616.395917,-1000.0,21.484375,-213.8671875,4.39453125,0.0,0,0
1766593616.4560661,1766593616.399812,-227.05078125,53.7109375,-45.8984375,11.71875,0.0,0,0
1766593616.4561112,1766593616.403707,-966.796875,198.73046875,71.77734375,64.453125,0.0,0,0
1766593616.4561632,1766593616.407602,901.3671875,248.53515625,-13.18359375,98.6328125,0.0,0,0
1766593616.456202,1766593616.4114969,-320.3125,162.59765625,-194.82421875,53.22265625,0.0,0,0
1766593616.456239,1766593616.415392,-1000.0,30.2734375,-233.88671875,-7.8125,0.0,0,0
1766593616.456276,1766593616.419287,-318.359375,12.20703125,-83.984375,-10.7421875,0.0,0,0
1766593616.4563131,1766593616.423182,960.9375,172.36328125,54.6875,32.71484375,0.0,0,0
1766593616.456349,1766593616.427077,-984.86328125,263.18359375,0.9765625,74.21875,0.0,0,0
1766593616.456396,1766593616.430972,-118.1640625,175.29296875,-167.48046875,57.6171875,0.0,0,0
1766593616.4564328,1766593616.434867,-1000.0,42.48046875,-217.28515625,7.32421875,0.0,0,0
1766593616.5305102,1766593616.4390297,-462.890625,45.8984375,-92.28515625,-21.97265625,0.0,0,0
1766593616.530627,1766593616.442925,839.35546875,184.5703125,49.8046875,22.94921875,0.0,0,0
1766593616.530668,1766593616.44682,-896.97265625,292.96875,33.203125,86.9140625,0.0,0,0
1766593616.530708,1766593616.450715,58.59375,217.7734375,-139.16015625,56.15234375,0.0,0,0
1766593616.5307462,1766593616.45461,-1000.0,66.40625,-242.1875,-16.11328125,0.0,0,0
1766593616.530783,1766593616.4585052,-612.79296875,38.57421875,-107.91015625,-16.11328125,0.0,0,0
1766593616.530821,1766593616.4624002,708.0078125,202.1484375,59.08203125,29.78515625,0.0,0,0
1766593616.530859,1766593616.4662952,-850.5859375,288.57421875,24.4140625,70.80078125,0.0,0,0
1766593616.530896,1766593616.4701903,144.53125,180.6640625,-122.0703125,69.3359375,0.0,0,0
1766593616.530933,1766593616.4740853,-1000.0,65.91796875,-209.47265625,0.48828125,0.0,0,0
1766593616.5309749,1766593616.4779804,-813.96484375,40.52734375,-113.76953125,-25.87890625,0.0,0,0
1766593616.531015,1766593616.4818754,473.6328125,149.90234375,46.875,19.04296875,0.0,0,0
1766593616.559933,1766593616.4858582,-811.03515625,261.71875,50.78125,63.4765625,0.0,0,0
1766593616.560033,1766593616.4897532,215.33203125,219.23828125,-78.61328125,67.3828125,0.0,0,0
1766593616.560087,1766593616.4936483,-1000.0,92.7734375,-193.84765625,9.27734375,0.0,0,0
1766593616.5601401,1766593616.4975433,-985.3515625,33.69140625,-130.859375,-31.25,0.0,0,0
1766593616.560193,1766593616.5014384,197.75390625,145.5078125,24.90234375,-3.90625,0.0,0,0
1766593616.560243,1766593616.5053334,-799.31640625,304.6875,70.3125,45.41015625,0.0,0,0
1766593616.560294,1766593616.5092285,302.24609375,286.1328125,-58.10546875,50.78125,0.0,0,0
1766593616.5603452,1766593616.5131235,-971.19140625,101.5625,-196.77734375,-0.9765625,0.0,0,0
1766593616.560396,1766593616.5170186,-1000.0,4.8828125,-144.53125,-56.15234375,0.0,0,0
1766593616.560458,1766593616.5209136,-16.11328125,119.62890625,11.71875,-34.1796875,0.0,0,0
1766593616.560508,1766593616.5248086,-825.1953125,249.51171875,65.91796875,23.4375,0.0,0,0
1766593616.5605671,1766593616.5287037,458.0078125,250.9765625,-37.59765625,38.0859375,0.0,0,0
1766593616.605726,1766593616.5327566,-850.5859375,125.9765625,-167.48046875,-0.9765625,0.0,0,0
1766593616.605833,1766593616.5366516,-1000.0,-0.9765625,-156.25,-49.8046875,0.0,0,0
1766593616.605887,1766593616.5405467,-145.5078125,73.2421875,-2.9296875,-41.015625,0.0,0,0
1766593616.605938,1766593616.5444417,-882.8125,248.53515625,65.91796875,7.8125,0.0,0,0
1766593616.605988,1766593616.5483367,669.921875,263.671875,-34.1796875,27.34375,0.0,0,0
1766593616.606039,1766593616.5522318,-640.13671875,99.12109375,-154.78515625,-10.7421875,0.0,0,0
1766593616.606092,1766593616.556127,-1000.0,5.859375,-158.203125,-66.40625,0.0,0,0
1766593616.6061492,1766593616.560022,-200.1953125,71.2890625,-31.73828125,-55.17578125,0.0,0,0
1766593616.606199,1766593616.5639172,-938.96484375,224.609375,77.1484375,8.30078125,0.0,0,0
1766593616.60625,1766593616.5678122,837.40234375,292.48046875,4.39453125,29.78515625,0.0,0,0
1766593616.606292,1766593616.5717072,-420.41015625,136.71875,-157.2265625,-14.6484375,0.0,0,0
1766593616.6063292,1766593616.5756025,-1000.0,1.46484375,-167.48046875,-66.40625,0.0,0,0
1766593616.651257,1766593616.579647,-272.4609375,71.77734375,-29.296875,-64.94140625,0.0,0,0
1766593616.6513972,1766593616.583542,986.81640625,205.56640625,76.66015625,-12.6953125,0.0,0,0
1766593616.6514401,1766593616.5874374,990.72265625,241.2109375,18.06640625,31.25,0.0,0,0
1766593616.651479,1766593616.5913324,-156.73828125,131.34765625,-134.27734375,12.20703125,0.0,0,0
1766593616.6515179,1766593616.5952275,-1000.0,7.8125,-163.0859375,-47.36328125,0.0,0,0
1766593616.651565,1766593616.5991228,-377.44140625,44.921875,-27.34375,-66.89453125,0.0,0,0
1766593616.651603,1766593616.6030178,910.15625,198.2421875,74.21875,-29.296875,0.0,0,0
1766593616.6516402,1766593616.6069129,-928.7109375,261.23046875,19.53125,16.6015625,0.0,0,0
1766593616.6516778,1766593616.610808,16.6015625,162.109375,-120.60546875,2.44140625,0.0,0,0
1766593616.651715,1766593616.6147032,-1000.0,-16.6015625,-176.7578125,-58.10546875,0.0,0,0
1766593616.651754,1766593616.6185982,-528.80859375,-18.06640625,-70.80078125,-69.3359375,0.0,0,0
1766593616.6518002,1766593616.6224933,803.22265625,150.390625,88.37890625,-9.27734375,0.0,0,0
1766593616.697036,1766593616.626526,-872.0703125,261.71875,80.56640625,38.57421875,0.0,0,0
1766593616.697196,1766593616.6304214,102.5390625,196.77734375,-87.890625,16.6015625,0.0,0,0
1766593616.6972532,1766593616.6343164,-1000.0,32.71484375,-175.29296875,-52.24609375,0.0,0,0
1766593616.6973062,1766593616.6382115,-788.57421875,-20.99609375,-77.1484375,-73.73046875,0.0,0,0
1766593616.697365,1766593616.6421068,502.44140625,104.4921875,66.40625,-33.69140625,0.0,0,0
1766593616.6974158,1766593616.6460018,-815.4296875,256.34765625,63.4765625,19.04296875,0.0,0,0
1766593616.6974678,1766593616.6498969,168.45703125,196.2890625,-74.70703125,21.484375,0.0,0,0
1766593616.697524,1766593616.6537921,-1000.0,-14.6484375,-173.33984375,-43.9453125,0.0,0,0
1766593616.6975832,1766593616.6576872,-941.40625,-92.7734375,-97.16796875,-80.078125,0.0,0,0
1766593616.697641,1766593616.6615825,274.90234375,39.55078125,68.359375,-33.203125,0.0,0,0
1766593616.697691,1766593616.6654775,-795.8984375,192.3828125,101.07421875,28.3203125,0.0,0,0
1766593616.697761,1766593616.6693726,252.9296875,169.921875,-48.828125,15.625,0.0,0,0
1766593616.740843,1766593616.6733932,-1000.0,25.87890625,-168.45703125,-43.45703125,0.0,0,0
1766593616.7409542,1766593616.6772883,-1000.0,-70.80078125,-101.5625,-76.171875,0.0,0,0
1766593616.741007,1766593616.6811836,41.015625,18.5546875,49.8046875,-51.7578125,0.0,0,0
1766593616.741045,1766593616.6850786,-810.05859375,193.359375,95.21484375,8.30078125,0.0,0,0
1766593616.7410822,1766593616.688974,375.9765625,166.015625,-22.94921875,20.99609375,0.0,0,0
1766593616.741123,1766593616.692869,-917.96875,20.99609375,-154.78515625,-40.0390625,0.0,0,0
1766593616.7411609,1766593616.6967642,-1000.0,-55.6640625,-131.34765625,-84.9609375,0.0,0,0
1766593616.741198,1766593616.7006593,-107.421875,11.71875,16.11328125,-59.08203125,0.0,0,0
1766593616.741235,1766593616.7045546,-855.46875,148.92578125,77.1484375,3.90625,0.0,0,0
1766593616.741272,1766593616.7084496,578.61328125,153.80859375,-11.71875,25.390625,0.0,0,0
1766593616.741309,1766593616.7123446,-744.140625,26.3671875,-141.11328125,-21.484375,0.0,0,0
1766593616.741354,1766593616.71624,-1000.0,-100.09765625,-134.765625,-62.98828125,0.0,0,0
1766593616.78579,1766593616.7202497,-172.8515625,-32.2265625,19.04296875,-50.78125,0.0,0,0
1766593616.785961,1766593616.724145,-912.59765625,146.484375,108.3984375,0.9765625,0.0,0,0
1766593616.786004,1766593616.72804,771.484375,183.59375,12.20703125,27.83203125,0.0,0,0
1766593616.786043,1766593616.7319353,-519.53125,41.015625,-141.6015625,-18.06640625,0.0,0,0
1766593616.78608,1766593616.7358303,-1000.0,-101.5625,-154.78515625,-76.171875,0.0,0,0
1766593616.786119,1766593616.7397256,-231.4453125,-42.48046875,-1.46484375,-63.96484375,0.0,0,0
1766593616.786158,1766593616.7436206,-976.5625,145.99609375,115.234375,-10.25390625,0.0,0,0
1766593616.786195,1766593616.747516,928.22265625,211.9140625,34.1796875,23.92578125,0.0,0,0
1766593616.78624,1766593616.751411,-276.85546875,56.640625,-125.0,-2.44140625,0.0,0,0
1766593616.786284,1766593616.7553062,-1000.0,-98.6328125,-149.90234375,-48.828125,0.0,0,0
1766593616.78632,1766593616.7592013,-335.9375,-77.63671875,-13.671875,-53.7109375,0.0,0,0
1766593616.7863638,1766593616.7630966,942.87109375,28.80859375,111.81640625,-1.953125,0.0,0,0
1766593616.8319721,1766593616.7671015,-957.51953125,127.9296875,49.31640625,40.0390625,0.0,0,0
1766593616.832119,1766593616.7709968,-60.05859375,58.10546875,-116.69921875,-0.48828125,0.0,0,0
1766593616.832163,1766593616.7748919,-1000.0,-89.35546875,-162.109375,-53.22265625,0.0,0,0
1766593616.832203,1766593616.7787871,-510.7421875,-82.03125,-43.9453125,-49.31640625,0.0,0,0
1766593616.8322408,1766593616.7826822,802.734375,44.43359375,80.56640625,1.953125,0.0,0,0
1766593616.832279,1766593616.7865775,-878.41796875,172.36328125,64.94140625,40.0390625,0.0,0,0
1766593616.832316,1766593616.7904727,84.47265625,90.33203125,-91.30859375,14.16015625,0.0,0,0
1766593616.832354,1766593616.7943678,-1000.0,-173.828125,-179.6875,-36.1328125,0.0,0,0
1766593616.832393,1766593616.798263,-682.6171875,-142.08984375,-61.5234375,-52.24609375,0.0,0,0
1766593616.832433,1766593616.802158,636.23046875,68.84765625,86.42578125,-15.13671875,0.0,0,0
1766593616.83247,1766593616.8060534,-836.42578125,153.80859375,72.265625,28.80859375,0.0,0,0
1766593616.8325062,1766593616.8099487,137.20703125,80.56640625,-72.265625,20.01953125,0.0,0,0
1766593616.88941,1766593616.8139365,-1000.0,-85.44921875,-167.48046875,-34.66796875,0.0,0,0
1766593616.889555,1766593616.8178318,-887.20703125,-111.81640625,-85.44921875,-66.40625,0.0,0,0
1766593616.889611,1766593616.821727,366.2109375,26.85546875,68.84765625,-24.90234375,0.0,0,0
1766593616.889662,1766593616.825622,-798.828125,146.484375,76.66015625,26.3671875,0.0,0,0
1766593616.8897128,1766593616.8295174,200.68359375,90.8203125,-59.08203125,14.6484375,0.0,0,0
1766593616.889766,1766593616.8334126,-1000.0,-30.76171875,-155.76171875,-39.55078125,0.0,0,0
1766593616.889817,1766593616.8373077,-1000.0,-118.1640625,-88.8671875,-70.80078125,0.0,0,0
1766593616.8898702,1766593616.841203,125.0,-63.4765625,48.33984375,-42.48046875,0.0,0,0
1766593616.88992,1766593616.8450983,-795.8984375,105.95703125,77.1484375,14.16015625,0.0,0,0
1766593616.889983,1766593616.8489933,304.19921875,109.86328125,-32.71484375,16.6015625,0.0,0,0
1766593616.8900359,1766593616.8528886,-964.84375,-28.80859375,-156.25,-36.62109375,0.0,0,0
1766593616.890094,1766593616.8567839,-1000.0,-112.79296875,-112.3046875,-74.21875,0.0,0,0
1766593616.9343832,1766593616.8607612,-76.171875,-38.0859375,34.1796875,-49.31640625,0.0,0,0
