timestamp,lsl_timestamp,TP9,AF7,AF8,TP10,Right AUX,keypress_A,keypress_B
1766593539.971282,1766593539.9055243,424.8046875,26.85546875,-17.578125,25.87890625,0.0,0,0
1766593539.971405,1766593539.909419,-862.3046875,-78.125,-60.546875,-52.24609375,0.0,0,0
1766593539.971427,1766593539.913314,-1000.0,-115.72265625,-20.5078125,-54.6875,0.0,0,0
1766593539.971445,1766593539.917209,-180.17578125,-5.37109375,20.5078125,3.41796875,0.0,0,0
1766593539.9714618,1766593539.921104,-882.32421875,28.3203125,28.80859375,15.625,0.0,0,0
1766593539.971479,1766593539.924999,552.24609375,-38.57421875,-24.90234375,-2.9296875,0.0,0,0
1766593539.9714959,1766593539.9288938,-751.46484375,-41.015625,-83.984375,-64.453125,0.0,0,0
1766593539.971512,1766593539.9327888,-1000.0,-72.265625,-68.84765625,-130.37109375,0.0,0,0
1766593539.971528,1766593539.9366837,-268.06640625,-75.68359375,-7.8125,-82.51953125,0.0,0,0
1766593539.971545,1766593539.9405787,999.0234375,27.83203125,33.69140625,6.8359375,0.0,0,0
1766593539.971562,1766593539.9444737,759.27734375,47.8515625,-7.8125,44.43359375,0.0,0,0
1766593539.9715781,1766593539.9483685,-509.27734375,-28.3203125,-82.03125,-0.9765625,0.0,0,0
1766593540.019104,1766593539.9523828,-1000.0,-66.40625,-86.9140625,-68.359375,0.0,0,0
1766593540.019208,1766593539.9562778,-431.15234375,-35.64453125,0.9765625,-25.87890625,0.0,0,0
1766593540.019253,1766593539.9601727,899.4140625,30.76171875,49.31640625,29.296875,0.0,0,0
1766593540.0192919,1766593539.9640677,930.6640625,26.85546875,34.1796875,22.4609375,0.0,0,0
1766593540.01933,1766593539.9679627,-287.59765625,-25.87890625,-29.78515625,9.27734375,0.0,0,0
1766593540.019369,1766593539.9718575,-1000.0,-47.36328125,-60.546875,-41.9921875,0.0,0,0
1766593540.019407,1766593539.9757526,-596.19140625,-18.06640625,-6.8359375,-63.4765625,0.0,0,0
1766593540.019444,1766593539.9796476,713.37890625,21.97265625,27.83203125,-37.59765625,0.0,0,0
1766593540.0194812,1766593539.9835424,-962.40234375,57.6171875,-0.9765625,-3.90625,0.0,0,0
1766593540.01952,1766593539.9874375,-150.390625,35.15625,-37.59765625,10.25390625,0.0,0,0
1766593540.019556,1766593539.9913325,-1000.0,-6.34765625,-71.77734375,-42.48046875,0.0,0,0
1766593540.0195909,1766593539.9952273,-645.99609375,-16.6015625,-25.390625,-3.41796875,0.0,0,0
1766593540.062428,1766593539.999227,643.06640625,12.20703125,71.2890625,22.4609375,0.0,0,0
1766593540.0625489,1766593540.003122,-895.99609375,37.109375,52.24609375,12.6953125,0.0,0,0
1766593540.062591,1766593540.0070171,-51.26953125,4.39453125,-53.22265625,-47.36328125,0.0,0,0
1766593540.06263,1766593540.0109122,-1000.0,-25.390625,-116.69921875,-88.37890625,0.0,0,0
1766593540.062668,1766593540.014807,-831.54296875,-7.8125,-39.55078125,-11.23046875,0.0,0,0
1766593540.0627048,1766593540.018702,356.4453125,64.94140625,43.9453125,4.8828125,0.0,0,0
1766593540.062742,1766593540.022597,-845.21484375,147.4609375,51.26953125,12.6953125,0.0,0,0
1766593540.062779,1766593540.026492,52.734375,99.12109375,-39.0625,11.23046875,0.0,0,0
1766593540.062818,1766593540.030387,-1000.0,40.0390625,-81.0546875,-43.9453125,0.0,0,0
1766593540.062857,1766593540.034282,-929.19921875,47.8515625,6.34765625,-52.734375,0.0,0,0
1766593540.062892,1766593540.038177,194.3359375,27.83203125,55.6640625,-39.0625,0.0,0,0
1766593540.062928,1766593540.042072,-810.546875,75.68359375,46.38671875,-10.25390625,0.0,0,0
1766593540.121956,1766593540.0460606,262.6953125,110.83984375,-17.578125,14.6484375,0.0,0,0
1766593540.122112,1766593540.0499556,-1000.0,67.87109375,-62.01171875,-4.8828125,0.0,0,0
1766593540.1222389,1766593540.0538504,-1000.0,109.86328125,-20.01953125,-118.1640625,0.0,0,0
1766593540.122321,1766593540.0577455,38.57421875,205.078125,33.203125,-78.61328125,0.0,0,0
1766593540.122435,1766593540.0616405,-807.12890625,219.7265625,25.87890625,45.8984375,0.0,0,0
1766593540.1224902,1766593540.0655355,258.30078125,205.078125,-8.7890625,-49.31640625,0.0,0,0
1766593540.1225421,1766593540.0694306,-997.55859375,135.25390625,-56.15234375,-156.25,0.0,0,0
1766593540.12264,1766593540.0733256,-1000.0,121.09375,-60.546875,-160.64453125,0.0,0,0
1766593540.122689,1766593540.0772204,-72.75390625,266.11328125,13.18359375,-89.84375,0.0,0,0
1766593540.1227489,1766593540.0811155,-819.82421875,359.86328125,42.48046875,-70.3125,0.0,0,0
1766593540.1227992,1766593540.0850105,376.46484375,327.1484375,-22.94921875,-163.0859375,0.0,0,0
1766593540.1228511,1766593540.0889056,-910.15625,268.5546875,-108.3984375,-198.73046875,0.0,0,0
1766593540.1823502,1766593540.0930579,-1000.0,288.0859375,-110.3515625,-147.4609375,0.0,0,0
1766593540.182446,1766593540.096953,-182.12890625,395.01953125,-15.13671875,-125.9765625,0.0,0,0
1766593540.18249,1766593540.100848,-855.46875,443.359375,35.15625,-103.02734375,0.0,0,0
1766593540.182529,1766593540.104743,511.23046875,452.63671875,-50.78125,-126.46484375,0.0,0,0
1766593540.182608,1766593540.108638,-797.36328125,435.05859375,-109.86328125,-242.67578125,0.0,0,0
1766593540.1826508,1766593540.112533,-1000.0,374.0234375,-54.6875,-289.55078125,0.0,0,0
1766593540.182688,1766593540.1164281,-267.578125,437.5,-57.12890625,-257.32421875,0.0,0,0
1766593540.1827252,1766593540.120323,-914.55078125,579.58984375,-45.8984375,-277.34375,0.0,0,0
1766593540.182761,1766593540.124218,657.2265625,563.96484375,-43.45703125,-323.73046875,0.0,0,0
1766593540.182799,1766593540.128113,-648.4375,494.140625,-136.71875,-290.0390625,0.0,0,0
1766593540.1828349,1766593540.132008,-1000.0,445.3125,-129.39453125,-307.6171875,0.0,0,0
1766593540.1828742,1766593540.1359031,-347.16796875,437.5,-54.6875,-352.5390625,0.0,0,0
1766593540.2132962,1766593540.1399624,-991.2109375,506.34765625,49.31640625,-204.1015625,0.0,0,0
1766593540.213412,1766593540.1438575,838.8671875,595.21484375,8.30078125,-121.09375,0.0,0,0
1766593540.21347,1766593540.1477525,-450.1953125,597.65625,-134.27734375,-172.8515625,0.0,0,0
1766593540.2135239,1766593540.1516478,-1000.0,458.0078125,-146.97265625,-230.46875,0.0,0,0
1766593540.2135758,1766593540.1555429,-431.640625,469.23828125,-83.49609375,-246.09375,0.0,0,0
1766593540.2136362,1766593540.159438,866.69921875,610.83984375,-22.4609375,-151.85546875,0.0,0,0
1766593540.2136881,1766593540.163333,-949.70703125,623.046875,-57.12890625,-100.09765625,0.0,0,0
1766593540.213739,1766593540.167228,-90.33203125,587.40234375,-134.765625,-110.3515625,0.0,0,0
1766593540.213789,1766593540.171123,-1000.0,583.984375,-148.4375,-148.92578125,0.0,0,0
1766593540.2138398,1766593540.175018,-571.2890625,531.73828125,-86.9140625,-131.8359375,0.0,0,0
1766593540.21389,1766593540.178913,733.3984375,499.51171875,-32.2265625,-15.625,0.0,0,0
1766593540.2139578,1766593540.1828082,-862.79296875,528.80859375,-62.01171875,66.40625,0.0,0,0
1766593540.257355,1766593540.18685,89.84375,556.15234375,-104.4921875,1.953125,0.0,0,0
1766593540.257469,1766593540.1907454,-1000.0,414.55078125,-135.25390625,-20.99609375,0.0,0,0
1766593540.2575119,1766593540.1946404,-703.61328125,369.140625,-60.546875,-76.171875,0.0,0,0
1766593540.25755,1766593540.1985354,593.26171875,518.5546875,33.69140625,-121.09375,0.0,0,0
1766593540.257591,1766593540.2024305,-828.61328125,604.98046875,-38.0859375,145.99609375,0.0,0,0
1766593540.257629,1766593540.2063255,181.15234375,544.921875,-137.20703125,125.0,0.0,0,0
1766593540.257664,1766593540.2102208,-1000.0,371.58203125,-160.15625,-9.765625,0.0,0,0
1766593540.2577002,1766593540.2141159,-832.51953125,330.56640625,-136.23046875,-19.04296875,0.0,0,0
1766593540.257741,1766593540.218011,454.58984375,369.62890625,-60.546875,95.21484375,0.0,0,0
1766593540.257795,1766593540.221906,-809.08203125,435.05859375,-2.44140625,138.18359375,0.0,0,0
1766593540.257835,1766593540.2258012,277.34375,493.65234375,-56.15234375,67.87109375,0.0,0,0
1766593540.257887,1766593540.2296963,-1000.0,365.72265625,-99.12109375,50.78125,0.0,0,0
1766593540.3027918,1766593540.2337255,-979.98046875,330.078125,-64.453125,67.3828125,0.0,0,0
1766593540.3028858,1766593540.2376206,237.79296875,436.03515625,-7.32421875,62.98828125,0.0,0,0
1766593540.3029382,1766593540.2415159,-808.10546875,448.2421875,18.06640625,83.984375,0.0,0,0
1766593540.3029902,1766593540.245411,379.39453125,368.65234375,-81.0546875,79.1015625,0.0,0,0
1766593540.3051991,1766593540.249306,-918.9453125,237.3046875,-170.8984375,40.52734375,0.0,0,0
1766593540.3052568,1766593540.2532012,-1000.0,188.96484375,-89.84375,107.91015625,0.0,0,0
1766593540.305297,1766593540.2570963,37.109375,333.0078125,37.109375,116.69921875,0.0,0,0
1766593540.305336,1766593540.2609913,-839.35546875,417.96875,72.265625,79.1015625,0.0,0,0
1766593540.3053749,1766593540.2648864,543.9453125,340.33203125,-24.4140625,64.94140625,0.0,0,0
1766593540.305412,1766593540.2687817,-753.90625,262.6953125,-60.05859375,82.03125,0.0,0,0
1766593540.3054478,1766593540.2726767,-1000.0,246.58203125,-47.36328125,82.51953125,0.0,0,0
1766593540.305484,1766593540.2765718,-152.34375,295.8984375,-54.6875,41.015625,0.0,0,0
1766593540.347179,1766593540.2805912,-888.671875,328.61328125,-10.25390625,40.0390625,0.0,0,0
1766593540.347287,1766593540.2844863,708.984375,327.1484375,-11.23046875,37.109375,0.0,0,0
1766593540.347326,1766593540.2883813,-597.65625,261.23046875,-39.55078125,20.01953125,0.0,0,0
1766593540.347363,1766593540.2922766,-1000.0,229.00390625,-77.1484375,0.9765625,0.0,0,0
1766593540.347404,1766593540.2961717,-183.59375,253.90625,-64.94140625,13.671875,0.0,0,0
1766593540.3474402,1766593540.300067,-932.6171875,252.9296875,26.85546875,52.24609375,0.0,0,0
1766593540.347477,1766593540.303962,842.28515625,308.59375,30.76171875,58.10546875,0.0,0,0
1766593540.3475142,1766593540.307857,-406.25,263.671875,-58.59375,19.53125,0.0,0,0
1766593540.347549,1766593540.3117523,-1000.0,185.546875,-105.46875,-19.04296875,0.0,0,0
1766593540.347587,1766593540.3156474,-250.48828125,257.8125,-9.27734375,21.484375,0.0,0,0
1766593540.347622,1766593540.3195426,996.09375,284.1796875,96.6796875,104.00390625,0.0,0,0
1766593540.347658,1766593540.3234377,995.60546875,313.96484375,27.34375,94.23828125,0.0,0,0
1766593540.3916721,1766593540.3274376,-128.90625,263.18359375,-64.94140625,41.50390625,0.0,0,0
1766593540.391816,1766593540.3313327,-1000.0,175.29296875,-86.42578125,18.06640625,0.0,0,0
1766593540.391849,1766593540.3352277,-354.00390625,198.2421875,-11.71875,45.41015625,0.0,0,0
1766593540.39188,1766593540.339123,926.7578125,245.60546875,91.796875,120.1171875,0.0,0,0
1766593540.3919091,1766593540.343018,-928.22265625,300.29296875,58.10546875,158.69140625,0.0,0,0
1766593540.3919392,1766593540.3469133,29.296875,278.3203125,-35.15625,158.69140625,0.0,0,0
1766593540.391968,1766593540.3508084,-1000.0,202.1484375,-49.8046875,111.81640625,0.0,0,0
1766593540.3919969,1766593540.3547037,-533.69140625,166.015625,-11.71875,46.875,0.0,0,0
1766593540.392024,1766593540.3585987,781.25,196.77734375,75.1953125,62.5,0.0,0,0
1766593540.392053,1766593540.362494,-865.72265625,269.53125,3.41796875,100.09765625,0.0,0,0
1766593540.3920808,1766593540.366389,125.9765625,247.0703125,-105.95703125,93.26171875,0.0,0,0
1766593540.39211,1766593540.3702843,-1000.0,143.06640625,-79.1015625,38.57421875,0.0,0,0
1766593540.437004,1766593540.3742795,-725.09765625,155.2734375,-24.90234375,24.90234375,0.0,0,0
1766593540.437155,1766593540.3781745,582.03125,235.3515625,60.546875,58.10546875,0.0,0,0
1766593540.437197,1766593540.3820698,-824.21875,249.0234375,43.45703125,48.33984375,0.0,0,0
1766593540.437236,1766593540.3859649,188.96484375,185.546875,-49.8046875,-32.71484375,0.0,0,0
1766593540.4372742,1766593540.3898602,-1000.0,63.96484375,-126.46484375,-117.67578125,0.0,0,0
1766593540.4373171,1766593540.3937552,-838.8671875,65.4296875,-97.16796875,-101.5625,0.0,0,0
1766593540.437354,1766593540.3976505,416.015625,178.7109375,17.08984375,-20.01953125,0.0,0,0
1766593540.437391,1766593540.4015455,-811.03515625,219.23828125,38.57421875,36.62109375,0.0,0,0
1766593540.437428,1766593540.4054408,259.27734375,183.59375,-41.50390625,39.55078125,0.0,0,0
1766593540.437485,1766593540.4093359,-1000.0,97.65625,-107.91015625,3.90625,0.0,0,0
1766593540.437521,1766593540.4132311,-1000.0,84.47265625,-57.12890625,4.8828125,0.0,0,0
1766593540.437556,1766593540.4171264,77.63671875,133.30078125,-2.9296875,29.78515625,0.0,0,0
1766593540.496285,1766593540.421113,-830.078125,218.75,32.2265625,67.87109375,0.0,0,0
1766593540.4964411,1766593540.425008,489.74609375,194.82421875,6.8359375,78.125,0.0,0,0
1766593540.4964979,1766593540.4289033,-822.265625,84.47265625,-74.21875,17.08984375,0.0,0,0
1766593540.496552,1766593540.4327984,-1000.0,47.8515625,-60.05859375,-18.06640625,0.0,0,0
1766593540.4966028,1766593540.4366937,-64.94140625,55.17578125,14.16015625,-17.578125,0.0,0,0
1766593540.496655,1766593540.440589,-855.95703125,164.55078125,67.3828125,6.34765625,0.0,0,0
1766593540.496706,1766593540.444484,587.890625,177.734375,3.90625,12.20703125,0.0,0,0
1766593540.4967601,1766593540.4483793,-722.65625,78.125,-92.7734375,-41.50390625,0.0,0,0
1766593540.496809,1766593540.4522743,-1000.0,41.015625,-81.54296875,-66.89453125,0.0,0,0
1766593540.496882,1766593540.4561696,-134.27734375,78.125,20.01953125,-29.78515625,0.0,0,0
1766593540.496931,1766593540.460065,-910.15625,167.96875,83.984375,45.8984375,0.0,0,0
1766593540.496991,1766593540.46396,794.921875,209.9609375,4.8828125,38.0859375,0.0,0,0
1766593540.541619,1766593540.4679325,-467.28515625,125.48828125,-113.76953125,-38.0859375,0.0,0,0
1766593540.5417962,1766593540.4718277,-1000.0,24.90234375,-99.12109375,-68.84765625,0.0,0,0
1766593540.541854,1766593540.475723,-219.23828125,48.33984375,-12.20703125,-42.96875,0.0,0,0
1766593540.5419068,1766593540.479618,-969.7265625,126.46484375,25.87890625,48.828125,0.0,0,0
1766593540.5419579,1766593540.4835134,926.7578125,135.25390625,-31.25,85.44921875,0.0,0,0
1766593540.542015,1766593540.4874086,-254.8828125,59.08203125,-67.3828125,38.0859375,0.0,0,0
1766593540.5420659,1766593540.4913037,-1000.0,10.7421875,-67.3828125,-53.7109375,0.0,0,0
1766593540.542102,1766593540.495199,-355.95703125,16.6015625,-52.734375,-82.03125,0.0,0,0
1766593540.5421388,1766593540.4990942,926.7578125,126.46484375,15.625,1.953125,0.0,0,0
1766593540.542221,1766593540.5029893,-941.40625,173.33984375,31.25,42.48046875,0.0,0,0
1766593540.5422661,1766593540.5068846,-22.4609375,91.30859375,-36.62109375,-10.7421875,0.0,0,0
1766593540.542305,1766593540.5107796,-1000.0,25.87890625,-94.23828125,-92.28515625,0.0,0,0
1766593540.586886,1766593540.5148275,-458.984375,47.36328125,-37.59765625,-69.82421875,0.0,0,0
1766593540.587061,1766593540.5187228,847.65625,122.55859375,44.43359375,24.4140625,0.0,0,0
1766593540.587117,1766593540.5226178,-889.6484375,171.875,24.90234375,52.734375,0.0,0,0
1766593540.587168,1766593540.526513,82.03125,69.3359375,-84.9609375,-20.5078125,0.0,0,0
1766593540.587216,1766593540.5304084,-1000.0,-34.66796875,-157.71484375,-94.23828125,0.0,0,0
1766593540.587265,1766593540.5343037,-627.44140625,-2.9296875,-83.0078125,-87.890625,0.0,0,0
1766593540.587313,1766593540.5381987,687.01171875,55.17578125,37.59765625,-22.94921875,0.0,0,0
1766593540.587371,1766593540.542094,-845.21484375,123.53515625,33.203125,20.99609375,0.0,0,0
1766593540.5874188,1766593540.5459893,146.484375,116.69921875,-78.125,-32.2265625,0.0,0,0
1766593540.5875,1766593540.5498846,-1000.0,-10.7421875,-167.48046875,-118.1640625,0.0,0,0
1766593540.587546,1766593540.5537796,-785.64453125,-28.80859375,-106.4453125,-127.44140625,0.0,0,0
1766593540.587619,1766593540.557675,500.48828125,55.6640625,-6.8359375,-52.734375,0.0,0,0
1766593540.6319702,1766593540.5617118,-812.98828125,84.9609375,6.34765625,7.32421875,0.0,0,0
1766593540.632123,1766593540.565607,252.44140625,94.7265625,-45.8984375,-0.9765625,0.0,0,0
1766593540.6321669,1766593540.5695024,-1000.0,46.875,-91.30859375,-50.78125,0.0,0,0
1766593540.6322072,1766593540.5733976,-989.74609375,0.0,-52.24609375,-52.24609375,0.0,0,0
1766593540.632245,1766593540.577293,192.87109375,42.96875,20.99609375,2.9296875,0.0,0,0
1766593540.632282,1766593540.581188,-804.6875,122.0703125,56.15234375,45.41015625,0.0,0,0
1766593540.63232,1766593540.5850832,341.796875,116.2109375,-11.71875,57.12890625,0.0,0,0
1766593540.6323562,1766593540.5889785,-956.0546875,15.13671875,-104.00390625,27.34375,0.0,0,0
1766593540.632392,1766593540.5928738,-1000.0,-47.8515625,-78.125,-20.99609375,0.0,0,0
1766593540.6324348,1766593540.596769,38.57421875,-21.484375,10.25390625,-17.578125,0.0,0,0
1766593540.633051,1766593540.6006644,-833.0078125,101.07421875,60.05859375,38.57421875,0.0,0,0
1766593540.633093,1766593540.6045597,506.34765625,117.1875,-6.8359375,40.52734375,0.0,0,0
1766593540.691048,1766593540.6085885,-802.734375,5.37109375,-114.2578125,-48.33984375,0.0,0,0
1766593540.691256,1766593540.6124837,-1000.0,-54.19921875,-130.859375,-77.1484375,0.0,0,0
1766593540.691329,1766593540.616379,-86.9140625,9.765625,-72.265625,-20.99609375,0.0,0,0
1766593540.691398,1766593540.6202743,-884.27734375,105.95703125,30.2734375,27.34375,0.0,0,0
1766593540.691463,1766593540.6241696,719.23828125,110.83984375,15.13671875,33.203125,0.0,0,0
1766593540.691533,1766593540.6280649,-567.3828125,34.1796875,-77.63671875,10.25390625,0.0,0,0
1766593540.691596,1766593540.6319602,-1000.0,-36.1328125,-79.58984375,-15.625,0.0,0,0
1766593540.691672,1766593540.6358554,-180.6640625,-18.06640625,24.4140625,-2.44140625,0.0,0,0
1766593540.691734,1766593540.6397507,-948.73046875,80.56640625,85.9375,50.29296875,0.0,0,0
1766593540.691832,1766593540.643646,896.484375,128.41796875,-13.18359375,39.0625,0.0,0,0
1766593540.691892,1766593540.6475413,-320.3125,45.41015625,-132.8125,-41.50390625,0.0,0,0
1766593540.6919732,1766593540.6514366,-1000.0,-48.828125,-131.8359375,-93.75,0.0,0,0
1766593540.722495,1766593540.6554487,-246.09375,-23.4375,-44.921875,-69.82421875,0.0,0,0
1766593540.722602,1766593540.659344,991.2109375,53.7109375,28.3203125,-8.7890625,0.0,0,0
1766593540.722659,1766593540.6632392,-982.421875,76.171875,18.06640625,36.1328125,0.0,0,0
1766593540.722711,1766593540.6671345,-72.75390625,41.9921875,-90.33203125,17.578125,0.0,0,0
1766593540.7227619,1766593540.6710298,-1000.0,-37.59765625,-147.4609375,-25.87890625,0.0,0,0
1766593540.7228532,1766593540.674925,-342.7734375,-36.1328125,-41.9921875,-32.2265625,0.0,0,0
1766593540.722941,1766593540.6788204,934.08203125,77.1484375,57.12890625,5.37109375,0.0,0,0
1766593540.722999,1766593540.6827157,-918.45703125,121.58203125,-3.41796875,25.87890625,0.0,0,0
1766593540.723053,1766593540.686611,65.4296875,28.80859375,-113.76953125,21.484375,0.0,0,0
1766593540.7231061,1766593540.6905062,-1000.0,-50.29296875,-125.9765625,0.48828125,0.0,0,0
1766593540.7231581,1766593540.6944015,-500.9765625,-40.0390625,-23.4375,-38.0859375,0.0,0,0
1766593540.723218,1766593540.6982968,812.5,33.69140625,68.84765625,-12.6953125,0.0,0,0
1766593540.781632,1766593540.7023842,-870.60546875,83.0078125,12.6953125,5.859375,0.0,0,0
1766593540.781738,1766593540.7062795,141.6015625,51.26953125,-70.3125,-21.97265625,0.0,0,0
1766593540.781793,1766593540.7101748,-1000.0,-35.15625,-92.28515625,-48.33984375,0.0,0,0
1766593540.781844,1766593540.71407,-736.328125,-60.546875,-46.38671875,-52.24609375,0.0,0,0
1766593540.781894,1766593540.7179654,568.359375,20.01953125,33.203125,-6.34765625,0.0,0,0
1766593540.781945,1766593540.721861,-822.265625,78.61328125,19.04296875,35.15625,0.0,0,0
1766593540.7819939,1766593540.7257562,183.10546875,47.8515625,-65.91796875,14.6484375,0.0,0,0
1766593540.782047,1766593540.7296515,-1000.0,-55.17578125,-117.67578125,-33.203125,0.0,0,0
1766593540.782103,1766593540.7335467,-929.19921875,-79.58984375,-81.0546875,-67.3828125,0.0,0,0
1766593540.782154,1766593540.737442,284.1796875,1.953125,8.7890625,-50.78125,0.0,0,0
1766593540.78219,1766593540.7413373,-800.29296875,67.87109375,43.45703125,41.9921875,0.0,0,0
1766593540.7822258,1766593540.7452326,307.6171875,28.80859375,-7.32421875,69.3359375,0.0,0,0
1766593540.812116,1766593540.7492232,-981.4453125,-32.2265625,-87.40234375,-14.6484375,0.0,0,0
1766593540.812263,1766593540.7531185,-1000.0,-58.59375,-83.984375,-51.7578125,0.0,0,0
1766593540.8123488,1766593540.7570138,80.078125,36.1328125,22.4609375,-7.32421875,0.0,0,0
1766593540.8124218,1766593540.760909,-807.12890625,125.9765625,63.96484375,37.109375,0.0,0,0
1766593540.8124878,1766593540.7648046,382.32421875,70.3125,-34.1796875,13.18359375,0.0,0,0
1766593540.812551,1766593540.7687,-916.50390625,-18.5546875,-132.8125,-52.24609375,0.0,0,0
1766593540.812597,1766593540.7725952,-1000.0,-50.29296875,-112.79296875,-86.42578125,0.0,0,0
1766593540.812644,1766593540.7764904,-63.4765625,-10.7421875,-1.46484375,-47.36328125,0.0,0,0
1766593540.812691,1766593540.780386,-866.2109375,60.05859375,49.8046875,4.8828125,0.0,0,0
1766593540.812765,1766593540.7842813,649.4140625,67.87109375,-0.48828125,32.71484375,0.0,0,0
1766593540.812829,1766593540.7881765,-654.296875,15.13671875,-70.80078125,25.390625,0.0,0,0
1766593540.812887,1766593540.7920718,-1000.0,-41.9921875,-87.890625,0.9765625,0.0,0,0
1766593540.87011,1766593540.796053,-145.5078125,-20.01953125,0.9765625,8.7890625,0.0,0,0
1766593540.870257,1766593540.7999482,-912.59765625,58.10546875,55.17578125,43.9453125,0.0,0,0
1766593540.870327,1766593540.8038435,805.17578125,60.546875,17.578125,58.59375,0.0,0,0
1766593540.870393,1766593540.8077388,-465.8203125,12.20703125,-50.29296875,31.25,0.0,0,0
1766593540.8704581,1766593540.8116343,-1000.0,-62.01171875,-85.44921875,-17.578125,0.0,0,0
1766593540.8705332,1766593540.8155296,-202.63671875,-47.8515625,10.7421875,-28.3203125,0.0,0,0
1766593540.8705978,1766593540.8194249,-968.75,54.19921875,77.1484375,15.13671875,0.0,0,0
1766593540.870661,1766593540.8233204,940.91796875,69.3359375,-17.578125,37.59765625,0.0,0,0
1766593540.8707242,1766593540.8272157,-229.98046875,14.6484375,-116.69921875,26.85546875,0.0,0,0
1766593540.8708239,1766593540.831111,-1000.0,-37.109375,-111.81640625,-13.18359375,0.0,0,0
1766593540.8708868,1766593540.8350062,-305.6640625,-26.3671875,-3.90625,-31.25,0.0,0,0
1766593540.870956,1766593540.8389018,962.40234375,41.015625,101.5625,16.6015625,0.0,0,0
1766593540.9166641,1766593540.8428702,-959.47265625,78.61328125,43.45703125,41.9921875,0.0,0,0
1766593540.9168398,1766593540.8467655,-38.0859375,29.78515625,-94.23828125,-9.27734375,0.0,0,0
1766593540.9169111,1766593540.8506608,-1000.0,-38.57421875,-107.421875,-62.5,0.0,0,0
1766593540.9169888,1766593540.8545563,-515.625,-47.36328125,-7.32421875,-52.24609375,0.0,0,0
1766593540.917054,1766593540.8584516,788.0859375,20.99609375,39.55078125,11.23046875,0.0,0,0
1766593540.917133,1766593540.862347,-868.65234375,89.35546875,-0.9765625,72.265625,0.0,0,0
1766593540.917197,1766593540.8662424,122.0703125,24.4140625,-54.19921875,45.8984375,0.0,0,0
1766593540.917268,1766593540.8701377,-1000.0,-77.63671875,-71.77734375,-31.25,0.0,0,0
1766593540.917347,1766593540.874033,-609.375,-72.265625,0.0,-32.71484375,0.0,0,0
1766593540.917435,1766593540.8779285,712.890625,-20.99609375,63.96484375,20.99609375,0.0,0,0
1766593540.917498,1766593540.8818238,-846.6796875,57.6171875,42.96875,58.10546875,0.0,0,0
1766593540.9175968,1766593540.885719,164.0625,76.66015625,-51.7578125,26.85546875,0.0,0,0
1766593540.962386,1766593540.8897686,-1000.0,-48.828125,-106.4453125,-68.359375,0.0,0,0
1766593540.962483,1766593540.8936641,-815.91796875,-77.63671875,-39.0625,-112.3046875,0.0,0,0
1766593540.962523,1766593540.8975594,465.33203125,-30.2734375,58.10546875,-75.68359375,0.0,0,0
1766593540.9625652,1766593540.9014547,-808.59375,-6.34765625,47.8515625,-32.2265625,0.0,0,0
1766593540.962602,1766593540.9053502,231.4453125,8.7890625,-44.43359375,-30.76171875,0.0,0,0
1766593540.9626398,1766593540.9092455,-1000.0,-15.13671875,-109.375,-36.62109375,0.0,0,0
1766593540.9626749,1766593540.913141,-996.09375,-27.34375,-76.171875,-17.08984375,0.0,0,0
1766593540.962713,1766593540.9170363,165.52734375,-42.96875,13.18359375,-15.625,0.0,0,0
1766593540.962749,1766593540.9209318,-802.24609375,16.11328125,18.5546875,-42.48046875,0.0,0,0
1766593540.962785,1766593540.924827,324.70703125,9.27734375,-66.89453125,-89.35546875,0.0,0,0
1766593540.962821,1766593540.9287224,-955.078125,-87.40234375,-138.18359375,-123.53515625,0.0,0,0
1766593540.962857,1766593540.932618,-1000.0,-86.9140625,-94.23828125,-126.953125,0.0,0,0
1766593541.006794,1766593540.936652,-43.9453125,-11.71875,-31.73828125,-77.63671875,0.0,0,0
1766593541.006919,1766593540.9405475,-839.35546875,56.15234375,-13.18359375,15.625,0.0,0,0
1766593541.0069609,1766593540.9444427,535.15625,35.15625,-29.296875,42.48046875,0.0,0,0
1766593541.0074298,1766593540.9483383,-781.73828125,-43.9453125,-104.98046875,-20.5078125,0.0,0,0
1766593541.007472,1766593540.9522336,-1000.0,-106.4453125,-83.984375,-76.171875,0.0,0,0
1766593541.007509,1766593540.956129,-130.859375,-58.10546875,38.0859375,-56.640625,0.0,0,0
1766593541.007547,1766593540.9600244,-882.8125,69.3359375,84.47265625,19.04296875,0.0,0,0
1766593541.007583,1766593540.9639199,697.265625,83.984375,18.5546875,47.8515625,0.0,0,0
1766593541.0076191,1766593540.9678152,-604.98046875,-47.36328125,-107.421875,-14.16015625,0.0,0,0
1766593541.0076559,1766593540.9717107,-1000.0,-83.984375,-108.3984375,-54.19921875,0.0,0,0
1766593541.007691,1766593540.975606,-194.82421875,-26.3671875,1.46484375,-17.578125,0.0,0,0
1766593541.0077271,1766593540.9795015,-955.078125,31.25,27.34375,30.2734375,0.0,0,0
1766593541.0818062,1766593540.9836946,900.390625,29.78515625,-20.5078125,26.85546875,0.0,0,0
1766593541.081999,1766593540.98759,-307.6171875,-50.78125,-79.58984375,-36.62109375,0.0,0,0
1766593541.0820742,1766593540.9914856,-1000.0,-74.70703125,-83.0078125,-97.16796875,0.0,0,0
1766593541.082123,1766593540.9953809,-296.875,-14.16015625,-32.2265625,-95.703125,0.0,0,0
1766593541.082171,1766593540.9992764,973.6328125,36.1328125,23.4375,-36.1328125,0.0,0,0
1766593541.082218,1766593541.003172,-982.421875,72.265625,-6.34765625,6.34765625,0.0,0,0
1766593541.082264,1766593541.0070674,-102.5390625,16.11328125,-106.93359375,-23.4375,0.0,0,0
1766593541.08231,1766593541.0109627,-1000.0,-133.30078125,-118.65234375,-62.98828125,0.0,0,0
1766593541.0823941,1766593541.0148582,-399.4140625,-85.9375,-87.890625,-48.828125,0.0,0,0
1766593541.0824409,1766593541.0187538,897.94921875,92.28515625,-34.1796875,15.625,0.0,0,0
1766593541.082487,1766593541.022649,-916.50390625,114.74609375,20.99609375,41.9921875,0.0,0,0
1766593541.0825331,1766593541.0265446,25.87890625,-7.8125,-62.5,-23.92578125,0.0,0,0
1766593541.096999,1766593541.0305603,-1000.0,-124.0234375,-139.6484375,-91.796875,0.0,0,0
1766593541.0970979,1766593541.0344558,-650.390625,-127.44140625,-87.890625,-90.8203125,0.0,0,0
1766593541.097156,1766593541.0383513,661.1328125,-40.0390625,21.97265625,-49.8046875,0.0,0,0
1766593541.097208,1766593541.0422468,-844.7265625,38.57421875,47.8515625,5.859375,0.0,0,0
1766593541.09726,1766593541.046142,103.515625,6.34765625,-58.10546875,-10.7421875,0.0,0,0
1766593541.09731,1766593541.0500376,-1000.0,-74.70703125,-136.71875,-76.66015625,0.0,0,0
1766593541.097365,1766593541.0539331,-790.52734375,-72.75390625,-52.24609375,-71.2890625,0.0,0,0
1766593541.097416,1766593541.0578287,494.62890625,4.8828125,25.87890625,-21.97265625,0.0,0,0
1766593541.0975401,1766593541.0617242,-811.5234375,47.8515625,6.34765625,47.36328125,0.0,0,0
1766593541.097582,1766593541.0656195,177.24609375,-3.90625,-53.7109375,31.25,0.0,0,0
1766593541.0976179,1766593541.069515,-1000.0,-47.36328125,-97.16796875,-40.0390625,0.0,0,0
1766593541.097654,1766593541.0734105,-952.63671875,-86.42578125,-54.6875,-62.98828125,0.0,0,0
1766593541.142186,1766593541.077413,228.515625,-50.29296875,30.76171875,-32.71484375,0.0,0,0
1766593541.142324,1766593541.0813086,-801.26953125,47.8515625,31.25,15.625,0.0,0,0
1766593541.1423612,1766593541.0852041,308.10546875,59.5703125,-89.84375,22.4609375,0.0,0,0
1766593541.142399,1766593541.0890996,-965.33203125,-85.9375,-188.4765625,-19.04296875,0.0,0,0
1766593541.142435,1766593541.092995,-1000.0,-159.1796875,-97.16796875,-44.921875,0.0,0,0
1766593541.142472,1766593541.0968904,-16.11328125,-22.94921875,23.4375,-51.7578125,0.0,0,0
1766593541.142508,1766593541.100786,-823.73046875,46.875,27.34375,-38.57421875,0.0,0,0
1766593541.1425438,1766593541.1046815,454.1015625,58.10546875,-23.4375,-25.87890625,0.0,0,0
1766593541.142591,1766593541.108577,-847.65625,9.27734375,-125.0,-86.42578125,0.0,0,0
1766593541.142627,1766593541.1124725,-1000.0,-105.95703125,-127.9296875,-155.2734375,0.0,0,0
1766593541.1426718,1766593541.116368,-149.4140625,-80.078125,-48.33984375,-112.79296875,0.0,0,0
1766593541.1427221,1766593541.1202633,-876.953125,0.48828125,-10.7421875,-11.23046875,0.0,0,0
1766593541.1866188,1766593541.1242528,654.78515625,-4.8828125,-21.97265625,0.9765625,0.0,0,0
1766593541.186744,1766593541.1281483,-653.80859375,-59.08203125,-107.91015625,-76.66015625,0.0,0,0
1766593541.186804,1766593541.1320438,-1000.0,-134.27734375,-137.20703125,-115.234375,0.0,0,0
1766593541.186856,1766593541.1359394,-193.359375,-109.375,-76.171875,-59.5703125,0.0,0,0
1766593541.1869068,1766593541.139835,-936.5234375,4.39453125,0.0,10.7421875,0.0,0,0
1766593541.186959,1766593541.1437304,846.6796875,45.41015625,-3.90625,12.6953125,0.0,0,0
1766593541.187017,1766593541.147626,-401.3671875,5.859375,-108.3984375,-20.5078125,0.0,0,0
1766593541.1870668,1766593541.1515214,-1000.0,-57.6171875,-121.09375,-40.52734375,0.0,0,0
1766593541.187123,1766593541.155417,-283.69140625,-74.21875,-17.578125,-75.68359375,0.0,0,0
1766593541.187167,1766593541.1593125,-995.60546875,-17.578125,59.5703125,-59.08203125,0.0,0,0
1766593541.1872032,1766593541.163208,945.3125,5.37109375,9.27734375,-5.859375,0.0,0,0
1766593541.1872482,1766593541.1671035,-250.0,-49.31640625,-115.234375,-11.23046875,0.0,0,0
1766593541.245322,1766593541.1710832,-1000.0,-87.890625,-122.0703125,-56.640625,0.0,0,0
1766593541.2455192,1766593541.1749787,-377.44140625,-57.6171875,-42.48046875,-75.68359375,0.0,0,0
1766593541.245594,1766593541.1788743,914.0625,13.671875,5.859375,-53.22265625,0.0,0,0
1766593541.245662,1766593541.1827698,-940.4296875,44.43359375,-10.7421875,-27.83203125,0.0,0,0
1766593541.245728,1766593541.1866653,-33.69140625,-17.08984375,-110.83984375,-43.45703125,0.0,0,0
1766593541.245793,1766593541.1905608,-1000.0,-79.1015625,-156.73828125,-73.73046875,0.0,0,0
1766593541.2458649,1766593541.1944563,-526.3671875,-85.44921875,-49.31640625,-55.17578125,0.0,0,0
1766593541.24593,1766593541.1983519,786.62109375,-16.11328125,53.22265625,6.34765625,0.0,0,0
1766593541.246005,1766593541.2022474,-874.51171875,88.37890625,26.85546875,19.04296875,0.0,0,0
1766593541.246069,1766593541.206143,78.125,11.23046875,-93.26171875,-1.46484375,0.0,0,0
1766593541.246149,1766593541.2100384,-1000.0,-102.5390625,-170.41015625,-41.015625,0.0,0,0
1766593541.24622,1766593541.213934,-742.1875,-73.73046875,-95.703125,-89.84375,0.0,0,0
1766593541.29162,1766593541.2179856,544.921875,-2.9296875,12.20703125,-77.1484375,0.0,0,0
1766593541.291701,1766593541.2218812,-819.82421875,33.203125,31.25,-24.4140625,0.0,0,0
1766593541.2917418,1766593541.225777,190.4296875,20.5078125,-46.875,-12.20703125,0.0,0,0
1766593541.2917812,1766593541.2296724,-1000.0,-67.87109375,-110.83984375,-42.48046875,0.0,0,0
1766593541.291818,1766593541.233568,-912.59765625,-129.8828125,-73.2421875,-81.54296875,0.0,0,0
1766593541.2918558,1766593541.2374635,321.2890625,-41.50390625,18.5546875,-58.10546875,0.0,0,0
1766593541.291894,1766593541.241359,-799.31640625,62.5,36.62109375,25.390625,0.0,0,0
1766593541.2919302,1766593541.2452545,259.27734375,24.90234375,-39.55078125,47.8515625,0.0,0,0
1766593541.291973,1766593541.24915,-1000.0,-88.37890625,-101.5625,-33.203125,0.0,0,0
1766593541.292008,1766593541.2530456,-1000.0,-111.328125,-72.265625,-92.28515625,0.0,0,0
1766593541.292044,1766593541.256941,80.56640625,-21.484375,-8.7890625,-56.640625,0.0,0,0
1766593541.292099,1766593541.2608366,-813.96484375,60.546875,11.23046875,4.39453125,0.0,0,0
1766593541.338104,1766593541.2648885,405.2734375,15.625,-29.78515625,14.6484375,0.0,0,0
1766593541.338262,1766593541.268784,-895.01953125,-56.15234375,-96.19140625,-26.3671875,0.0,0,0
1766593541.338403,1766593541.2726798,-1000.0,-85.44921875,-81.0546875,-75.68359375,0.0,0,0
1766593541.338461,1766593541.2765753,-76.171875,-69.3359375,-7.8125,-65.4296875,0.0,0,0
1766593541.338502,1766593541.2804708,-853.02734375,46.38671875,20.01953125,1.953125,0.0,0,0
1766593541.33854,1766593541.2843664,574.70703125,72.265625,-31.25,20.99609375,0.0,0,0
1766593541.3385768,1766593541.288262,-729.00390625,-31.25,-99.12109375,-7.32421875,0.0,0,0
1766593541.338614,1766593541.2921576,-1000.0,-88.8671875,-91.796875,-65.4296875,0.0,0,0
1766593541.3402529,1766593541.2960532,-168.45703125,-44.921875,-5.859375,-76.171875,0.0,0,0
1766593541.340319,1766593541.2999487,-906.25,11.71875,32.71484375,-35.15625,0.0,0,0
1766593541.34036,1766593541.3038442,756.8359375,-7.8125,-18.5546875,-18.5546875,0.0,0,0
1766593541.340398,1766593541.3077397,-523.4375,-60.546875,-77.1484375,-29.296875,0.0,0,0
1766593541.3822641,1766593541.311772,-1000.0,-68.84765625,-109.375,-59.5703125,0.0,0,0
1766593541.3823922,1766593541.3156679,-226.07421875,-42.48046875,-44.921875,-75.1953125,0.0,0,0
1766593541.382452,1766593541.3195634,-973.6328125,34.66796875,31.25,-44.43359375,0.0,0,0
1766593541.3825028,1766593541.323459,927.734375,72.75390625,-2.9296875,-1.953125,0.0,0,0
1766593541.382554,1766593541.3273547,-252.9296875,-2.44140625,-60.05859375,-23.92578125,0.0,0,0
1766593541.382605,1766593541.3312502,-1000.0,-64.94140625,-79.58984375,-76.66015625,0.0,0,0
1766593541.382655,1766593541.3351457,-360.83984375,-67.3828125,-41.50390625,-72.75390625,0.0,0,0
1766593541.382706,1766593541.3390412,942.87109375,8.30078125,36.62109375,-13.671875,0.0,0,0
1766593541.3827572,1766593541.342937,-980.95703125,44.43359375,-0.9765625,15.13671875,0.0,0,0
1766593541.382808,1766593541.3468325,-114.74609375,-23.92578125,-99.12109375,-10.25390625,0.0,0,0
1766593541.382858,1766593541.350728,-1000.0,-64.94140625,-120.60546875,-51.7578125,0.0,0,0
1766593541.382912,1766593541.3546238,-456.0546875,-45.41015625,-53.22265625,-62.01171875,0.0,0,0
1766593541.4590988,1766593541.3588185,840.33203125,-5.37109375,33.69140625,-40.0390625,0.0,0,0
1766593541.4592252,1766593541.3627143,-889.16015625,20.5078125,33.69140625,6.34765625,0.0,0,0
1766593541.459281,1766593541.3666098,77.1484375,-14.6484375,-36.62109375,7.32421875,0.0,0,0
1766593541.4593291,1766593541.3705056,-1000.0,-73.2421875,-86.9140625,-44.921875,0.0,0,0
1766593541.4593751,1766593541.374401,-672.8515625,-66.40625,-48.828125,-67.3828125,0.0,0,0
1766593541.4594219,1766593541.3782969,635.7421875,17.578125,21.484375,-35.64453125,0.0,0,0
1766593541.45947,1766593541.3821924,-839.84375,95.21484375,26.85546875,20.01953125,0.0,0,0
1766593541.4595158,1766593541.3860881,131.34765625,51.7578125,-52.734375,26.3671875,0.0,0,0
1766593541.4595609,1766593541.3899837,-1000.0,-64.453125,-147.94921875,-59.5703125,0.0,0,0
1766593541.459606,1766593541.3938794,-798.828125,-97.16796875,-91.30859375,-113.28125,0.0,0,0
1766593541.4596548,1766593541.397775,485.83984375,-24.4140625,43.45703125,-62.98828125,0.0,0,0
1766593541.4596999,1766593541.4016707,-812.01171875,23.92578125,52.24609375,-12.6953125,0.0,0,0
1766593541.472756,1766593541.4056895,203.61328125,-5.859375,-33.69140625,-7.32421875,0.0,0,0
1766593541.472852,1766593541.4095852,-1000.0,-30.76171875,-101.5625,-13.18359375,0.0,0,0
1766593541.472907,1766593541.4134808,-1000.0,-57.12890625,-79.1015625,-39.0625,0.0,0,0
1766593541.472961,1766593541.4173765,85.9375,-37.109375,2.9296875,-46.875,0.0,0,0
1766593541.473012,1766593541.421272,-805.6640625,21.97265625,28.80859375,-22.4609375,0.0,0,0
1766593541.473078,1766593541.4251678,338.8671875,24.4140625,-35.64453125,-20.99609375,0.0,0,0
1766593541.473129,1766593541.4290636,-958.0078125,-20.99609375,-116.69921875,-63.4765625,0.0,0,0
1766593541.473172,1766593541.432959,-1000.0,-71.2890625,-106.4453125,-76.66015625,0.0,0,0
1766593541.473208,1766593541.4368548,-1.46484375,-36.62109375,-0.48828125,-29.296875,0.0,0,0
1766593541.4732459,1766593541.4407504,-827.1484375,52.24609375,24.4140625,1.46484375,0.0,0,0
1766593541.473283,1766593541.4446461,462.40234375,51.26953125,-62.98828125,-18.5546875,0.0,0,0
1766593541.473326,1766593541.4485416,-836.9140625,-45.8984375,-137.6953125,-70.3125,0.0,0,0
1766593541.5173619,1766593541.4525383,-1000.0,-97.16796875,-114.2578125,-109.375,0.0,0,0
1766593541.517458,1766593541.4564338,-145.99609375,-58.59375,-13.18359375,-88.8671875,0.0,0,0
1766593541.5175161,1766593541.4603295,-895.01953125,19.53125,40.0390625,-3.90625,0.0,0,0
1766593541.517569,1766593541.464225,727.05078125,6.8359375,-15.13671875,41.015625,0.0,0,0
1766593541.517621,1766593541.4681208,-562.5,-62.98828125,-110.83984375,5.859375,0.0,0,0
1766593541.5176718,1766593541.4720166,-1000.0,-93.75,-115.234375,-56.15234375,0.0,0,0
1766593541.5177321,1766593541.475912,-200.68359375,-54.6875,-29.78515625,-50.78125,0.0,0,0
1766593541.517781,1766593541.4798079,-934.5703125,29.78515625,45.8984375,5.859375,0.0,0,0
1766593541.517832,1766593541.4837036,831.54296875,33.69140625,13.18359375,20.5078125,0.0,0,0
1766593541.5178812,1766593541.4875991,-418.45703125,-41.50390625,-64.94140625,-11.71875,0.0,0,0
1766593541.517938,1766593541.491495,-1000.0,-100.09765625,-90.8203125,-57.12890625,0.0,0,0
1766593541.518002,1766593541.4953907,-304.19921875,-91.796875,-51.7578125,-52.24609375,0.0,0,0
1766593541.564221,1766593541.4993863,980.95703125,1.953125,40.52734375,0.48828125,0.0,0,0
1766593541.564373,1766593541.503282,980.95703125,67.87109375,-7.32421875,16.6015625,0.0,0,0
1766593541.564436,1766593541.5071778,-176.26953125,-15.625,-122.0703125,-9.765625,0.0,0,0
1766593541.56449,1766593541.5110734,-1000.0,-76.66015625,-114.2578125,-58.10546875,0.0,0,0
1766593541.564544,1766593541.514969,-390.13671875,-44.921875,-38.57421875,-35.64453125,0.0,0,0
1766593541.564596,1766593541.5188649,901.3671875,24.90234375,37.109375,19.04296875,0.0,0,0
1766593541.564647,1766593541.5227604,-923.33984375,64.453125,17.578125,21.97265625,0.0,0,0
1766593541.564697,1766593541.5266562,10.25390625,-26.85546875,-85.9375,-32.71484375,0.0,0,0
1766593541.564747,1766593541.530552,-1000.0,-95.703125,-139.6484375,-90.8203125,0.0,0,0
1766593541.564797,1766593541.5344474,-531.25,-71.2890625,-63.96484375,-75.68359375,0.0,0,0
1766593541.564846,1766593541.5383432,775.390625,-14.6484375,60.546875,-20.5078125,0.0,0,0
1766593541.564896,1766593541.542239,-865.72265625,-18.06640625,59.5703125,10.7421875,0.0,0,0
1766593541.620161,1766593541.5462205,115.72265625,-44.921875,-54.19921875,-8.30078125,0.0,0,0
1766593541.6202948,1766593541.5501163,-1000.0,-58.10546875,-130.859375,-63.4765625,0.0,0,0
1766593541.620356,1766593541.554012,-778.80859375,-66.89453125,-79.1015625,-80.078125,0.0,0,0
1766593541.620411,1766593541.5579076,507.32421875,6.8359375,42.48046875,-33.69140625,0.0,0,0
1766593541.6204648,1766593541.5618033,-815.4296875,77.63671875,47.8515625,0.9765625,0.0,0,0
1766593541.62053,1766593541.565699,178.7109375,37.109375,-49.31640625,6.8359375,0.0,0,0
1766593541.6205812,1766593541.5695949,-1000.0,-51.26953125,-118.65234375,-10.7421875,0.0,0,0
1766593541.6206322,1766593541.5734904,-914.55078125,-98.6328125,-84.9609375,-46.875,0.0,0,0
1766593541.6207,1766593541.5773861,303.7109375,-27.83203125,0.0,-16.11328125,0.0,0,0
1766593541.620749,1766593541.581282,-800.78125,67.87109375,-4.39453125,44.43359375,0.0,0,0
1766593541.6208022,1766593541.5851777,290.52734375,32.71484375,-45.41015625,33.203125,0.0,0,0
1766593541.620853,1766593541.5890732,-971.6796875,-66.89453125,-68.84765625,-20.5078125,0.0,0,0
1766593541.668013,1766593541.5930445,-1000.0,-105.46875,-44.921875,-57.12890625,0.0,0,0
1766593541.6681979,1766593541.5969403,-18.5546875,-47.8515625,26.3671875,-48.828125,0.0,0,0
1766593541.668281,1766593541.600836,-818.359375,45.8984375,75.68359375,14.6484375,0.0,0,0
1766593541.668349,1766593541.6047318,407.2265625,33.69140625,-18.5546875,20.01953125,0.0,0,0
1766593541.668482,1766593541.6086276,-897.94921875,-56.640625,-141.6015625,-52.24609375,0.0,0,0
1766593541.66854,1766593541.612523,-1000.0,-107.421875,-104.00390625,-88.8671875,0.0,0,0
1766593541.6685922,1766593541.6164188,-88.8671875,-56.640625,4.8828125,-65.4296875,0.0,0,0
1766593541.668643,1766593541.6203146,-847.16796875,49.31640625,21.97265625,3.41796875,0.0,0,0
1766593541.668693,1766593541.6242104,539.55078125,38.57421875,-60.05859375,28.3203125,0.0,0,0
1766593541.668743,1766593541.628106,-766.6015625,-67.3828125,-138.18359375,-17.578125,0.0,0,0
1766593541.6687932,1766593541.6320016,-1000.0,-96.19140625,-105.95703125,-64.453125,0.0,0,0
1766593541.668836,1766593541.6358974,-174.8046875,-12.6953125,-21.97265625,-30.2734375,0.0,0,0
1766593541.7556639,1766593541.6399424,-916.015625,86.42578125,23.4375,26.85546875,0.0,0,0
1766593541.758018,1766593541.6438382,786.62109375,71.77734375,7.32421875,11.71875,0.0,0,0
1766593541.758095,1766593541.647734,-478.515625,-27.34375,-71.77734375,-59.08203125,0.0,0,0
1766593541.758137,1766593541.6516297,-1000.0,-98.6328125,-96.6796875,-105.95703125,0.0,0,0
1766593541.758177,1766593541.6555254,-272.94921875,-67.3828125,-36.62109375,-92.28515625,0.0,0,0
1766593541.758219,1766593541.6594212,-979.00390625,35.15625,43.9453125,-14.16015625,0.0,0,0
1766593541.758257,1766593541.663317,904.78515625,45.8984375,7.8125,27.83203125,0.0,0,0
1766593541.758293,1766593541.6672125,-315.4296875,-39.55078125,-90.8203125,-5.37109375,0.0,0,0
1766593541.75833,1766593541.6711082,-1000.0,-123.53515625,-95.703125,-40.52734375,0.0,0,0
1766593541.7583659,1766593541.675004,-371.58203125,-119.62890625,-34.66796875,-40.52734375,0.0,0,0
1766593541.758404,1766593541.6788998,921.38671875,11.71875,43.9453125,37.59765625,0.0,0,0
1766593541.75844,1766593541.6827955,-956.54296875,95.703125,31.73828125,78.125,0.0,0,0
1766593541.758475,1766593541.686837,-68.84765625,21.97265625,-95.21484375,-2.44140625,0.0,0,0
1766593541.758512,1766593541.6907327,-1000.0,-89.84375,-118.1640625,-75.68359375,0.0,0,0
1766593541.7585468,1766593541.6946285,-477.05078125,-76.171875,-27.34375,-72.75390625,0.0,0,0
1766593541.758583,1766593541.6985242,822.265625,9.27734375,0.9765625,-41.015625,0.0,0,0
1766593541.7586188,1766593541.70242,-884.27734375,66.89453125,-54.19921875,-6.8359375,0.0,0,0
1766593541.758655,1766593541.7063158,82.03125,33.69140625,-108.3984375,7.8125,0.0,0,0
1766593541.758691,1766593541.7102115,-1000.0,-72.265625,-107.91015625,-48.828125,0.0,0,0
1766593541.758726,1766593541.7141073,-714.35546875,-108.3984375,-17.578125,-88.8671875,0.0,0,0
1766593541.758763,1766593541.718003,581.0546875,-56.640625,59.08203125,-56.640625,0.0,0,0
1766593541.7587981,1766593541.7218988,-827.63671875,17.08984375,49.31640625,3.41796875,0.0,0,0
1766593541.758834,1766593541.7257946,164.55078125,21.97265625,-25.390625,30.2734375,0.0,0,0
1766593541.7588701,1766593541.7296903,-1000.0,-59.5703125,-95.21484375,-20.01953125,0.0,0,0
1766593541.802773,1766593541.7337148,-872.55859375,-87.40234375,-54.6875,-63.96484375,0.0,0,0
1766593541.8029282,1766593541.7376106,377.9296875,-27.34375,43.45703125,-33.69140625,0.0,0,0
1766593541.802984,1766593541.7415066,-802.24609375,61.5234375,54.19921875,21.97265625,0.0,0,0
1766593541.803036,1766593541.7454023,232.91015625,49.31640625,-57.6171875,31.73828125,0.0,0,0
1766593541.803086,1766593541.749298,-1000.0,-9.765625,-129.39453125,-21.484375,0.0,0,0
1766593541.803135,1766593541.7531939,-1000.0,-39.55078125,-64.94140625,-89.35546875,0.0,0,0
1766593541.80318,1766593541.7570896,129.8828125,-18.5546875,24.4140625,-69.82421875,0.0,0,0
1766593541.803226,1766593541.7609854,-800.78125,41.50390625,37.109375,6.8359375,0.0,0,0
1766593541.8032708,1766593541.7648811,293.9453125,-22.94921875,-40.52734375,-6.8359375,0.0,0,0
1766593541.803334,1766593541.768777,-979.98046875,-116.2109375,-104.00390625,-42.48046875,0.0,0,0
1766593541.803381,1766593541.7726727,-1000.0,-126.953125,-89.35546875,-63.96484375,0.0,0,0
1766593541.803426,1766593541.7765684,-25.390625,-34.1796875,2.44140625,-36.1328125,0.0,0,0
1766593541.849584,1766593541.7805812,-839.35546875,63.4765625,65.4296875,37.109375,0.0,0,0
1766593541.8497012,1766593541.7844772,528.3203125,45.41015625,10.25390625,40.0390625,0.0,0,0
1766593541.849761,1766593541.788373,-774.4140625,-23.92578125,-83.0078125,-24.4140625,0.0,0,0
1766593541.849814,1766593541.7922688,-1000.0,-102.5390625,-104.98046875,-89.35546875,0.0,0,0
1766593541.849865,1766593541.7961645,-160.15625,-67.87109375,-11.71875,-66.40625,0.0,0,0
1766593541.8499148,1766593541.8000603,-895.99609375,56.640625,28.3203125,-19.04296875,0.0,0,0
1766593541.849969,1766593541.803956,719.23828125,59.08203125,-60.546875,-7.32421875,0.0,0,0
1766593541.8500202,1766593541.8078518,-567.87109375,-36.62109375,-146.484375,-36.62109375,0.0,0,0
1766593541.8500721,1766593541.8117478,-1000.0,-82.51953125,-133.30078125,-70.3125,0.0,0,0
1766593541.850122,1766593541.8156435,-240.234375,-73.73046875,-3.41796875,-49.31640625,0.0,0,0
1766593541.8501718,1766593541.8195393,-961.9140625,-0.9765625,96.19140625,-9.765625,0.0,0,0
1766593541.850222,1766593541.823435,879.39453125,51.7578125,32.2265625,9.765625,0.0,0,0
1766593541.891927,1766593541.8274367,-347.65625,-8.30078125,-82.51953125,-24.90234375,0.0,0,0
1766593541.8920221,1766593541.8313324,-1000.0,-106.4453125,-98.6328125,-81.0546875,0.0,0,0
1766593541.892075,1766593541.8352282,-306.15234375,-80.078125,-5.37109375,-58.59375,0.0,0,0
1766593541.892125,1766593541.839124,981.4453125,34.66796875,51.26953125,-2.44140625,0.0,0,0
1766593541.892176,1766593541.84302,984.375,75.68359375,-11.71875,2.44140625,0.0,0,0
1766593541.892276,1766593541.8469157,-167.48046875,-0.9765625,-91.30859375,-47.36328125,0.0,0,0
1766593541.8923562,1766593541.8508115,-1000.0,-116.2109375,-113.76953125,-102.05078125,0.0,0,0
1766593541.892407,1766593541.8547072,-428.7109375,-108.3984375,-34.66796875,-75.1953125,0.0,0,0
1766593541.8924549,1766593541.858603,868.1640625,-20.99609375,55.17578125,-22.94921875,0.0,0,0
1766593541.892503,1766593541.862499,-912.59765625,45.41015625,23.92578125,0.48828125,0.0,0,0
1766593541.892549,1766593541.8663948,21.97265625,44.43359375,-93.26171875,-8.7890625,0.0,0,0
1766593541.892596,1766593541.8702905,-1000.0,-72.75390625,-149.90234375,-46.875,0.0,0,0
1766593541.9374511,1766593541.8742774,-621.09375,-115.72265625,-50.78125,-30.2734375,0.0,0,0
1766593541.937563,1766593541.8781734,686.03515625,6.34765625,72.265625,1.46484375,0.0,0,0
1766593541.93762,1766593541.882069,-848.14453125,68.84765625,20.99609375,12.6953125,0.0,0,0
1766593541.937675,1766593541.8859649,119.62890625,28.3203125,-90.8203125,1.953125,0.0,0,0
1766593541.937727,1766593541.8898606,-1000.0,-41.50390625,-139.16015625,-82.51953125,0.0,0,0
1766593541.937778,1766593541.8937566,-774.4140625,-61.5234375,-77.1484375,-130.859375,0.0,0,0
1766593541.937831,1766593541.8976524,507.8125,28.80859375,25.87890625,-69.82421875,0.0,0,0
1766593541.9378822,1766593541.9015481,-814.94140625,66.89453125,25.87890625,-7.8125,0.0,0,0
1766593541.9379342,1766593541.9054441,190.91796875,-14.6484375,-51.7578125,-4.39453125,0.0,0,0
1766593541.937984,1766593541.90934,-1000.0,-78.61328125,-99.609375,-45.41015625,0.0,0,0
1766593541.9380329,1766593541.9132357,-972.65625,-81.54296875,-58.59375,-82.03125,0.0,0,0
1766593541.938102,1766593541.9171314,194.82421875,-20.5078125,30.2734375,-53.7109375,0.0,0,0
1766593542.055815,1766593541.9212768,-802.734375,46.38671875,53.7109375,5.859375,0.0,0,0
1766593542.0560079,1766593541.9251728,322.265625,-8.30078125,-21.484375,16.11328125,0.0,0,0
1766593542.0560691,1766593541.9290686,-963.8671875,-81.54296875,-121.09375,-34.1796875,0.0,0,0
1766593542.056193,1766593541.9329646,-1000.0,-89.84375,-117.1875,-75.1953125,0.0,0,0
1766593542.056271,1766593541.9368603,11.71875,-4.8828125,-20.5078125,-40.52734375,0.0,0,0
1766593542.056326,1766593541.9407563,-824.70703125,122.55859375,32.71484375,20.01953125,0.0,0,0
1766593542.056383,1766593541.944652,457.03125,57.12890625,-12.20703125,33.203125,0.0,0,0
1766593542.056436,1766593541.948548,-847.16796875,-63.4765625,-108.3984375,-25.390625,0.0,0,0
1766593542.0564868,1766593541.9524438,-1000.0,-100.09765625,-107.421875,-87.890625,0.0,0,0
1766593542.0565388,1766593541.9563396,-103.515625,-62.98828125,8.7890625,-70.80078125,0.0,0,0
1766593542.0565948,1766593541.9602356,-868.1640625,43.9453125,72.75390625,1.953125,0.0,0,0
1766593542.0566988,1766593541.9641314,638.18359375,41.9921875,-10.25390625,35.64453125,0.0,0,0
1766593542.057936,1766593541.968271,-663.57421875,-60.05859375,-118.1640625,-7.32421875,0.0,0,0
1766593542.0580008,1766593541.972167,-1000.0,-98.14453125,-105.46875,-59.08203125,0.0,0,0
1766593542.058042,1766593541.9760628,-186.5234375,-68.359375,-12.20703125,-62.5,0.0,0,0
1766593542.05808,1766593541.9799588,-933.10546875,20.01953125,63.96484375,-16.11328125,0.0,0,0
1766593542.0581172,1766593541.9838545,837.40234375,95.703125,34.66796875,26.85546875,0.0,0,0
1766593542.0581539,1766593541.9877505,-412.109375,31.25,-64.453125,13.18359375,0.0,0,0
1766593542.0586271,1766593541.9916465,-1000.0,-61.03515625,-103.02734375,-51.26953125,0.0,0,0
1766593542.0586681,1766593541.9955423,-267.08984375,-56.15234375,-41.015625,-79.58984375,0.0,0,0
1766593542.0587058,1766593541.9994383,-978.515625,27.83203125,37.59765625,-16.11328125,0.0,0,0
1766593542.058744,1766593542.003334,912.59765625,43.45703125,14.16015625,29.296875,0.0,0,0
1766593542.05878,1766593542.00723,-295.8984375,-34.66796875,-91.796875,-20.01953125,0.0,0,0
1766593542.058816,1766593542.011126,-1000.0,-101.07421875,-125.0,-67.87109375,0.0,0,0
1766593542.0882041,1766593542.0151737,-332.03125,-74.70703125,-44.43359375,-55.6640625,0.0,0,0
1766593542.088328,1766593542.0190694,940.4296875,29.78515625,39.55078125,-2.44140625,0.0,0,0
1766593542.088383,1766593542.0229654,-948.2421875,54.6875,25.390625,27.34375,0.0,0,0
1766593542.0884311,1766593542.0268614,-22.94921875,-24.90234375,-83.984375,-17.08984375,0.0,0,0
1766593542.088486,1766593542.0307572,-1000.0,-95.21484375,-138.18359375,-80.078125,0.0,0,0
1766593542.088533,1766593542.0346532,-492.1875,-47.36328125,-37.59765625,-73.73046875,0.0,0,0
1766593542.088581,1766593542.0385492,813.4765625,30.76171875,60.05859375,-16.6015625,0.0,0,0
1766593542.088629,1766593542.042445,-879.8828125,60.05859375,30.76171875,14.6484375,0.0,0,0
1766593542.088696,1766593542.046341,90.33203125,17.08984375,-83.0078125,-0.9765625,0.0,0,0
1766593542.088769,1766593542.050237,-1000.0,-79.1015625,-121.58203125,-51.7578125,0.0,0,0
1766593542.0888152,1766593542.054133,-708.49609375,-120.60546875,-41.50390625,-41.015625,0.0,0,0
1766593542.088862,1766593542.0580287,590.8203125,-34.1796875,46.38671875,13.18359375,0.0,0,0
1766593542.1461298,1766593542.0620577,-825.68359375,69.3359375,46.38671875,60.546875,0.0,0,0
1766593542.146284,1766593542.0659537,194.3359375,30.2734375,-56.15234375,43.45703125,0.0,0,0
1766593542.1463418,1766593542.0698497,-1000.0,-52.734375,-122.0703125,-32.2265625,0.0,0,0
1766593542.1463969,1766593542.0737455,-901.3671875,-80.56640625,-71.2890625,-81.0546875,0.0,0,0
1766593542.1464498,1766593542.0776415,335.44921875,-1.953125,32.71484375,-55.17578125,0.0,0,0
1766593542.1465018,1766593542.0815375,-801.7578125,83.984375,74.70703125,2.44140625,0.0,0,0
1766593542.146552,1766593542.0854335,265.625,53.22265625,-5.37109375,-3.90625,0.0,0,0
1766593542.146603,1766593542.0893292,-1000.0,-51.7578125,-103.02734375,-43.45703125,0.0,0,0
1766593542.146652,1766593542.0932252,-1000.0,-127.44140625,-62.01171875,-76.66015625,0.0,0,0
1766593542.146688,1766593542.0971212,75.68359375,-83.984375,50.78125,-46.38671875,0.0,0,0
1766593542.146743,1766593542.1010172,-811.5234375,35.15625,62.5,16.6015625,0.0,0,0
1766593542.146786,1766593542.1049132,385.25390625,43.9453125,-45.41015625,11.71875,0.0,0,0
1766593542.1769578,1766593542.108929,-917.48046875,-30.76171875,-142.578125,-58.10546875,0.0,0,0
1766593542.177077,1766593542.112825,-1000.0,-82.03125,-87.40234375,-87.890625,0.0,0,0
1766593542.177131,1766593542.116721,-30.76171875,-62.98828125,22.4609375,-38.57421875,0.0,0,0
1766593542.177184,1766593542.120617,-840.8203125,8.30078125,61.5234375,21.97265625,0.0,0,0
1766593542.177235,1766593542.124513,530.76171875,18.5546875,-19.53125,20.5078125,0.0,0,0
1766593542.1772852,1766593542.1284087,-775.87890625,-49.31640625,-132.32421875,-50.78125,0.0,0,0
1766593542.1773372,1766593542.1323047,-1000.0,-95.703125,-160.64453125,-106.4453125,0.0,0,0
1766593542.177386,1766593542.1362007,-146.484375,-49.8046875,-53.22265625,-90.33203125,0.0,0,0
1766593542.1774368,1766593542.1400967,-903.80859375,30.2734375,38.57421875,-22.94921875,0.0,0,0
1766593542.1774871,1766593542.1439927,758.30078125,45.41015625,-14.16015625,3.41796875,0.0,0,0
1766593542.177536,1766593542.1478887,-512.6953125,-37.59765625,-94.7265625,-26.3671875,0.0,0,0
1766593542.177587,1766593542.1517847,-1000.0,-118.1640625,-105.95703125,-83.0078125,0.0,0,0
1766593542.222063,1766593542.1557937,-227.05078125,-51.7578125,-21.97265625,-86.42578125,0.0,0,0
1766593542.222165,1766593542.1596897,-960.9375,52.24609375,67.3828125,-22.4609375,0.0,0,0
1766593542.2222238,1766593542.1635857,895.5078125,65.91796875,23.92578125,7.32421875,0.0,0,0
1766593542.2222772,1766593542.1674817,-316.89453125,-12.6953125,-85.44921875,-3.41796875,0.0,0,0
1766593542.22233,1766593542.1713777,-1000.0,-95.703125,-109.375,-57.6171875,0.0,0,0
1766593542.222381,1766593542.1752737,-320.80078125,-65.91796875,-13.671875,-39.55078125,0.0,0,0
1766593542.222433,1766593542.1791697,957.03125,36.1328125,76.171875,54.6875,0.0,0,0
1766593542.222483,1766593542.1830657,-969.7265625,61.5234375,25.87890625,68.359375,0.0,0,0
1766593542.222532,1766593542.1869617,-72.75390625,-19.53125,-83.49609375,25.87890625,0.0,0,0
1766593542.222583,1766593542.1908574,-1000.0,-83.0078125,-102.5390625,-16.6015625,0.0,0,0
1766593542.222632,1766593542.1947534,-491.69921875,-85.44921875,-17.08984375,-26.85546875,0.0,0,0
1766593542.222683,1766593542.1986494,816.89453125,-24.90234375,79.58984375,23.92578125,0.0,0,0
1766593542.268393,1766593542.2026498,-888.18359375,32.2265625,47.36328125,72.265625,0.0,0,0
1766593542.268561,1766593542.2065458,55.6640625,-11.71875,-64.94140625,42.48046875,0.0,0,0
1766593542.268636,1766593542.2104418,-1000.0,-102.5390625,-110.3515625,-26.85546875,0.0,0,0
1766593542.2687092,1766593542.2143378,-647.94921875,-100.09765625,-30.76171875,-40.0390625,0.0,0,0
1766593542.268779,1766593542.2182338,658.203125,-6.8359375,67.3828125,26.3671875,0.0,0,0
1766593542.268843,1766593542.2221298,-840.8203125,40.0390625,37.59765625,54.19921875,0.0,0,0
1766593542.268908,1766593542.2260258,133.30078125,6.8359375,-74.70703125,-0.9765625,0.0,0,0
1766593542.2689762,1766593542.2299218,-1000.0,-73.2421875,-146.484375,-60.546875,0.0,0,0
1766593542.2690392,1766593542.2338178,-827.1484375,-98.14453125,-90.8203125,-90.8203125,0.0,0,0
1766593542.2691042,1766593542.2377138,437.01171875,-20.5078125,42.48046875,-33.69140625,0.0,0,0
1766593542.2691689,1766593542.2416098,-807.6171875,34.66796875,90.33203125,61.5234375,0.0,0,0
1766593542.269233,1766593542.2455058,198.73046875,-6.34765625,-33.203125,28.80859375,0.0,0,0
1766593542.354861,1766593542.2494953,-1000.0,-65.4296875,-134.27734375,-41.9921875,0.0,0,0
1766593542.354995,1766593542.2533913,-997.0703125,-99.609375,-97.65625,-68.84765625,0.0,0,0
1766593542.355038,1766593542.2572873,145.99609375,-57.12890625,26.3671875,-53.22265625,0.0,0,0
1766593542.355077,1766593542.2611833,-801.26953125,26.3671875,78.61328125,-0.9765625,0.0,0,0
1766593542.355177,1766593542.2650793,303.22265625,23.92578125,-4.39453125,0.9765625,0.0,0,0
1766593542.355223,1766593542.2689755,-971.19140625,-63.4765625,-86.9140625,-61.03515625,0.0,0,0
1766593542.355263,1766593542.2728715,-1000.0,-115.234375,-76.66015625,-106.4453125,0.0,0,0
1766593542.3553002,1766593542.2767675,-34.1796875,-62.01171875,-13.18359375,-74.70703125,0.0,0,0
1766593542.355337,1766593542.2806635,-828.61328125,8.7890625,42.96875,-21.484375,0.0,0,0
1766593542.355405,1766593542.2845595,462.40234375,7.32421875,-8.7890625,-14.6484375,0.0,0,0
1766593542.355507,1766593542.2884555,-846.19140625,-61.03515625,-115.234375,-63.4765625,0.0,0,0
1766593542.355577,1766593542.2923515,-1000.0,-115.72265625,-81.0546875,-101.5625,0.0,0,0
1766593542.371318,1766593542.2964113,-109.86328125,-50.78125,24.4140625,-58.59375,0.0,0,0
1766593542.3713999,1766593542.3003073,-883.7890625,37.109375,61.03515625,10.7421875,0.0,0,0
1766593542.3714292,1766593542.3042033,694.3359375,31.25,-4.39453125,29.78515625,0.0,0,0
1766593542.371454,1766593542.3080993,-591.30859375,-41.9921875,-93.75,-9.27734375,0.0,0,0
1766593542.371479,1766593542.3119953,-1000.0,-105.95703125,-86.42578125,-49.8046875,0.0,0,0
1766593542.3715022,1766593542.3158913,-186.5234375,-49.8046875,22.94921875,-26.3671875,0.0,0,0
1766593542.371553,1766593542.3197875,-938.96484375,22.4609375,48.33984375,6.8359375,0.0,0,0
1766593542.371616,1766593542.3236835,852.5390625,21.97265625,-41.50390625,14.6484375,0.0,0,0
1766593542.3716989,1766593542.3275795,-371.58203125,-8.7890625,-90.33203125,5.37109375,0.0,0,0
1766593542.371736,1766593542.3314755,-1000.0,-70.80078125,-84.9609375,-35.15625,0.0,0,0
1766593542.373367,1766593542.3353715,-283.69140625,-67.87109375,-13.671875,-53.7109375,0.0,0,0
1766593542.3734038,1766593542.3392675,993.65234375,20.99609375,47.8515625,1.953125,0.0,0,0
1766593542.416539,1766593542.343232,971.19140625,49.8046875,8.30078125,32.2265625,0.0,0,0
1766593542.4166431,1766593542.347128,-182.12890625,-26.3671875,-76.171875,-3.41796875,0.0,0,0
1766593542.416671,1766593542.3510242,-1000.0,-102.05078125,-98.14453125,-65.4296875,0.0,0,0
1766593542.416697,1766593542.3549201,-446.2890625,-94.7265625,-20.99609375,-68.359375,0.0,0,0
1766593542.4167218,1766593542.3588161,851.07421875,-19.53125,57.6171875,-9.765625,0.0,0,0
1766593542.416746,1766593542.3627121,-908.203125,32.2265625,44.43359375,13.671875,0.0,0,0
1766593542.41677,1766593542.3666081,22.94921875,14.16015625,-39.0625,3.41796875,0.0,0,0
1766593542.416794,1766593542.3705044,-1000.0,-68.359375,-108.3984375,-55.6640625,0.0,0,0
1766593542.416821,1766593542.3744004,-603.515625,-96.19140625,-44.43359375,-90.33203125,0.0,0,0
1766593542.416845,1766593542.3782964,701.66015625,-25.390625,74.70703125,-50.29296875,0.0,0,0
1766593542.4168682,1766593542.3821924,-854.4921875,31.73828125,58.59375,-8.30078125,0.0,0,0
1766593542.4168918,1766593542.3860886,108.88671875,19.04296875,-51.26953125,6.8359375,0.0,0,0
1766593542.4613261,1766593542.3901231,-1000.0,-53.22265625,-105.46875,-33.69140625,0.0,0,0
1766593542.4614358,1766593542.3940194,-744.62890625,-98.14453125,-38.57421875,-64.94140625,0.0,0,0
1766593542.4614651,1766593542.3979154,547.8515625,-16.11328125,67.87109375,-5.859375,0.0,0,0
1766593542.4614909,1766593542.4018114,-821.77734375,70.3125,42.96875,45.41015625,0.0,0,0
1766593542.461515,1766593542.4057076,167.48046875,16.11328125,-78.61328125,7.8125,0.0,0,0
1766593542.46154,1766593542.4096036,-1000.0,-83.49609375,-115.72265625,-65.4296875,0.0,0,0
1766593542.4615638,1766593542.4134996,-932.6171875,-101.07421875,-58.59375,-101.5625,0.0,0,0
1766593542.461588,1766593542.4173958,266.6015625,-37.109375,10.7421875,-66.40625,0.0,0,0
1766593542.461612,1766593542.4212918,-799.8046875,19.04296875,33.203125,20.99609375,0.0,0,0
1766593542.461635,1766593542.4251878,268.06640625,11.23046875,-28.3203125,22.94921875,0.0,0,0
1766593542.461659,1766593542.4290838,-1000.0,-46.38671875,-102.05078125,-72.265625,0.0,0,0
1766593542.461683,1766593542.43298,-1000.0,-119.140625,-61.5234375,-104.4921875,0.0,0,0
1766593542.507217,1766593542.4370043,51.26953125,-91.30859375,32.71484375,-68.359375,0.0,0,0
1766593542.507334,1766593542.4409006,-814.94140625,10.25390625,45.8984375,-16.6015625,0.0,0,0
1766593542.507436,1766593542.4447966,379.39453125,34.66796875,-20.01953125,4.8828125,0.0,0,0
1766593542.507593,1766593542.4486926,-910.64453125,-42.48046875,-99.609375,-42.48046875,0.0,0,0
1766593542.507744,1766593542.4525888,-1000.0,-99.12109375,-94.23828125,-82.51953125,0.0,0,0
1766593542.507852,1766593542.4564848,-87.890625,-59.08203125,-2.44140625,-62.5,0.0,0,0
1766593542.508002,1766593542.4603808,-851.5625,15.13671875,17.578125,-4.8828125,0.0,0,0
1766593542.508159,1766593542.464277,560.546875,22.94921875,-65.4296875,-12.6953125,0.0,0,0
1766593542.508378,1766593542.468173,-742.67578125,-48.33984375,-134.27734375,-91.796875,0.0,0,0
1766593542.508537,1766593542.4720693,-1000.0,-99.609375,-114.74609375,-135.7421875,0.0,0,0
1766593542.508656,1766593542.4759653,-170.41015625,-49.31640625,-19.53125,-111.81640625,0.0,0,0
1766593542.508832,1766593542.4798613,-915.52734375,28.80859375,50.78125,-58.10546875,0.0,0,0
1766593542.551321,1766593542.4838736,782.71484375,20.01953125,7.32421875,-15.625,0.0,0,0
1766593542.551391,1766593542.4877696,-482.421875,-59.08203125,-77.63671875,-50.78125,0.0,0,0
1766593542.5514371,1766593542.4916658,-1000.0,-106.93359375,-94.7265625,-69.3359375,0.0,0,0
1766593542.551489,1766593542.4955618,-258.30078125,-69.82421875,-29.296875,-66.89453125,0.0,0,0
1766593542.551531,1766593542.4994578,-981.93359375,9.765625,20.99609375,-47.8515625,0.0,0,0
1766593542.551556,1766593542.503354,921.38671875,41.015625,-16.6015625,-21.97265625,0.0,0,0
1766593542.551581,1766593542.50725,-278.3203125,1.46484375,-85.44921875,-38.57421875,0.0,0,0
1766593542.5516999,1766593542.5111463,-1000.0,-98.14453125,-97.65625,-48.33984375,0.0,0,0
1766593542.551765,1766593542.5150423,-337.890625,-111.81640625,-8.30078125,-65.4296875,0.0,0,0
1766593542.551799,1766593542.5189385,946.77734375,-16.11328125,83.49609375,-39.0625,0.0,0,0
1766593542.551831,1766593542.5228345,-965.33203125,58.59375,35.64453125,-24.4140625,0.0,0,0
1766593542.551861,1766593542.5267308,-68.359375,-11.23046875,-102.5390625,-26.85546875,0.0,0,0
1766593542.596549,1766593542.5307374,-1000.0,-114.74609375,-130.859375,-62.01171875,0.0,0,0
1766593542.5966232,1766593542.5346336,-473.6328125,-89.84375,-54.19921875,-162.109375,0.0,0,0
1766593542.596652,1766593542.5385296,845.703125,-5.37109375,23.92578125,-89.84375,0.0,0,0
1766593542.596711,1766593542.5424259,-912.109375,34.66796875,2.9296875,50.78125,0.0,0,0
1766593542.5967848,1766593542.5463219,-0.9765625,-17.578125,-100.5859375,-47.8515625,0.0,0,0
1766593542.5968351,1766593542.550218,-1000.0,-102.5390625,-107.91015625,-159.1796875,0.0,0,0
1766593542.596887,1766593542.554114,-642.578125,-104.98046875,-21.97265625,-91.30859375,0.0,0,0
1766593542.59695,1766593542.5580103,663.57421875,-44.921875,45.8984375,-30.76171875,0.0,0,0
1766593542.596978,1766593542.5619063,-846.19140625,-7.32421875,48.828125,-55.6640625,0.0,0,0
1766593542.5970109,1766593542.5658026,98.6328125,-4.39453125,-35.15625,-78.61328125,0.0,0,0
1766593542.597048,1766593542.5696986,-1000.0,-86.42578125,-123.53515625,-16.6015625,0.0,0,0
1766593542.5970812,1766593542.5735948,-821.77734375,-130.37109375,-65.4296875,-34.1796875,0.0,0,0
1766593542.657747,1766593542.5776758,442.3828125,-14.6484375,36.62109375,-62.5,0.0,0,0
1766593542.657872,1766593542.581572,-805.6640625,27.34375,88.8671875,-101.5625,0.0,0,0
1766593542.65793,1766593542.585468,219.23828125,-35.15625,33.69140625,21.484375,0.0,0,0
1766593542.657984,1766593542.5893643,-1000.0,-47.36328125,-103.02734375,30.76171875,0.0,0,0
1766593542.6580758,1766593542.5932603,-982.91015625,-44.43359375,-108.3984375,-70.80078125,0.0,0,0
1766593542.658131,1766593542.5971565,199.70703125,1.953125,19.04296875,-13.671875,0.0,0,0
1766593542.658184,1766593542.6010528,-795.41015625,53.7109375,42.96875,120.1171875,0.0,0,0
1766593542.658242,1766593542.6049488,244.140625,-30.2734375,-20.99609375,100.09765625,0.0,0,0
1766593542.658294,1766593542.608845,-992.67578125,-70.3125,-94.23828125,3.90625,0.0,0,0
1766593542.658344,1766593542.6127412,-1000.0,-39.55078125,-83.0078125,-65.91796875,0.0,0,0
1766593542.658417,1766593542.6166372,-70.80078125,-48.33984375,100.09765625,-125.9765625,0.0,0,0
1766593542.658468,1766593542.6205335,-819.3359375,3.90625,126.46484375,26.85546875,0.0,0,0
1766593542.7021592,1766593542.6245272,390.13671875,34.66796875,10.7421875,-44.43359375,0.0,0,0
1766593542.702222,1766593542.6284235,-906.73828125,-46.38671875,-99.12109375,-91.796875,0.0,0,0
1766593542.702244,1766593542.6323195,-1000.0,-103.515625,-112.3046875,55.17578125,0.0,0,0
1766593542.702264,1766593542.6362157,-152.83203125,-57.6171875,62.98828125,-27.83203125,0.0,0,0
1766593542.702281,1766593542.640112,-860.3515625,30.76171875,84.47265625,20.99609375,0.0,0,0
1766593542.7022989,1766593542.644008,569.3359375,44.43359375,-17.578125,-43.45703125,0.0,0,0
1766593542.702316,1766593542.6479042,-737.3046875,-43.45703125,-88.8671875,-79.58984375,0.0,0,0
1766593542.702336,1766593542.6518004,-1000.0,-67.87109375,-129.39453125,53.7109375,0.0,0,0
1766593542.702378,1766593542.6556966,-218.75,-48.828125,-44.43359375,50.78125,0.0,0,0
1766593542.70242,1766593542.6595926,-905.76171875,-30.2734375,126.953125,17.08984375,0.0,0,0
1766593542.702442,1766593542.6634889,708.49609375,45.41015625,50.29296875,117.1875,0.0,0,0
1766593542.7024598,1766593542.667385,-603.02734375,46.38671875,-131.34765625,-11.23046875,0.0,0,0
1766593542.73229,1766593542.6713688,-1000.0,-90.33203125,-127.44140625,-146.97265625,0.0,0,0
1766593542.732383,1766593542.675265,-224.609375,-84.47265625,-18.5546875,69.3359375,0.0,0,0
1766593542.732785,1766593542.6791613,-964.35546875,18.06640625,61.03515625,166.9921875,0.0,0,0
1766593542.732814,1766593542.6830575,896.97265625,44.921875,11.71875,108.88671875,0.0,0,0
1766593542.7328389,1766593542.6869535,-312.01171875,23.4375,-125.48828125,44.921875,0.0,0,0
1766593542.732864,1766593542.6908498,-1000.0,-81.54296875,-151.3671875,22.4609375,0.0,0,0
1766593542.732887,1766593542.694746,-481.4453125,-73.2421875,-36.1328125,-30.2734375,0.0,0,0
1766593542.732911,1766593542.6986423,807.6171875,-1.46484375,86.42578125,-93.26171875,0.0,0,0
1766593542.732934,1766593542.7025383,-906.25,-14.6484375,20.99609375,117.67578125,0.0,0,0
1766593542.732957,1766593542.7064345,3.90625,-38.0859375,-82.03125,149.90234375,0.0,0,0
1766593542.73298,1766593542.7103307,-1000.0,-63.96484375,-130.37109375,-0.48828125,0.0,0,0
1766593542.733013,1766593542.714227,-569.3359375,-70.80078125,-65.91796875,13.18359375,0.0,0,0
1766593542.7926888,1766593542.7181938,746.09375,-39.0625,40.0390625,131.8359375,0.0,0,0
1766593542.792775,1766593542.72209,-866.2109375,-32.71484375,5.859375,119.62890625,0.0,0,0
1766593542.792813,1766593542.7259862,83.0078125,-35.64453125,-42.48046875,27.34375,0.0,0,0
1766593542.792846,1766593542.7298825,-1000.0,-59.08203125,-119.62890625,53.22265625,0.0,0,0
1766593542.792876,1766593542.7337785,-735.3515625,-84.9609375,-115.234375,123.046875,0.0,0,0
1766593542.79291,1766593542.7376747,545.41015625,-35.64453125,35.64453125,145.5078125,0.0,0,0
1766593542.792942,1766593542.741571,-821.2890625,22.4609375,78.61328125,90.33203125,0.0,0,0
1766593542.792973,1766593542.7454672,187.01171875,16.6015625,-47.36328125,98.6328125,0.0,0,0
1766593542.793004,1766593542.7493634,-1000.0,-84.9609375,-165.0390625,85.9375,0.0,0,0
1766593542.793033,1766593542.7532594,-931.640625,-150.390625,-71.77734375,40.0390625,0.0,0,0
1766593542.793063,1766593542.7571557,275.87890625,-116.2109375,83.984375,65.91796875,0.0,0,0
1766593542.7930932,1766593542.761052,-800.29296875,-1.953125,75.1953125,152.83203125,0.0,0,0
1766593542.8390841,1766593542.7650893,237.3046875,41.015625,-100.09765625,108.3984375,0.0,0,0
1766593542.839251,1766593542.7689855,-1000.0,-68.84765625,-185.546875,-7.8125,0.0,0,0
1766593542.839329,1766593542.7728817,-1000.0,-85.44921875,-88.37890625,1.953125,0.0,0,0
1766593542.839385,1766593542.776778,71.2890625,-19.04296875,35.64453125,55.17578125,0.0,0,0
1766593542.839437,1766593542.780674,-811.03515625,41.9921875,21.484375,76.171875,0.0,0,0
1766593542.839488,1766593542.7845702,382.8125,12.20703125,-68.359375,45.41015625,0.0,0,0
1766593542.839539,1766593542.7884665,-901.3671875,-97.16796875,-119.140625,4.39453125,0.0,0,0
1766593542.8395898,1766593542.7923627,-1000.0,-131.34765625,-93.26171875,-18.06640625,0.0,0,0
1766593542.8396401,1766593542.796259,-122.55859375,-44.921875,18.06640625,-11.23046875,0.0,0,0
1766593542.839701,1766593542.8001552,-854.00390625,5.859375,82.03125,38.0859375,0.0,0,0
1766593542.8397598,1766593542.8040514,553.22265625,-42.96875,0.9765625,80.56640625,0.0,0,0
1766593542.839812,1766593542.8079476,-752.44140625,-99.609375,-129.39453125,36.62109375,0.0,0,0
1766593542.882955,1766593542.8119793,-1000.0,-103.02734375,-129.39453125,-24.90234375,0.0,0,0
1766593542.883052,1766593542.8158755,-174.8046875,-57.6171875,-3.41796875,-11.23046875,0.0,0,0
1766593542.883086,1766593542.8197718,-901.3671875,27.83203125,77.1484375,43.9453125,0.0,0,0
1766593542.883116,1766593542.823668,732.91015625,50.78125,11.71875,67.3828125,0.0,0,0
1766593542.883146,1766593542.8275642,-556.640625,-11.71875,-79.1015625,20.99609375,0.0,0,0
1766593542.883174,1766593542.8314605,-1000.0,-55.6640625,-82.51953125,-37.109375,0.0,0,0
1766593542.8832052,1766593542.8353567,-220.703125,-38.0859375,-8.7890625,-32.71484375,0.0,0,0
1766593542.883235,1766593542.839253,-967.7734375,7.8125,57.12890625,10.25390625,0.0,0,0
1766593542.883264,1766593542.8431492,913.57421875,17.578125,-6.34765625,46.875,0.0,0,0
1766593542.883292,1766593542.8470454,-281.73828125,-70.80078125,-105.95703125,24.90234375,0.0,0,0
1766593542.883321,1766593542.8509417,-1000.0,-140.13671875,-100.09765625,-36.62109375,0.0,0,0
1766593542.8833501,1766593542.854838,-366.2109375,-107.421875,-20.5078125,-67.3828125,0.0,0,0
1766593542.9576151,1766593542.8590097,923.828125,-19.04296875,41.50390625,-42.48046875,0.0,0,0
1766593542.957681,1766593542.862906,-955.078125,53.22265625,32.2265625,8.30078125,0.0,0,0
1766593542.95771,1766593542.8668022,-60.546875,-3.90625,-50.78125,-0.9765625,0.0,0,0
1766593542.957736,1766593542.8706985,-1000.0,-78.125,-124.0234375,-79.58984375,0.0,0,0
1766593542.957762,1766593542.874595,-542.48046875,-83.984375,-56.640625,-100.5859375,0.0,0,0
1766593542.9577868,1766593542.8784912,767.08984375,-19.53125,26.3671875,-51.7578125,0.0,0,0
1766593542.9578109,1766593542.8823874,-875.0,49.8046875,6.34765625,3.90625,0.0,0,0
1766593542.957835,1766593542.8862836,68.359375,-11.71875,-59.5703125,-24.4140625,0.0,0,0
1766593542.957887,1766593542.8901799,-1000.0,-113.28125,-105.95703125,-112.79296875,0.0,0,0
1766593542.957929,1766593542.894076,-680.17578125,-117.67578125,-53.22265625,-133.30078125,0.0,0,0
1766593542.957954,1766593542.8979723,626.953125,-40.0390625,35.15625,-93.75,0.0,0,0
1766593542.957979,1766593542.9018688,-839.35546875,34.66796875,51.7578125,-38.57421875,0.0,0,0
1766593542.972333,1766593542.9058785,119.62890625,11.23046875,-49.8046875,-56.640625,0.0,0,0
1766593542.972391,1766593542.9097748,-1000.0,-74.70703125,-168.45703125,-115.72265625,0.0,0,0
1766593542.972419,1766593542.9136713,-793.45703125,-82.51953125,-91.796875,-90.33203125,0.0,0,0
1766593542.972445,1766593542.9175675,478.515625,-10.7421875,59.5703125,-54.19921875,0.0,0,0
1766593542.97247,1766593542.9214637,-812.01171875,38.0859375,27.34375,-54.19921875,0.0,0,0
1766593542.972515,1766593542.92536,242.1875,1.953125,-42.48046875,-59.5703125,0.0,0,0
1766593542.9725811,1766593542.9292562,-1000.0,-56.640625,-66.40625,-89.35546875,0.0,0,0
1766593542.972608,1766593542.9331527,-987.3046875,-86.42578125,-40.52734375,-104.4921875,0.0,0,0
1766593542.9726331,1766593542.937049,195.80078125,-26.3671875,14.6484375,-82.03125,0.0,0,0
1766593542.972703,1766593542.9409451,-802.734375,23.92578125,16.11328125,-52.24609375,0.0,0,0
1766593542.9727309,1766593542.9448414,337.890625,-20.01953125,-46.38671875,-57.12890625,0.0,0,0
1766593542.972755,1766593542.9487376,-956.54296875,-85.9375,-113.28125,-118.1640625,0.0,0,0
1766593543.0176508,1766593542.9527342,-1000.0,-95.703125,-91.796875,-154.296875,0.0,0,0
1766593543.0177548,1766593542.9566305,27.83203125,-13.18359375,-3.90625,-125.48828125,0.0,0,0
1766593543.017798,1766593542.9605267,-821.77734375,53.7109375,41.50390625,-51.7578125,0.0,0,0
1766593543.0178418,1766593542.9644232,442.87109375,20.01953125,-40.52734375,-31.25,0.0,0,0
1766593543.017938,1766593542.9683194,-862.3046875,-70.80078125,-131.34765625,-91.796875,0.0,0,0
1766593543.017993,1766593542.9722157,-1000.0,-96.6796875,-69.3359375,-122.55859375,0.0,0,0
1766593543.018036,1766593542.976112,-99.609375,-31.73828125,25.390625,-87.40234375,0.0,0,0
1766593543.0180821,1766593542.9800084,-881.8359375,2.44140625,52.24609375,-40.0390625,0.0,0,0
1766593543.018126,1766593542.9839046,703.125,-34.1796875,-11.23046875,-17.578125,0.0,0,0
1766593543.018168,1766593542.9878008,-592.28515625,-66.89453125,-100.09765625,-57.6171875,0.0,0,0
1766593543.01821,1766593542.991697,-1000.0,-84.9609375,-104.4921875,-111.328125,0.0,0,0
1766593543.0182521,1766593542.9955935,-164.0625,-26.85546875,-22.4609375,-88.8671875,0.0,0,0
1766593543.0614321,1766593542.99958,-932.12890625,59.5703125,52.734375,-37.109375,0.0,0,0
1766593543.0614889,1766593543.0034761,853.02734375,51.26953125,0.0,-19.04296875,0.0,0,0
1766593543.0615208,1766593543.0073724,-378.90625,-17.578125,-94.23828125,-50.78125,0.0,0,0
1766593543.061555,1766593543.0112689,-1000.0,-102.5390625,-90.33203125,-83.984375,0.0,0,0
1766593543.061586,1766593543.015165,-271.484375,-94.7265625,-24.4140625,-88.37890625,0.0,0,0
1766593543.0616162,1766593543.0190613,997.55859375,15.13671875,43.9453125,-37.59765625,0.0,0,0
1766593543.061698,1766593543.0229578,978.02734375,55.17578125,23.92578125,12.6953125,0.0,0,0
1766593543.062203,1766593543.026854,-178.22265625,-13.18359375,-100.5859375,-15.625,0.0,0,0
1766593543.062248,1766593543.0307503,-1000.0,-68.84765625,-138.671875,-85.44921875,0.0,0,0
1766593543.062282,1766593543.0346467,-359.375,-48.828125,-20.5078125,-103.515625,0.0,0,0
1766593543.0623128,1766593543.038543,920.8984375,15.625,67.87109375,-68.359375,0.0,0,0
1766593543.0623438,1766593543.0424392,-925.29296875,28.80859375,26.85546875,-32.2265625,0.0,0,0
1766593543.106907,1766593543.0464125,20.99609375,-35.64453125,-70.80078125,-52.734375,0.0,0,0
1766593543.107018,1766593543.050309,-1000.0,-70.3125,-131.8359375,-105.95703125,0.0,0,0
1766593543.107062,1766593543.0542052,-536.62109375,-67.3828125,-86.42578125,-77.63671875,0.0,0,0
1766593543.1071,1766593543.0581014,774.4140625,-28.80859375,18.5546875,-34.1796875,0.0,0,0
1766593543.107143,1766593543.061998,-866.69921875,22.4609375,32.2265625,-25.390625,0.0,0,0
1766593543.1071842,1766593543.0658941,104.4921875,7.32421875,-50.78125,-45.41015625,0.0,0,0
1766593543.107222,1766593543.0697906,-1000.0,-70.3125,-101.07421875,-90.33203125,0.0,0,0
1766593543.107258,1766593543.0736868,-783.203125,-113.76953125,-57.6171875,-105.46875,0.0,0,0
1766593543.107295,1766593543.077583,501.46484375,-36.62109375,12.20703125,-63.96484375,0.0,0,0
1766593543.107334,1766593543.0814795,-813.4765625,32.2265625,19.04296875,-17.578125,0.0,0,0
1766593543.107394,1766593543.0853758,175.78125,-0.48828125,-47.8515625,-30.76171875,0.0,0,0
1766593543.107431,1766593543.089272,-1000.0,-75.1953125,-110.3515625,-79.58984375,0.0,0,0
1766593543.1670022,1766593543.0932386,-934.5703125,-72.75390625,-60.546875,-88.37890625,0.0,0,0
1766593543.1671622,1766593543.097135,274.90234375,-20.01953125,46.875,-37.59765625,0.0,0,0
1766593543.1672199,1766593543.1010313,-797.36328125,43.9453125,61.03515625,1.953125,0.0,0,0
1766593543.167273,1766593543.1049278,282.2265625,51.26953125,-31.73828125,-3.90625,0.0,0,0
1766593543.1673222,1766593543.108824,-996.09375,-62.98828125,-120.1171875,-52.24609375,0.0,0,0
1766593543.167371,1766593543.1127203,-1000.0,-119.62890625,-86.42578125,-96.6796875,0.0,0,0
1766593543.167419,1766593543.1166167,73.2421875,-49.31640625,15.13671875,-81.54296875,0.0,0,0
1766593543.16747,1766593543.120513,-812.5,14.16015625,36.62109375,-37.109375,0.0,0,0
1766593543.167524,1766593543.1244094,397.94921875,16.6015625,-29.296875,-20.01953125,0.0,0,0
1766593543.1675699,1766593543.1283057,-895.5078125,-84.9609375,-121.58203125,-74.21875,0.0,0,0
1766593543.1676202,1766593543.1322021,-1000.0,-139.16015625,-105.46875,-110.83984375,0.0,0,0
1766593543.1676679,1766593543.1360984,-99.609375,-50.29296875,4.39453125,-59.5703125,0.0,0,0
1766593543.256253,1766593543.140135,-854.00390625,20.01953125,32.2265625,-20.5078125,0.0,0,0
1766593543.256404,1766593543.1440313,579.1015625,10.7421875,-33.69140625,-30.2734375,0.0,0,0
1766593543.2564878,1766593543.1479278,-731.93359375,-39.55078125,-83.984375,-60.546875,0.0,0,0
1766593543.256611,1766593543.151824,-1000.0,-96.19140625,-45.41015625,-60.05859375,0.0,0,0
1766593543.256688,1766593543.1557205,-180.17578125,-66.40625,15.625,-45.8984375,0.0,0,0
1766593543.2567601,1766593543.1596167,-914.55078125,27.34375,14.16015625,-23.4375,0.0,0,0
1766593543.2568269,1766593543.1635132,778.3203125,25.390625,-33.69140625,9.765625,0.0,0,0
1766593543.256892,1766593543.1674094,-501.953125,-48.33984375,-103.02734375,-23.92578125,0.0,0,0
1766593543.2569568,1766593543.171306,-1000.0,-90.33203125,-130.859375,-86.9140625,0.0,0,0
1766593543.2570229,1766593543.1752021,-235.3515625,-87.890625,-30.76171875,-73.73046875,0.0,0,0
1766593543.2570949,1766593543.1790986,-978.515625,-12.20703125,41.50390625,-30.76171875,0.0,0,0
1766593543.257196,1766593543.1829948,935.05859375,28.80859375,3.90625,-6.34765625,0.0,0,0
1766593543.258676,1766593543.18703,-250.48828125,-16.11328125,-80.56640625,-24.90234375,0.0,0,0
1766593543.258732,1766593543.1909263,-1000.0,-75.1953125,-116.69921875,-85.9375,0.0,0,0
1766593543.258772,1766593543.1948228,-354.98046875,-76.171875,-48.33984375,-103.515625,0.0,0,0
1766593543.258811,1766593543.198719,932.12890625,2.9296875,33.69140625,-46.875,0.0,0,0
1766593543.258848,1766593543.2026155,-951.171875,68.359375,26.3671875,-2.9296875,0.0,0,0
1766593543.2588851,1766593543.206512,-43.9453125,0.48828125,-61.03515625,-26.85546875,0.0,0,0
1766593543.258923,1766593543.2104082,-1000.0,-108.88671875,-97.65625,-60.05859375,0.0,0,0
1766593543.258962,1766593543.2143047,-474.12109375,-62.98828125,-28.80859375,-62.98828125,0.0,0,0
1766593543.259001,1766593543.218201,833.49609375,6.8359375,30.76171875,-10.25390625,0.0,0,0
1766593543.25905,1766593543.2220974,-887.20703125,20.5078125,-12.6953125,20.99609375,0.0,0,0
1766593543.2590878,1766593543.2259939,71.2890625,-20.99609375,-95.703125,-8.30078125,0.0,0,0
1766593543.259125,1766593543.22989,-1000.0,-102.05078125,-117.1875,-56.640625,0.0,0,0
1766593543.301721,1766593543.2339008,-694.82421875,-80.078125,-42.48046875,-74.70703125,0.0,0,0
1766593543.301823,1766593543.2377973,605.95703125,4.39453125,47.36328125,-38.0859375,0.0,0,0
1766593543.3018649,1766593543.2416935,-831.0546875,62.01171875,42.96875,1.953125,0.0,0,0
1766593543.301911,1766593543.24559,133.7890625,22.4609375,-42.96875,-9.27734375,0.0,0,0
1766593543.301952,1766593543.2494864,-1000.0,-60.05859375,-93.75,-57.6171875,0.0,0,0
1766593543.301991,1766593543.2533827,-906.73828125,-75.1953125,-80.078125,-60.546875,0.0,0,0
1766593543.30203,1766593543.2572792,311.5234375,-35.64453125,-18.06640625,-22.4609375,0.0,0,0
1766593543.302067,1766593543.2611756,-797.36328125,13.18359375,23.92578125,10.25390625,0.0,0,0
1766593543.302104,1766593543.2650719,229.98046875,-10.25390625,-45.8984375,3.90625,0.0,0,0
1766593543.302142,1766593543.2689683,-1000.0,-82.03125,-87.890625,-43.9453125,0.0,0,0
1766593543.302179,1766593543.2728648,-1000.0,-104.4921875,-31.25,-71.77734375,0.0,0,0
1766593543.302214,1766593543.276761,95.21484375,-57.6171875,32.71484375,-46.38671875,0.0,0,0
1766593543.3475552,1766593543.2807655,-804.19921875,18.5546875,51.26953125,4.39453125,0.0,0,0
1766593543.347619,1766593543.284662,327.63671875,41.015625,-15.625,8.30078125,0.0,0,0
1766593543.3476532,1766593543.2885585,-951.66015625,-29.296875,-99.12109375,-50.78125,0.0,0,0
1766593543.3476841,1766593543.292455,-1000.0,-99.12109375,-91.796875,-84.9609375,0.0,0,0
1766593543.347753,1766593543.2963512,-73.73046875,-58.10546875,-8.30078125,-53.22265625,0.0,0,0
1766593543.347816,1766593543.3002477,-840.8203125,16.6015625,65.4296875,-4.39453125,0.0,0,0
1766593543.34785,1766593543.3041441,522.4609375,33.203125,1.953125,19.04296875,0.0,0,0
1766593543.347882,1766593543.3080404,-785.64453125,-17.08984375,-108.88671875,-25.87890625,0.0,0,0
1766593543.347914,1766593543.3119369,-1000.0,-108.3984375,-127.44140625,-117.67578125,0.0,0,0
1766593543.347944,1766593543.3158333,-177.24609375,-96.6796875,-28.80859375,-117.1875,0.0,0,0
1766593543.347975,1766593543.3197298,-894.04296875,20.5078125,36.62109375,-53.7109375,0.0,0,0
1766593543.348005,1766593543.323626,699.70703125,6.34765625,-36.1328125,-74.70703125,0.0,0,0
1766593543.391665,1766593543.3276222,-598.14453125,-94.23828125,-98.6328125,-106.4453125,0.0,0,0
1766593543.3917801,1766593543.3315187,-1000.0,-98.6328125,-95.703125,-111.328125,0.0,0,0
1766593543.391808,1766593543.3354151,-238.76953125,-58.10546875,-31.73828125,-110.3515625,0.0,0,0
1766593543.391833,1766593543.3393116,-966.30859375,-3.41796875,27.34375,-62.5,0.0,0,0
1766593543.391859,1766593543.343208,894.53125,2.44140625,-4.39453125,-29.296875,0.0,0,0
1766593543.391883,1766593543.3471043,-322.265625,-30.76171875,-66.89453125,-47.36328125,0.0,0,0
1766593543.391907,1766593543.3510008,-1000.0,-61.5234375,-93.75,-77.63671875,0.0,0,0
1766593543.3919308,1766593543.3548973,-363.76953125,-81.0546875,-62.98828125,-77.63671875,0.0,0,0
1766593543.391955,1766593543.3587937,937.5,-12.6953125,21.97265625,-41.50390625,0.0,0,0
1766593543.3919811,1766593543.3626902,-981.4453125,25.87890625,11.23046875,-8.30078125,0.0,0,0
1766593543.3920069,1766593543.3665864,-122.55859375,-42.96875,-70.80078125,-30.2734375,0.0,0,0
1766593543.3920388,1766593543.370483,-1000.0,-99.609375,-77.1484375,-65.91796875,0.0,0,0
1766593543.437015,1766593543.3744693,-494.62890625,-87.40234375,-19.53125,-72.265625,0.0,0,0
1766593543.437136,1766593543.3783658,808.10546875,-23.4375,43.9453125,-43.9453125,0.0,0,0
1766593543.4371798,1766593543.382262,-887.20703125,35.64453125,28.3203125,-8.7890625,0.0,0,0
1766593543.437269,1766593543.3861585,53.7109375,-7.8125,-67.87109375,-39.0625,0.0,0,0
1766593543.43733,1766593543.390055,-1000.0,-96.6796875,-117.1875,-101.07421875,0.0,0,0
1766593543.4373708,1766593543.3939514,-678.7109375,-98.14453125,-54.19921875,-106.93359375,0.0,0,0
1766593543.437411,1766593543.397848,623.53515625,-23.92578125,18.5546875,-29.78515625,0.0,0,0
1766593543.437449,1766593543.4017444,-837.40234375,45.41015625,13.18359375,12.20703125,0.0,0,0
1766593543.437488,1766593543.4056408,121.09375,12.6953125,-55.6640625,-20.99609375,0.0,0,0
1766593543.437526,1766593543.409537,-1000.0,-99.12109375,-98.14453125,-57.6171875,0.0,0,0
1766593543.4375622,1766593543.4134336,-847.65625,-112.79296875,-72.265625,-62.98828125,0.0,0,0
1766593543.437599,1766593543.41733,406.73828125,-3.41796875,25.390625,-15.625,0.0,0,0
1766593543.482839,1766593543.4213078,-804.6875,52.24609375,64.94140625,13.671875,0.0,0,0
1766593543.482979,1766593543.4252043,191.89453125,-6.8359375,-18.06640625,-20.99609375,0.0,0,0
1766593543.483107,1766593543.4291008,-1000.0,-68.84765625,-105.46875,-67.3828125,0.0,0,0
1766593543.483165,1766593543.4329972,-982.421875,-106.93359375,-64.94140625,-73.2421875,0.0,0,0
1766593543.4832199,1766593543.4368937,175.29296875,-30.76171875,20.99609375,-34.66796875,0.0,0,0
1766593543.4832692,1766593543.4407902,-801.7578125,51.26953125,49.31640625,11.23046875,0.0,0,0
1766593543.483317,1766593543.4446867,320.80078125,32.71484375,-10.25390625,0.48828125,0.0,0,0
1766593543.4833658,1766593543.448583,-960.44921875,-63.4765625,-125.0,-44.921875,0.0,0,0
1766593543.483414,1766593543.4524794,-1000.0,-102.5390625,-108.3984375,-72.265625,0.0,0,0
1766593543.4834602,1766593543.4563758,-18.5546875,-27.83203125,-5.859375,-53.7109375,0.0,0,0
1766593543.483506,1766593543.4602723,-830.56640625,45.41015625,35.15625,3.41796875,0.0,0,0
1766593543.483552,1766593543.4641688,473.14453125,37.59765625,-20.5078125,22.94921875,0.0,0,0
1766593543.558749,1766593543.4682953,-826.66015625,-56.15234375,-88.8671875,-14.16015625,0.0,0,0
1766593543.558892,1766593543.4721918,-1000.0,-187.5,-62.01171875,-83.0078125,0.0,0,0
1766593543.558935,1766593543.4760883,-147.4609375,-132.8125,18.5546875,-92.28515625,0.0,0,0
1766593543.558974,1766593543.4799848,-875.9765625,8.30078125,58.59375,-30.2734375,0.0,0,0
1766593543.5590122,1766593543.4838812,645.5078125,39.0625,6.8359375,-7.8125,0.0,0,0
1766593543.559049,1766593543.4877777,-657.2265625,3.90625,-59.5703125,-38.0859375,0.0,0,0
1766593543.559086,1766593543.4916742,-1000.0,-65.91796875,-86.42578125,-71.2890625,0.0,0,0
1766593543.559123,1766593543.4955707,-203.61328125,-55.6640625,-43.45703125,-69.82421875,0.0,0,0
1766593543.55916,1766593543.4994671,-934.5703125,32.71484375,18.5546875,-37.109375,0.0,0,0
1766593543.559199,1766593543.5033636,825.68359375,64.94140625,0.48828125,-28.80859375,0.0,0,0
1766593543.559241,1766593543.50726,-429.19921875,10.7421875,-67.87109375,-51.26953125,0.0,0,0
1766593543.559278,1766593543.5111566,-1000.0,-70.80078125,-97.16796875,-61.5234375,0.0,0,0
1766593543.588368,1766593543.5151963,-262.6953125,-58.10546875,-24.4140625,-42.48046875,0.0,0,0
1766593543.588531,1766593543.5190928,996.09375,12.6953125,12.6953125,-9.765625,0.0,0,0
1766593543.588591,1766593543.5229893,980.95703125,44.43359375,-22.4609375,18.06640625,0.0,0,0
1766593543.588644,1766593543.5268857,-157.71484375,-10.25390625,-44.921875,-0.48828125,0.0,0,0
1766593543.588696,1766593543.5307822,-1000.0,-98.14453125,-47.36328125,-51.26953125,0.0,0,0
1766593543.588747,1766593543.5346787,-421.38671875,-78.125,19.53125,-51.7578125,0.0,0,0
1766593543.5887969,1766593543.5385752,884.27734375,2.9296875,44.921875,-13.671875,0.0,0,0
1766593543.588844,1766593543.542472,-928.7109375,56.640625,-6.8359375,1.953125,0.0,0,0
1766593543.588902,1766593543.5463684,-20.99609375,9.27734375,-62.98828125,-6.34765625,0.0,0,0
1766593543.58895,1766593543.5502648,-1000.0,-97.16796875,-96.6796875,-42.96875,0.0,0,0
1766593543.5889971,1766593543.5541613,-561.5234375,-115.234375,-45.8984375,-57.6171875,0.0,0,0
1766593543.58905,1766593543.5580578,749.0234375,-19.53125,47.8515625,-23.92578125,0.0,0,0
1766593543.632475,1766593543.562082,-861.81640625,60.05859375,45.8984375,0.0,0.0,0,0
1766593543.632601,1766593543.5659785,93.26171875,-11.71875,-78.61328125,-35.64453125,0.0,0,0
1766593543.632643,1766593543.569875,-1000.0,-113.28125,-149.90234375,-55.6640625,0.0,0,0
1766593543.632682,1766593543.5737715,-776.85546875,-106.93359375,-69.3359375,-45.8984375,0.0,0,0
1766593543.6327229,1766593543.5776682,503.90625,-16.6015625,41.015625,-39.0625,0.0,0,0
1766593543.6327622,1766593543.5815647,-816.40625,58.10546875,37.59765625,-2.44140625,0.0,0,0
1766593543.6328,1766593543.5854611,158.203125,26.85546875,-57.12890625,-8.30078125,0.0,0,0
1766593543.6328378,1766593543.5893576,-1000.0,-41.50390625,-116.69921875,-67.3828125,0.0,0,0
1766593543.632875,1766593543.593254,-931.640625,-97.16796875,-59.08203125,-95.21484375,0.0,0,0
1766593543.6329238,1766593543.5971508,270.01953125,-71.2890625,49.31640625,-50.29296875,0.0,0,0
1766593543.632961,1766593543.6010473,-797.8515625,14.6484375,54.6875,17.08984375,0.0,0,0
1766593543.63301,1766593543.6049438,262.20703125,-0.9765625,-41.50390625,-0.48828125,0.0,0,0
1766593543.677136,1766593543.6089537,-1000.0,-93.75,-115.72265625,-51.26953125,0.0,0,0
1766593543.677394,1766593543.6128504,-1000.0,-111.81640625,-94.23828125,-62.5,0.0,0,0
1766593543.6774669,1766593543.616747,47.8515625,-14.6484375,-25.87890625,-68.359375,0.0,0,0
1766593543.6775382,1766593543.6206434,-812.5,45.41015625,3.41796875,-28.3203125,0.0,0,0
1766593543.6776462,1766593543.6245399,386.71875,20.99609375,-55.17578125,-10.7421875,0.0,0,0
1766593543.677732,1766593543.6284366,-907.71484375,-57.12890625,-95.703125,-39.0625,0.0,0,0
1766593543.677789,1766593543.632333,-1000.0,-103.515625,-55.17578125,-53.22265625,0.0,0,0
1766593543.677842,1766593543.6362295,-91.30859375,-41.9921875,21.97265625,-27.34375,0.0,0,0
1766593543.6778939,1766593543.640126,-848.6328125,19.04296875,46.875,-1.953125,0.0,0,0
1766593543.677946,1766593543.6440227,553.7109375,7.8125,-25.390625,7.32421875,0.0,0,0
1766593543.677996,1766593543.6479192,-758.30078125,-39.55078125,-93.75,-16.11328125,0.0,0,0
1766593543.678051,1766593543.6518157,-1000.0,-84.9609375,-63.4765625,-72.265625,0.0,0,0
1766593543.722502,1766593543.6558206,-164.0625,-98.14453125,20.01953125,-80.56640625,0.0,0,0
1766593543.722661,1766593543.659717,-913.0859375,-19.53125,52.24609375,-38.0859375,0.0,0,0
1766593543.722705,1766593543.6636138,780.2734375,61.03515625,-12.20703125,-10.7421875,0.0,0,0
1766593543.722743,1766593543.6675103,-487.79296875,4.39453125,-99.12109375,-53.22265625,0.0,0,0
1766593543.722784,1766593543.6714067,-1000.0,-88.37890625,-106.4453125,-90.33203125,0.0,0,0
1766593543.722826,1766593543.6753035,-254.39453125,-97.16796875,-65.91796875,-88.37890625,0.0,0,0
1766593543.7228642,1766593543.6792,-975.09765625,-3.41796875,-6.34765625,-43.45703125,0.0,0,0
1766593543.722901,1766593543.6830964,909.66796875,35.15625,-0.48828125,-18.5546875,0.0,0,0
1766593543.7229671,1766593543.6869931,-301.7578125,-50.29296875,-50.29296875,-34.66796875,0.0,0,0
1766593543.723006,1766593543.6908896,-1000.0,-104.98046875,-67.3828125,-44.43359375,0.0,0,0
1766593543.723042,1766593543.694786,-359.86328125,-85.44921875,-13.671875,-42.48046875,0.0,0,0
1766593543.723079,1766593543.6986828,929.19921875,-33.69140625,64.94140625,-7.8125,0.0,0,0
1766593543.767872,1766593543.7026787,-957.51953125,31.73828125,42.96875,16.6015625,0.0,0,0
1766593543.768031,1766593543.7065754,-61.5234375,22.4609375,-47.36328125,1.953125,0.0,0,0
1766593543.768081,1766593543.7104719,-1000.0,-62.98828125,-95.21484375,-41.9921875,0.0,0,0
1766593543.768121,1766593543.7143683,-460.44921875,-60.546875,-44.921875,-44.921875,0.0,0,0
1766593543.768161,1766593543.718265,843.75,-32.71484375,35.15625,-18.5546875,0.0,0,0
1766593543.768725,1766593543.7221615,-895.01953125,17.578125,16.11328125,-10.25390625,0.0,0,0
1766593543.7687669,1766593543.7260582,55.17578125,9.765625,-84.9609375,-30.76171875,0.0,0,0
1766593543.768805,1766593543.7299547,-1000.0,-116.69921875,-125.0,-55.6640625,0.0,0,0
1766593543.768842,1766593543.7338512,-676.26953125,-127.44140625,-57.12890625,-63.96484375,0.0,0,0
1766593543.7688808,1766593543.737748,625.9765625,-16.6015625,42.96875,-30.76171875,0.0,0,0
1766593543.768917,1766593543.7416444,-834.9609375,32.2265625,27.83203125,9.765625,0.0,0,0
1766593543.768953,1766593543.745541,143.5546875,-15.13671875,-60.546875,2.9296875,0.0,0,0
1766593543.8552399,1766593543.7495267,-1000.0,-84.47265625,-117.1875,-33.69140625,0.0,0,0
1766593543.8553731,1766593543.7534232,-831.0546875,-83.984375,-76.66015625,-53.22265625,0.0,0,0
1766593543.855428,1766593543.75732,429.6875,0.48828125,53.7109375,-11.23046875,0.0,0,0
1766593543.8554828,1766593543.7612164,-808.10546875,13.18359375,72.265625,35.64453125,0.0,0,0
1766593543.855537,1766593543.765113,236.81640625,-20.01953125,-43.9453125,14.6484375,0.0,0,0
1766593543.855587,1766593543.7690096,-1000.0,-32.2265625,-108.88671875,-30.76171875,0.0,0,0
1766593543.85569,1766593543.7729063,-987.3046875,-48.33984375,-78.61328125,-82.03125,0.0,0,0
1766593543.8558002,1766593543.7768028,179.6875,-38.0859375,-6.8359375,-74.21875,0.0,0,0
1766593543.855871,1766593543.7806993,-806.640625,3.90625,19.04296875,-18.5546875,0.0,0,0
1766593543.855937,1766593543.784596,347.16796875,22.4609375,-23.92578125,-6.34765625,0.0,0,0
1766593543.856002,1766593543.7884924,-940.91796875,-56.640625,-84.9609375,-33.203125,0.0,0,0
1766593543.8560681,1766593543.7923892,-1000.0,-130.859375,-79.1015625,-62.01171875,0.0,0,0
1766593543.872006,1766593543.7964406,-22.94921875,-65.91796875,6.34765625,-42.96875,0.0,0,0
1766593543.8720891,1766593543.8003373,-840.33203125,42.96875,36.62109375,10.25390625,0.0,0,0
1766593543.872142,1766593543.8042338,525.87890625,69.3359375,-22.4609375,20.99609375,0.0,0,0
1766593543.872193,1766593543.8081305,-779.296875,-33.69140625,-83.984375,-11.71875,0.0,0,0
1766593543.872305,1766593543.812027,-1000.0,-82.51953125,-60.05859375,-46.38671875,0.0,0,0
1766593543.87237,1766593543.8159237,-131.8359375,-21.484375,30.76171875,-28.3203125,0.0,0,0
1766593543.872413,1766593543.8198202,-890.13671875,-12.20703125,26.3671875,-4.8828125,0.0,0,0
1766593543.872452,1766593543.8237169,718.75,-19.53125,-36.1328125,-13.18359375,0.0,0,0
1766593543.872489,1766593543.8276134,-571.2890625,-40.52734375,-68.84765625,-41.015625,0.0,0,0
1766593543.8725262,1766593543.83151,-1000.0,-74.70703125,-58.10546875,-83.984375,0.0,0,0
1766593543.872571,1766593543.8354065,-199.21875,-31.73828125,1.953125,-53.22265625,0.0,0,0
1766593543.872627,1766593543.8393033,-939.94140625,10.7421875,34.66796875,3.90625,0.0,0,0
1766593543.918155,1766593543.8432777,849.12109375,14.16015625,-28.3203125,5.859375,0.0,0,0
1766593543.918296,1766593543.8471744,-387.6953125,-28.3203125,-92.7734375,-27.34375,0.0,0,0
1766593543.918354,1766593543.851071,-1000.0,-86.9140625,-103.02734375,-95.21484375,0.0,0,0
1766593543.918405,1766593543.8549676,-282.71484375,-64.453125,-55.6640625,-105.46875,0.0,0,0
1766593543.918457,1766593543.8588643,979.98046875,-20.99609375,22.94921875,-28.80859375,0.0,0,0
1766593543.9185112,1766593543.8627608,-996.09375,20.5078125,26.3671875,46.875,0.0,0,0
1766593543.918561,1766593543.8666575,-112.3046875,15.13671875,-48.828125,38.57421875,0.0,0,0
1766593543.918612,1766593543.870554,-1000.0,-84.9609375,-92.28515625,-17.578125,0.0,0,0
1766593543.918669,1766593543.8744507,-459.9609375,-119.62890625,-44.921875,-41.9921875,0.0,0,0
1766593543.918732,1766593543.8783474,848.6328125,-45.8984375,30.76171875,-42.48046875,0.0,0,0
1766593543.918785,1766593543.8822439,-908.69140625,36.1328125,32.71484375,-24.4140625,0.0,0,0
1766593543.918835,1766593543.8861406,19.04296875,11.71875,-58.10546875,-26.3671875,0.0,0,0
1766593543.9629178,1766593543.8901722,-1000.0,-92.7734375,-101.5625,-65.4296875,0.0,0,0
1766593543.96304,1766593543.894069,-559.5703125,-122.55859375,-16.11328125,-35.64453125,0.0,0,0
1766593543.9630988,1766593543.8979654,751.953125,0.48828125,45.41015625,25.390625,0.0,0,0
1766593543.963157,1766593543.9018621,-861.81640625,79.1015625,10.25390625,33.69140625,0.0,0,0
1766593543.963209,1766593543.9057589,105.46875,20.5078125,-63.4765625,-9.27734375,0.0,0,0
1766593543.963261,1766593543.9096553,-1000.0,-66.40625,-104.98046875,-77.1484375,0.0,0,0
1766593543.963316,1766593543.913552,-785.64453125,-79.58984375,-44.921875,-89.35546875,0.0,0,0
1766593543.963368,1766593543.9174488,489.2578125,-17.578125,16.6015625,-46.875,0.0,0,0
1766593543.963418,1766593543.9213452,-813.96484375,36.1328125,-6.8359375,-11.23046875,0.0,0,0
1766593543.963468,1766593543.925242,195.3125,1.953125,-61.03515625,-9.27734375,0.0,0,0
1766593543.9635189,1766593543.9291387,-1000.0,-65.91796875,-83.0078125,-32.2265625,0.0,0,0
1766593543.9635682,1766593543.9330351,-942.3828125,-86.9140625,-50.29296875,-22.4609375,0.0,0,0
1766593544.006819,1766593543.937053,258.30078125,-33.203125,8.7890625,-16.11328125,0.0,0,0
1766593544.006933,1766593543.9409497,-799.31640625,31.73828125,23.4375,-23.4375,0.0,0,0
1766593544.006975,1766593543.9448464,279.78515625,11.23046875,-28.80859375,-30.2734375,0.0,0,0
1766593544.007016,1766593543.948743,-990.72265625,-71.2890625,-91.30859375,-58.10546875,0.0,0,0
1766593544.007054,1766593543.9526396,-1000.0,-118.65234375,-63.4765625,-77.1484375,0.0,0,0
1766593544.007091,1766593543.9565363,31.73828125,-46.38671875,67.87109375,-46.38671875,0.0,0,0
1766593544.007128,1766593543.960433,-815.4296875,47.8515625,103.515625,-24.4140625,0.0,0,0
1766593544.007165,1766593543.9643297,401.3671875,12.20703125,20.01953125,-53.7109375,0.0,0,0
1766593544.0072021,1766593543.9682262,-891.6015625,-76.171875,-97.16796875,-95.21484375,0.0,0,0
1766593544.0072389,1766593543.972123,-1000.0,-119.140625,-88.8671875,-139.6484375,0.0,0,0
1766593544.007276,1766593543.9760196,-120.60546875,-90.33203125,36.62109375,-151.3671875,0.0,0,0
1766593544.007313,1766593543.9799163,-856.4453125,-25.87890625,114.74609375,-134.27734375,0.0,0,0
1766593544.066415,1766593543.9839308,567.87109375,-29.78515625,68.359375,-107.91015625,0.0,0,0
1766593544.066582,1766593543.9878275,-739.74609375,-101.5625,-2.9296875,-125.0,0.0,0,0
1766593544.0666418,1766593543.9917243,-1000.0,-155.2734375,11.23046875,-161.1328125,0.0,0,0
1766593544.066698,1766593543.995621,-188.4765625,-118.65234375,72.75390625,-139.16015625,0.0,0,0
1766593544.066751,1766593543.9995177,-918.45703125,-53.7109375,106.93359375,-80.56640625,0.0,0,0
1766593544.066804,1766593544.0034142,780.76171875,-26.3671875,78.125,-47.36328125,0.0,0,0
1766593544.066855,1766593544.0073109,-490.234375,-67.87109375,-7.8125,-71.77734375,0.0,0,0
1766593544.066907,1766593544.0112076,-1000.0,-226.5625,-44.921875,-98.14453125,0.0,0,0
1766593544.066967,1766593544.0151043,-268.5546875,-220.21484375,47.36328125,-70.80078125,0.0,0,0
1766593544.06702,1766593544.019001,-993.1640625,-54.6875,130.37109375,-41.50390625,0.0,0,0
1766593544.0670989,1766593544.0228975,942.3828125,-19.04296875,124.51171875,-24.4140625,0.0,0,0
1766593544.0671492,1766593544.0267942,-239.2578125,-58.59375,-1.953125,-43.9453125,0.0,0,0
1766593544.096831,1766593544.0307975,-1000.0,-129.8828125,-22.4609375,-49.8046875,0.0,0,0
1766593544.096952,1766593544.0346942,-352.05078125,-152.34375,68.84765625,-30.2734375,0.0,0,0
1766593544.096998,1766593544.038591,923.33984375,-80.56640625,107.91015625,14.16015625,0.0,0,0
1766593544.09704,1766593544.0424874,-932.6171875,-15.625,57.6171875,58.10546875,0.0,0,0
1766593544.097079,1766593544.046384,10.7421875,-57.12890625,-28.80859375,47.36328125,0.0,0,0
1766593544.097151,1766593544.0502808,-1000.0,-110.83984375,-55.6640625,21.97265625,0.0,0,0
1766593544.097186,1766593544.0541775,-502.44140625,-74.21875,8.30078125,12.6953125,0.0,0,0
1766593544.097216,1766593544.0580742,801.7578125,-66.40625,55.6640625,78.61328125,0.0,0,0
1766593544.097245,1766593544.061971,-871.58203125,-44.43359375,33.203125,119.62890625,0.0,0,0
1766593544.0972748,1766593544.0658677,130.37109375,-25.390625,-26.3671875,98.14453125,0.0,0,0
1766593544.0976572,1766593544.0697644,-1000.0,-96.19140625,-49.8046875,43.9453125,0.0,0,0
1766593544.0976892,1766593544.0736609,-673.33984375,-126.953125,-7.32421875,17.578125,0.0,0,0
1766593544.158014,1766593544.0777304,635.7421875,-41.50390625,62.5,64.94140625,0.0,0,0
1766593544.1581829,1766593544.0816271,-834.47265625,19.04296875,66.40625,100.5859375,0.0,0,0
1766593544.158242,1766593544.0855238,209.9609375,-0.48828125,-37.109375,107.421875,0.0,0,0
1766593544.158298,1766593544.0894206,-1000.0,-60.05859375,-122.55859375,57.12890625,0.0,0,0
1766593544.1583512,1766593544.0933173,-849.12109375,-92.28515625,-44.921875,-3.41796875,0.0,0,0
1766593544.158404,1766593544.097214,419.921875,-34.1796875,76.66015625,16.11328125,0.0,0,0
1766593544.158456,1766593544.1011107,-810.546875,32.2265625,62.01171875,58.59375,0.0,0,0
1766593544.158507,1766593544.1050074,297.36328125,0.48828125,-31.73828125,31.25,0.0,0,0
1766593544.158559,1766593544.1089041,-1000.0,-104.00390625,-89.35546875,-5.37109375,0.0,0,0
1766593544.158609,1766593544.1128008,-997.0703125,-152.34375,-53.7109375,8.7890625,0.0,0,0
1766593544.1586602,1766593544.1166975,187.5,-58.10546875,16.6015625,31.73828125,0.0,0,0
1766593544.15871,1766593544.1205943,-825.1953125,61.5234375,21.97265625,49.31640625,0.0,0,0
1766593544.188836,1766593544.1245813,461.42578125,57.6171875,-51.26953125,48.33984375,0.0,0,0
1766593544.1889741,1766593544.128478,-844.7265625,-43.9453125,-101.07421875,20.01953125,0.0,0,0
1766593544.189051,1766593544.1323748,-1000.0,-90.33203125,-65.4296875,-10.7421875,0.0,0,0
1766593544.189177,1766593544.1362715,-13.671875,-46.38671875,4.8828125,-32.71484375,0.0,0,0
1766593544.1892369,1766593544.1401682,-867.67578125,14.6484375,25.87890625,-1.953125,0.0,0,0
1766593544.18929,1766593544.144065,649.4140625,33.203125,-27.83203125,33.69140625,0.0,0,0
1766593544.1893408,1766593544.1479616,-640.625,-28.80859375,-108.3984375,-28.3203125,0.0,0,0
1766593544.1893928,1766593544.1518583,-1000.0,-81.54296875,-113.28125,-81.0546875,0.0,0,0
1766593544.189505,1766593544.155755,-119.140625,-59.08203125,-31.25,-42.48046875,0.0,0,0
1766593544.189564,1766593544.1596518,-912.109375,-9.27734375,26.85546875,11.71875,0.0,0,0
1766593544.1896162,1766593544.1635485,811.03515625,28.3203125,-16.6015625,24.90234375,0.0,0,0
1766593544.1896698,1766593544.1674452,-435.05859375,-0.9765625,-101.07421875,-25.390625,0.0,0,0
1766593544.234103,1766593544.1714187,-1000.0,-81.0546875,-98.6328125,-64.94140625,0.0,0,0
1766593544.234184,1766593544.1753154,-192.87109375,-82.51953125,-18.5546875,-47.8515625,0.0,0,0
1766593544.23422,1766593544.179212,-961.42578125,7.32421875,39.0625,1.953125,0.0,0,0
1766593544.234252,1766593544.1831088,925.78125,24.90234375,-1.46484375,22.4609375,0.0,0,0
1766593544.234284,1766593544.1870055,-244.62890625,-51.26953125,-125.9765625,0.9765625,0.0,0,0
1766593544.234317,1766593544.1909022,-1000.0,-51.7578125,-149.4140625,-35.64453125,0.0,0,0
1766593544.234347,1766593544.194799,-299.8046875,-41.50390625,-19.04296875,-51.7578125,0.0,0,0
1766593544.234378,1766593544.1986957,973.14453125,-16.6015625,85.9375,-11.71875,0.0,0,0
1766593544.2344089,1766593544.2025924,-978.02734375,27.34375,29.78515625,-18.5546875,0.0,0,0
1766593544.234439,1766593544.206489,-73.73046875,-42.96875,-73.73046875,-68.359375,0.0,0,0
1766593544.2344692,1766593544.2103858,-1000.0,-132.32421875,-76.66015625,-67.3828125,0.0,0,0
1766593544.234498,1766593544.2142825,-383.30078125,-99.12109375,-22.94921875,-58.59375,0.0,0,0
1766593544.2929568,1766593544.2182467,904.78515625,0.48828125,2.44140625,-50.78125,0.0,0,0
1766593544.293065,1766593544.2221434,-908.203125,38.57421875,-17.08984375,-27.83203125,0.0,0,0
1766593544.293107,1766593544.2260401,70.80078125,-14.6484375,-77.1484375,-24.4140625,0.0,0,0
1766593544.29315,1766593544.229937,-1000.0,-80.56640625,-105.95703125,-60.546875,0.0,0,0
1766593544.293188,1766593544.2338338,-545.41015625,-63.4765625,-65.91796875,-80.078125,0.0,0,0
1766593544.293227,1766593544.2377305,765.625,-6.8359375,24.4140625,-13.671875,0.0,0,0
1766593544.293264,1766593544.2416272,-859.375,59.5703125,28.80859375,38.0859375,0.0,0,0
1766593544.293303,1766593544.245524,151.85546875,55.6640625,-57.6171875,-1.46484375,0.0,0,0
1766593544.29334,1766593544.2494206,-1000.0,-41.50390625,-106.4453125,-51.7578125,0.0,0,0
1766593544.2933812,1766593544.2533174,-759.765625,-63.4765625,-63.96484375,-74.21875,0.0,0,0
1766593544.293417,1766593544.257214,531.25,-3.41796875,26.3671875,-37.109375,0.0,0,0
1766593544.293453,1766593544.261111,-819.3359375,51.7578125,56.15234375,44.43359375,0.0,0,0
1766593544.337357,1766593544.2651417,216.796875,26.85546875,-57.6171875,38.0859375,0.0,0,0
1766593544.337485,1766593544.2690387,-1000.0,-55.17578125,-180.17578125,-52.24609375,0.0,0,0
1766593544.3375292,1766593544.2729354,-926.26953125,-32.71484375,-114.74609375,-109.375,0.0,0,0
1766593544.33757,1766593544.276832,301.26953125,29.78515625,22.94921875,-72.265625,0.0,0,0
1766593544.337609,1766593544.2807288,-803.22265625,14.6484375,36.62109375,17.578125,0.0,0,0
1766593544.3376472,1766593544.2846255,309.08203125,5.37109375,-31.25,5.859375,0.0,0,0
1766593544.337684,1766593544.2885225,-977.5390625,-1.46484375,-93.75,-99.12109375,0.0,0,0
1766593544.3377228,1766593544.2924192,-1000.0,-44.43359375,-74.70703125,-134.27734375,0.0,0,0
1766593544.33777,1766593544.296316,77.63671875,-15.13671875,21.97265625,-87.40234375,0.0,0,0
1766593544.337826,1766593544.3002126,-818.84765625,61.03515625,41.015625,-22.4609375,0.0,0,0
1766593544.337863,1766593544.3041093,433.59375,67.87109375,-27.34375,0.0,0.0,0,0
1766593544.337899,1766593544.3080063,-874.0234375,-6.8359375,-72.75390625,-60.546875,0.0,0,0
1766593544.3829062,1766593544.3120272,-1000.0,-76.66015625,-35.15625,-101.5625,0.0,0,0
1766593544.383056,1766593544.315924,-58.10546875,-40.0390625,26.3671875,-68.84765625,0.0,0,0
1766593544.383243,1766593544.3198206,-856.4453125,54.19921875,50.29296875,-6.34765625,0.0,0,0
1766593544.3832881,1766593544.3237174,592.28515625,53.22265625,12.6953125,9.27734375,0.0,0,0
1766593544.383341,1766593544.3276143,-706.54296875,-36.62109375,-74.70703125,-68.359375,0.0,0,0
1766593544.383379,1766593544.331511,-1000.0,-76.66015625,-77.63671875,-141.11328125,0.0,0,0
1766593544.38342,1766593544.3354077,-174.31640625,-30.2734375,-3.41796875,-118.1640625,0.0,0,0
1766593544.383457,1766593544.3393044,-909.66796875,44.921875,37.109375,-43.9453125,0.0,0,0
1766593544.383494,1766593544.3432014,765.13671875,64.94140625,2.44140625,-8.7890625,0.0,0,0
1766593544.383531,1766593544.347098,-511.23046875,-22.4609375,-81.54296875,-53.7109375,0.0,0,0
1766593544.383567,1766593544.3509948,-1000.0,-102.05078125,-114.74609375,-119.62890625,0.0,0,0
1766593544.38362,1766593544.3548918,-251.46484375,-45.8984375,-26.3671875,-105.46875,0.0,0,0
1766593544.457047,1766593544.3590474,-984.86328125,35.64453125,26.85546875,-44.921875,0.0,0,0
1766593544.457206,1766593544.3629444,938.96484375,54.19921875,-18.06640625,-5.37109375,0.0,0,0
1766593544.457263,1766593544.366841,-246.09375,-18.06640625,-73.2421875,-27.83203125,0.0,0,0
1766593544.457314,1766593544.3707378,-1000.0,-102.05078125,-98.6328125,-97.16796875,0.0,0,0
1766593544.457365,1766593544.3746347,-355.46875,-84.9609375,-29.296875,-105.95703125,0.0,0,0
1766593544.457417,1766593544.3785315,937.98828125,34.1796875,40.0390625,-73.2421875,0.0,0,0
1766593544.4574668,1766593544.3824284,-965.33203125,106.93359375,22.94921875,-39.0625,0.0,0,0
1766593544.457515,1766593544.3863251,-82.03125,7.32421875,-55.6640625,-44.921875,0.0,0,0
1766593544.4575622,1766593544.3902218,-1000.0,-92.28515625,-117.67578125,-92.28515625,0.0,0,0
1766593544.457609,1766593544.3941188,-538.57421875,-96.6796875,-72.75390625,-104.4921875,0.0,0,0
1766593544.457657,1766593544.3980155,771.484375,-31.25,25.390625,-52.24609375,0.0,0,0
1766593544.457705,1766593544.4019125,-875.9765625,26.85546875,34.66796875,-7.32421875,0.0,0,0
1766593544.4732559,1766593544.4059196,60.546875,5.37109375,-37.59765625,-29.296875,0.0,0,0
1766593544.4733849,1766593544.4098163,-1000.0,-79.58984375,-87.890625,-66.89453125,0.0,0,0
1766593544.473444,1766593544.4137132,-720.703125,-108.88671875,-60.05859375,-74.21875,0.0,0,0
1766593544.474099,1766593544.41761,571.77734375,-20.99609375,-4.8828125,-34.66796875,0.0,0,0
1766593544.474157,1766593544.421507,-826.171875,40.52734375,-6.34765625,-26.85546875,0.0,0,0
1766593544.474211,1766593544.4254036,139.6484375,-26.85546875,-48.33984375,-59.08203125,0.0,0,0
1766593544.474266,1766593544.4293005,-1000.0,-72.75390625,-96.6796875,-93.75,0.0,0,0
1766593544.474315,1766593544.4331973,-902.83203125,-59.5703125,-94.7265625,-108.88671875,0.0,0,0
1766593544.474366,1766593544.4370942,323.73046875,17.578125,-30.2734375,-88.8671875,0.0,0,0
1766593544.474415,1766593544.440991,-798.828125,115.234375,8.7890625,-57.6171875,0.0,0,0
1766593544.4744651,1766593544.4448879,225.09765625,20.01953125,-41.015625,-26.3671875,0.0,0,0
1766593544.474516,1766593544.4487846,-1000.0,-91.30859375,-79.1015625,-52.734375,0.0,0,0
1766593544.518134,1766593544.4527767,-1000.0,-91.30859375,-40.52734375,-95.703125,0.0,0,0
1766593544.518284,1766593544.4566736,149.90234375,-68.84765625,49.31640625,-57.6171875,0.0,0,0
1766593544.518343,1766593544.4605703,-804.19921875,1.46484375,82.03125,-0.48828125,0.0,0,0
1766593544.518396,1766593544.4644673,340.8203125,13.671875,-8.30078125,10.25390625,0.0,0,0
1766593544.518448,1766593544.4683642,-938.4765625,-61.03515625,-107.421875,-60.05859375,0.0,0,0
1766593544.5184991,1766593544.472261,-1000.0,-104.98046875,-106.4453125,-105.95703125,0.0,0,0
1766593544.51855,1766593544.476158,-73.2421875,-81.0546875,-42.96875,-87.890625,0.0,0,0
1766593544.5186,1766593544.4800546,-834.47265625,-19.53125,-3.90625,-84.9609375,0.0,0,0
1766593544.51865,1766593544.4839516,485.83984375,-5.859375,-23.92578125,-70.3125,0.0,0,0
1766593544.5187001,1766593544.4878483,-825.1953125,-57.6171875,-104.00390625,-81.0546875,0.0,0,0
1766593544.518751,1766593544.4917452,-1000.0,-80.56640625,-92.28515625,-103.515625,0.0,0,0
1766593544.518799,1766593544.495642,-154.78515625,-24.90234375,-7.32421875,-86.9140625,0.0,0,0
1766593544.5750568,1766593544.4996252,-886.23046875,35.15625,-15.13671875,-53.22265625,0.0,0,0
1766593544.575167,1766593544.503522,690.91796875,-3.41796875,-54.6875,-29.296875,0.0,0,0
1766593544.5752661,1766593544.5074189,-609.86328125,-74.70703125,-67.87109375,-51.26953125,0.0,0,0
1766593544.575386,1766593544.5113158,-1000.0,-101.07421875,-55.17578125,-97.16796875,0.0,0,0
1766593544.5754619,1766593544.5152125,-239.74609375,-83.49609375,-3.41796875,-91.796875,0.0,0,0
1766593544.57553,1766593544.5191095,-958.0078125,8.30078125,55.6640625,-43.9453125,0.0,0,0
1766593544.5756001,1766593544.5230062,866.2109375,86.42578125,27.34375,-20.01953125,0.0,0,0
1766593544.575665,1766593544.5269032,-375.48828125,-20.01953125,-63.96484375,-54.6875,0.0,0,0
1766593544.5757298,1766593544.5308,-1000.0,-134.765625,-107.421875,-108.3984375,0.0,0,0
1766593544.575792,1766593544.5346968,-307.6171875,-92.28515625,-60.05859375,-94.23828125,0.0,0,0
1766593544.5758731,1766593544.5385938,976.5625,3.41796875,39.0625,-41.015625,0.0,0,0
1766593544.575936,1766593544.5424905,990.234375,9.27734375,32.71484375,-18.06640625,0.0,0,0
1766593544.607403,1766593544.5464582,-156.25,-50.29296875,-80.56640625,-50.78125,0.0,0,0
1766593544.607521,1766593544.550355,-1000.0,-117.1875,-128.41796875,-87.890625,0.0,0,0
1766593544.607579,1766593544.554252,-457.03125,-91.30859375,-53.22265625,-83.49609375,0.0,0,0
1766593544.6076329,1766593544.5581489,845.21484375,-22.94921875,41.50390625,-59.08203125,0.0,0,0
1766593544.6076841,1766593544.5620456,-906.25,5.859375,32.71484375,-34.1796875,0.0,0,0
1766593544.6077352,1766593544.5659425,20.5078125,-30.2734375,-51.26953125,-56.15234375,0.0,0,0
1766593544.607786,1766593544.5698395,-1000.0,-106.93359375,-79.58984375,-108.88671875,0.0,0,0
1766593544.607841,1766593544.5737362,-624.0234375,-107.421875,-47.8515625,-124.0234375,0.0,0,0
1766593544.6078951,1766593544.5776331,682.12890625,-20.01953125,31.73828125,-96.19140625,0.0,0,0
1766593544.607945,1766593544.58153,-847.65625,19.53125,50.78125,-83.984375,0.0,0,0
1766593544.608,1766593544.5854268,110.83984375,-41.9921875,-35.15625,-103.515625,0.0,0,0
1766593544.608049,1766593544.5893238,-1000.0,-107.421875,-104.4921875,-130.859375,0.0,0,0
1766593544.667445,1766593544.593286,-821.2890625,-111.81640625,-79.1015625,-124.51171875,0.0,0,0
1766593544.667574,1766593544.5971828,445.80078125,-41.50390625,-12.20703125,-84.9609375,0.0,0,0
1766593544.6676302,1766593544.6010797,-807.6171875,36.62109375,26.85546875,-46.38671875,0.0,0,0
1766593544.667684,1766593544.6049767,187.98828125,3.90625,-39.0625,-44.43359375,0.0,0,0
1766593544.667735,1766593544.6088734,-1000.0,-91.796875,-111.328125,-94.23828125,0.0,0,0
1766593544.667787,1766593544.6127703,-960.9375,-142.08984375,-36.62109375,-120.1171875,0.0,0,0
1766593544.667839,1766593544.6166673,219.23828125,-117.67578125,44.921875,-82.51953125,0.0,0,0
1766593544.6678898,1766593544.620564,-798.33984375,-31.73828125,34.1796875,-34.1796875,0.0,0,0
1766593544.667943,1766593544.624461,268.06640625,-5.859375,-9.27734375,-31.25,0.0,0,0
1766593544.667993,1766593544.628358,-993.1640625,-67.3828125,-52.24609375,-84.9609375,0.0,0,0
1766593544.668046,1766593544.6322546,-1000.0,-123.53515625,-82.03125,-149.90234375,0.0,0,0
1766593544.6680949,1766593544.6361516,-2.44140625,-98.14453125,-23.4375,-145.5078125,0.0,0,0
1766593544.7545521,1766593544.6401806,-822.75390625,-28.3203125,23.92578125,-82.03125,0.0,0,0
1766593544.754693,1766593544.6440773,439.453125,-3.90625,-52.734375,-56.15234375,0.0,0,0
1766593544.754752,1766593544.6479743,-866.2109375,-75.68359375,-117.67578125,-73.73046875,0.0,0,0
1766593544.754807,1766593544.6518712,-1000.0,-121.58203125,-113.28125,-84.47265625,0.0,0,0
1766593544.75486,1766593544.6557682,-99.609375,-64.94140625,-49.31640625,-60.05859375,0.0,0,0
1766593544.754912,1766593544.6596649,-863.28125,3.41796875,27.34375,-19.04296875,0.0,0,0
1766593544.7549691,1766593544.6635618,613.28125,-9.765625,20.5078125,-42.48046875,0.0,0,0
1766593544.755033,1766593544.6674588,-690.4296875,-96.6796875,-28.80859375,-100.09765625,0.0,0,0
1766593544.7550888,1766593544.6713557,-1000.0,-153.80859375,-50.29296875,-128.90625,0.0,0,0
1766593544.755213,1766593544.6752524,-190.4296875,-114.2578125,-20.01953125,-114.74609375,0.0,0,0
1766593544.7553,1766593544.6791494,-925.29296875,-21.484375,19.04296875,-46.875,0.0,0,0
1766593544.755371,1766593544.6830463,808.59375,0.9765625,-12.20703125,-14.16015625,0.0,0,0
1766593544.759218,1766593544.6870656,-457.51953125,-64.94140625,-77.1484375,-36.62109375,0.0,0,0
1766593544.759357,1766593544.6909626,-1000.0,-129.39453125,-80.078125,-81.54296875,0.0,0,0
1766593544.7594318,1766593544.6948595,-239.2578125,-86.9140625,-2.44140625,-68.84765625,0.0,0,0
1766593544.7595022,1766593544.6987565,-990.72265625,1.46484375,54.6875,-2.44140625,0.0,0,0
1766593544.759582,1766593544.7026534,962.40234375,20.99609375,18.5546875,46.38671875,0.0,0,0
1766593544.7596512,1766593544.7065504,-181.640625,-28.3203125,-65.91796875,43.9453125,0.0,0,0
1766593544.759725,1766593544.710447,-1000.0,-76.66015625,-90.33203125,-23.92578125,0.0,0,0
1766593544.7597902,1766593544.714344,-385.7421875,-71.2890625,-35.64453125,-82.51953125,0.0,0,0
1766593544.759873,1766593544.718241,908.69140625,-25.390625,14.6484375,-63.96484375,0.0,0,0
1766593544.759936,1766593544.722138,-930.17578125,0.0,0.48828125,-26.85546875,0.0,0,0
1766593544.760015,1766593544.7260349,0.0,-14.16015625,-59.08203125,-53.22265625,0.0,0,0
1766593544.760076,1766593544.7299316,-1000.0,-43.45703125,-96.6796875,-117.67578125,0.0,0,0
1766593544.802817,1766593544.7339408,-528.80859375,-41.015625,-57.6171875,-146.97265625,0.0,0,0
1766593544.802974,1766593544.7378378,784.66796875,10.7421875,7.32421875,-108.3984375,0.0,0,0
1766593544.803042,1766593544.7417347,-877.44140625,53.22265625,0.0,-74.21875,0.0,0,0
1766593544.803107,1766593544.7456317,71.77734375,18.06640625,-75.68359375,-111.81640625,0.0,0,0
1766593544.803172,1766593544.7495286,-1000.0,-50.78125,-116.69921875,-164.0625,0.0,0,0
1766593544.8032482,1766593544.7534256,-729.00390625,-46.38671875,-64.94140625,-202.63671875,0.0,0,0
1766593544.803315,1766593544.7573225,565.91796875,23.4375,-4.8828125,-180.17578125,0.0,0,0
1766593544.8040588,1766593544.7612195,-823.73046875,81.0546875,-19.53125,-140.625,0.0,0,0
1766593544.804128,1766593544.7651165,142.578125,48.33984375,-94.23828125,-189.453125,0.0,0,0
1766593544.804194,1766593544.7690132,-1000.0,-20.99609375,-139.6484375,-254.39453125,0.0,0,0
1766593544.8042722,1766593544.77291,-934.08203125,-27.34375,-102.5390625,-273.4375,0.0,0,0
1766593544.804335,1766593544.776807,260.7421875,15.13671875,-26.3671875,-246.09375,0.0,0,0
1766593544.847442,1766593544.7808034,-798.33984375,78.125,-10.7421875,-212.890625,0.0,0,0
1766593544.847562,1766593544.7847004,244.140625,84.9609375,-87.890625,-223.6328125,0.0,0,0
1766593544.84762,1766593544.7885973,-1000.0,34.66796875,-140.625,-261.23046875,0.0,0,0
1766593544.8476732,1766593544.7924943,-1000.0,-17.08984375,-119.62890625,-284.66796875,0.0,0,0
1766593544.847724,1766593544.7963912,107.421875,16.11328125,-53.7109375,-229.00390625,0.0,0,0
1766593544.8477771,1766593544.8002882,-805.17578125,84.47265625,-7.8125,-146.97265625,0.0,0,0
1766593544.847828,1766593544.8041852,352.05078125,91.796875,-60.546875,-120.1171875,0.0,0,0
1766593544.847879,1766593544.808082,-930.17578125,45.41015625,-172.8515625,-184.08203125,0.0,0,0
1766593544.847931,1766593544.811979,-1000.0,-19.53125,-199.70703125,-256.8359375,0.0,0,0
1766593544.84798,1766593544.815876,-92.28515625,16.11328125,-111.81640625,-225.09765625,0.0,0,0
1766593544.848031,1766593544.819773,-845.703125,131.8359375,-80.078125,-147.94921875,0.0,0,0
1766593544.8480809,1766593544.82367,541.9921875,130.859375,-103.515625,-83.0078125,0.0,0,0
1766593544.892192,1766593544.8276567,-772.94921875,27.83203125,-145.5078125,-117.1875,0.0,0,0
1766593544.892328,1766593544.8315537,-1000.0,-36.1328125,-140.13671875,-159.1796875,0.0,0,0
1766593544.8923872,1766593544.8354506,-150.87890625,-23.4375,-54.19921875,-98.14453125,0.0,0,0
1766593544.892443,1766593544.8393476,-899.4140625,60.05859375,4.39453125,-10.7421875,0.0,0,0
1766593544.8924952,1766593544.8432446,746.58203125,73.73046875,-41.015625,35.15625,0.0,0,0
1766593544.8925471,1766593544.8471415,-541.50390625,12.6953125,-126.953125,6.8359375,0.0,0,0
1766593544.892599,1766593544.8510385,-1000.0,-18.06640625,-129.8828125,-57.12890625,0.0,0,0
1766593544.892649,1766593544.8549354,-203.125,-20.5078125,-57.12890625,-70.80078125,0.0,0,0
1766593544.8927,1766593544.8588324,-961.42578125,41.9921875,-0.48828125,3.90625,0.0,0,0
1766593544.8927512,1766593544.8627293,914.0625,86.42578125,-30.76171875,69.82421875,0.0,0,0
1766593544.892801,1766593544.8666263,-282.2265625,21.484375,-96.6796875,35.64453125,0.0,0,0
1766593544.892846,1766593544.8705232,-1000.0,-58.59375,-113.28125,-22.94921875,0.0,0,0
1766593544.936629,1766593544.8745012,-286.1328125,-54.19921875,-31.73828125,-0.9765625,0.0,0,0
1766593544.9367738,1766593544.8783982,979.98046875,52.734375,49.8046875,62.01171875,0.0,0,0
1766593544.936833,1766593544.8822951,-985.83984375,79.1015625,3.90625,76.171875,0.0,0,0
1766593544.936887,1766593544.886192,-95.703125,-16.11328125,-94.7265625,28.3203125,0.0,0,0
1766593544.9369442,1766593544.890089,-1000.0,-96.19140625,-112.3046875,0.0,0.0,0,0
1766593544.9369972,1766593544.893986,-432.12890625,-87.890625,-71.77734375,6.34765625,0.0,0,0
1766593544.9370492,1766593544.897883,864.2578125,6.8359375,6.8359375,51.26953125,0.0,0,0
1766593544.9371,1766593544.90178,-895.99609375,48.33984375,21.97265625,104.00390625,0.0,0,0
1766593544.937155,1766593544.905677,71.77734375,-3.41796875,-77.63671875,97.16796875,0.0,0,0
1766593544.937216,1766593544.909574,-1000.0,-74.70703125,-120.1171875,40.0390625,0.0,0,0
1766593544.937265,1766593544.913471,-644.04296875,-103.515625,-48.828125,-9.765625,0.0,0,0
1766593544.937314,1766593544.917368,674.31640625,-25.390625,7.8125,6.8359375,0.0,0,0
1766593544.981482,1766593544.9213352,-844.7265625,55.17578125,28.3203125,61.5234375,0.0,0,0
1766593544.9815931,1766593544.9252322,120.1171875,5.859375,-19.04296875,45.41015625,0.0,0,0
1766593544.9816508,1766593544.9291291,-1000.0,-94.7265625,-83.49609375,-30.2734375,0.0,0,0
1766593544.981705,1766593544.933026,-782.2265625,-127.9296875,-48.828125,-50.29296875,0.0,0,0
1766593544.9817579,1766593544.936923,504.39453125,-62.5,45.8984375,11.23046875,0.0,0,0
1766593544.9818099,1766593544.9408202,-812.98828125,43.45703125,28.80859375,66.89453125,0.0,0,0
1766593544.981864,1766593544.9447172,193.84765625,36.62109375,-85.44921875,58.59375,0.0,0,0
1766593544.981915,1766593544.9486141,-1000.0,-103.02734375,-105.95703125,0.48828125,0.0,0,0
