timestamp,lsl_timestamp,TP9,AF7,AF8,TP10,Right AUX,keypress_A,keypress_B
1766594178.057411,1766594177.9851885,-400.87890625,-1000.0,-15.13671875,-41.015625,0.0,0,0
1766594178.057614,1766594177.9890835,625.48828125,164.55078125,20.01953125,-11.71875,0.0,0,0
1766594178.057647,1766594177.9929788,541.9921875,-924.8046875,-30.76171875,2.9296875,0.0,0,0
1766594178.057674,1766594177.9968739,-435.05859375,-937.5,-57.12890625,0.9765625,0.0,0,0
1766594178.0577002,1766594178.0007691,-980.46875,-44.921875,-58.59375,-27.34375,0.0,0,0
1766594178.057724,1766594178.0046642,-412.109375,-1000.0,-16.11328125,-33.203125,0.0,0,0
1766594178.057747,1766594178.0085595,561.03515625,395.01953125,23.4375,-4.39453125,0.0,0,0
1766594178.057771,1766594178.0124545,544.43359375,-776.3671875,-12.20703125,2.44140625,0.0,0,0
1766594178.057795,1766594178.0163498,-365.72265625,441.40625,-62.98828125,-4.8828125,0.0,0,0
1766594178.057819,1766594178.0202448,-1000.0,-836.9140625,-80.078125,-47.8515625,0.0,0,0
1766594178.0578408,1766594178.02414,-623.53515625,-1000.0,-29.296875,-55.6640625,0.0,0,0
1766594178.057864,1766594178.0280352,522.94921875,-386.71875,11.71875,-20.5078125,0.0,0,0
1766594178.102952,1766594178.032079,758.30078125,870.1171875,-7.8125,-3.41796875,0.0,0,0
1766594178.103065,1766594178.0359743,-159.66796875,-871.58203125,-46.875,-20.5078125,0.0,0,0
1766594178.10313,1766594178.0398695,-966.30859375,205.56640625,-64.94140625,-60.546875,0.0,0,0
1766594178.103173,1766594178.0437646,-700.68359375,-1000.0,-39.0625,-74.21875,0.0,0,0
1766594178.103211,1766594178.0476599,403.80859375,-206.54296875,11.23046875,-42.48046875,0.0,0,0
1766594178.103252,1766594178.051555,704.1015625,-991.69921875,15.625,11.23046875,0.0,0,0
1766594178.1032891,1766594178.0554502,-157.71484375,-920.8984375,-44.43359375,3.90625,0.0,0,0
1766594178.1033258,1766594178.0593452,-856.4453125,109.375,-79.1015625,-42.48046875,0.0,0,0
1766594178.103363,1766594178.0632405,-563.4765625,-1000.0,-51.26953125,-63.96484375,0.0,0,0
1766594178.103404,1766594178.0671356,298.828125,-1000.0,-16.6015625,-39.55078125,0.0,0,0
1766594178.1034398,1766594178.0710309,721.6796875,-266.6015625,-8.30078125,-0.9765625,0.0,0,0
1766594178.10348,1766594178.074926,175.29296875,-832.03125,-22.4609375,-5.37109375,0.0,0,0
1766594178.193258,1766594178.0792215,-745.60546875,406.25,-52.24609375,-30.76171875,0.0,0,0
1766594178.193397,1766594178.0831168,-750.9765625,-931.15234375,-47.8515625,-45.8984375,0.0,0,0
1766594178.1934562,1766594178.087012,147.94921875,-1000.0,-12.20703125,-28.3203125,0.0,0,0
1766594178.1935098,1766594178.0909073,734.86328125,-255.859375,5.859375,9.765625,0.0,0,0
1766594178.193562,1766594178.0948024,145.99609375,996.58203125,-12.6953125,24.4140625,0.0,0,0
1766594178.193693,1766594178.0986977,-736.81640625,965.33203125,-47.8515625,-22.4609375,0.0,0,0
1766594178.193742,1766594178.102593,-585.9375,938.4765625,-41.50390625,-58.59375,0.0,0,0
1766594178.193779,1766594178.1064882,173.828125,958.49609375,-11.23046875,-37.59765625,0.0,0,0
1766594178.19382,1766594178.1103835,643.06640625,935.546875,-13.18359375,-21.484375,0.0,0,0
1766594178.193897,1766594178.1142788,257.8125,-935.05859375,-32.2265625,-10.7421875,0.0,0,0
1766594178.193965,1766594178.1181738,-578.61328125,-100.5859375,-46.38671875,-35.15625,0.0,0,0
1766594178.194006,1766594178.1220691,-709.47265625,-1000.0,-34.1796875,-60.546875,0.0,0,0
1766594178.1962008,1766594178.1261067,-39.55078125,-949.21875,-15.13671875,-48.828125,0.0,0,0
1766594178.196295,1766594178.130002,525.87890625,-993.65234375,3.90625,-21.484375,0.0,0,0
1766594178.196345,1766594178.133897,370.60546875,-1000.0,-1.46484375,2.9296875,0.0,0,0
1766594178.196382,1766594178.1377923,-426.26953125,-930.6640625,-44.921875,-20.5078125,0.0,0,0
1766594178.1964889,1766594178.1416876,-669.43359375,-1000.0,-38.57421875,-45.8984375,0.0,0,0
1766594178.1965299,1766594178.145583,-43.9453125,-331.54296875,-2.9296875,-29.296875,0.0,0,0
1766594178.196567,1766594178.1494782,606.4453125,924.31640625,9.27734375,19.53125,0.0,0,0
1766594178.196621,1766594178.1533735,454.1015625,-937.01171875,-7.8125,37.59765625,0.0,0,0
1766594178.196658,1766594178.1572688,-347.16796875,662.109375,-34.66796875,0.0,0.0,0,0
1766594178.196694,1766594178.161164,-806.15234375,-743.65234375,-31.73828125,-42.96875,0.0,0,0
1766594178.1967301,1766594178.1650593,-312.5,-1000.0,-18.06640625,-46.875,0.0,0,0
1766594178.196765,1766594178.1689546,477.5390625,-936.03515625,4.8828125,-14.6484375,0.0,0,0
1766594178.238048,1766594178.1729627,491.69921875,-1000.0,11.23046875,32.71484375,0.0,0,0
1766594178.238165,1766594178.176858,-197.265625,-1000.0,-24.90234375,28.80859375,0.0,0,0
1766594178.23821,1766594178.1807532,-670.8984375,-935.546875,-28.3203125,-7.32421875,0.0,0,0
1766594178.238322,1766594178.1846485,-328.125,-1000.0,-11.23046875,-20.99609375,0.0,0,0
1766594178.238424,1766594178.1885438,466.796875,-251.46484375,9.27734375,-2.44140625,0.0,0,0
1766594178.238472,1766594178.192439,552.24609375,998.046875,9.27734375,15.13671875,0.0,0,0
1766594178.238511,1766594178.1963344,-156.73828125,946.2890625,-27.83203125,2.44140625,0.0,0,0
1766594178.238549,1766594178.2002296,-730.95703125,987.3046875,-57.12890625,-29.78515625,0.0,0,0
1766594178.238587,1766594178.204125,-532.71484375,-168.45703125,-42.48046875,-43.45703125,0.0,0,0
1766594178.238624,1766594178.2080202,250.48828125,-1000.0,0.9765625,-13.18359375,0.0,0,0
1766594178.238668,1766594178.2119155,562.01171875,-126.46484375,10.25390625,14.6484375,0.0,0,0
1766594178.238705,1766594178.2158108,-54.19921875,-952.63671875,-26.85546875,5.859375,0.0,0,0
1766594178.283259,1766594178.2198093,-735.3515625,946.77734375,-41.015625,-27.83203125,0.0,0,0
1766594178.283378,1766594178.2237046,-473.14453125,948.73046875,-37.59765625,-50.29296875,0.0,0,0
1766594178.283422,1766594178.2275999,287.59765625,950.68359375,-19.04296875,-24.90234375,0.0,0,0
1766594178.2834618,1766594178.2314951,538.57421875,947.265625,-2.9296875,3.41796875,0.0,0,0
1766594178.283503,1766594178.2353904,-36.1328125,-965.33203125,-28.80859375,-19.04296875,0.0,0,0
1766594178.283541,1766594178.239286,-761.23046875,-163.57421875,-38.57421875,-45.8984375,0.0,0,0
1766594178.2835782,1766594178.2431812,-663.0859375,-1000.0,-39.55078125,-46.875,0.0,0,0
1766594178.283616,1766594178.2470765,154.78515625,-946.77734375,-23.92578125,-34.1796875,0.0,0,0
1766594178.283653,1766594178.2509718,661.62109375,-996.09375,-5.37109375,-19.53125,0.0,0,0
1766594178.283689,1766594178.254867,166.9921875,-1000.0,-33.203125,-34.1796875,0.0,0,0
1766594178.283724,1766594178.2587624,-720.703125,-998.53515625,-57.6171875,-51.7578125,0.0,0,0
1766594178.28376,1766594178.2626576,-747.0703125,-941.40625,-44.43359375,-49.8046875,0.0,0,0
1766594178.32931,1766594178.266644,-3.41796875,-1000.0,-18.5546875,-35.15625,0.0,0,0
1766594178.3294349,1766594178.2705393,625.48828125,-176.7578125,-0.9765625,-3.90625,0.0,0,0
1766594178.3294988,1766594178.2744346,336.42578125,-949.70703125,-25.390625,-23.92578125,0.0,0,0
1766594178.329552,1766594178.2783298,-545.41015625,945.3125,-61.5234375,-73.73046875,0.0,0,0
1766594178.329623,1766594178.2822254,-710.44921875,944.3359375,-44.921875,-82.51953125,0.0,0,0
1766594178.329675,1766594178.2861207,-61.03515625,974.609375,-7.32421875,-73.73046875,0.0,0,0
1766594178.329726,1766594178.290016,526.3671875,905.2734375,-4.39453125,-58.10546875,0.0,0,0
1766594178.329775,1766594178.2939112,282.2265625,-893.5546875,-48.828125,-76.66015625,0.0,0,0
1766594178.329825,1766594178.2978065,-616.69921875,187.98828125,-87.40234375,-128.90625,0.0,0,0
1766594178.329875,1766594178.3017018,-834.9609375,-1000.0,-65.4296875,-140.625,0.0,0,0
1766594178.329924,1766594178.305597,-75.1953125,-984.375,-27.34375,-89.35546875,0.0,0,0
1766594178.329974,1766594178.3094923,496.58203125,-973.14453125,-14.6484375,-60.546875,0.0,0,0
1766594178.38699,1766594178.3134673,284.1796875,-1000.0,-18.5546875,-55.17578125,0.0,0,0
1766594178.387153,1766594178.3173625,-441.40625,-1000.0,-39.55078125,-48.33984375,0.0,0,0
1766594178.387211,1766594178.321258,-702.1484375,-937.5,-45.8984375,-66.89453125,0.0,0,0
1766594178.387263,1766594178.3251534,-106.93359375,-1000.0,-19.53125,-61.03515625,0.0,0,0
1766594178.3877041,1766594178.3290486,606.93359375,-219.7265625,-3.41796875,-25.87890625,0.0,0,0
1766594178.3877618,1766594178.332944,489.74609375,976.5625,-22.94921875,-39.55078125,0.0,0,0
1766594178.387836,1766594178.3368392,-289.55078125,-909.66796875,-48.828125,-79.1015625,0.0,0,0
1766594178.3878882,1766594178.3407345,-854.00390625,160.15625,-50.78125,-83.984375,0.0,0,0
1766594178.387938,1766594178.34463,-424.8046875,-1000.0,-25.87890625,-70.3125,0.0,0,0
1766594178.387987,1766594178.3485253,384.765625,-1000.0,-1.953125,-36.1328125,0.0,0,0
1766594178.388035,1766594178.3524206,490.234375,-255.859375,-7.32421875,-10.7421875,0.0,0,0
1766594178.388085,1766594178.3563159,-229.00390625,-898.4375,-35.15625,-29.296875,0.0,0,0
1766594178.462581,1766594178.3602793,-867.1875,783.69140625,-60.546875,-63.4765625,0.0,0,0
1766594178.4628322,1766594178.3641746,-356.93359375,-864.74609375,-39.0625,-82.51953125,0.0,0,0
1766594178.4628968,1766594178.36807,592.28515625,-504.8828125,0.0,-46.875,0.0,0,0
1766594178.463003,1766594178.3719652,719.23828125,-979.4921875,-8.30078125,-1.953125,0.0,0,0
1766594178.463064,1766594178.3758607,-118.1640625,973.14453125,-30.2734375,-16.11328125,0.0,0,0
1766594178.463118,1766594178.379756,-832.51953125,924.31640625,-25.87890625,-32.2265625,0.0,0,0
1766594178.463171,1766594178.3836513,-502.9296875,980.95703125,-21.97265625,-45.8984375,0.0,0,0
1766594178.463222,1766594178.3875465,391.11328125,968.75,-8.7890625,-17.08984375,0.0,0,0
1766594178.463362,1766594178.3914418,571.77734375,905.2734375,-3.41796875,20.99609375,0.0,0,0
1766594178.4634628,1766594178.3953373,-48.828125,-893.5546875,-24.4140625,-1.953125,0.0,0,0
1766594178.463546,1766594178.3992326,-722.16796875,187.5,-43.45703125,-44.43359375,0.0,0,0
1766594178.4636009,1766594178.403128,-626.46484375,-1000.0,-25.390625,-55.6640625,0.0,0,0
1766594178.4775732,1766594178.4070976,236.81640625,-984.375,7.32421875,-8.30078125,0.0,0,0
1766594178.477676,1766594178.4109929,641.6015625,-973.6328125,9.765625,24.4140625,0.0,0,0
1766594178.4777339,1766594178.4148881,121.09375,-1000.0,-7.8125,5.859375,0.0,0,0
1766594178.477786,1766594178.4187834,-644.04296875,-937.5,-41.9921875,-31.25,0.0,0,0
1766594178.477839,1766594178.422679,-678.7109375,-1000.0,-37.59765625,-52.734375,0.0,0,0
1766594178.4778922,1766594178.4265742,111.81640625,-204.58984375,6.34765625,-33.203125,0.0,0,0
1766594178.4779441,1766594178.4304695,686.03515625,969.23828125,3.90625,-3.41796875,0.0,0,0
1766594178.477997,1766594178.4343648,258.7890625,-944.82421875,-23.4375,-2.44140625,0.0,0,0
1766594178.478047,1766594178.4382603,-592.28515625,597.65625,-36.62109375,-20.01953125,0.0,0,0
1766594178.478098,1766594178.4421556,-757.32421875,-750.0,-36.62109375,-46.38671875,0.0,0,0
1766594178.478147,1766594178.446051,15.625,-1000.0,-3.90625,-42.48046875,0.0,0,0
1766594178.478196,1766594178.4499464,649.90234375,-166.015625,-0.48828125,-12.20703125,0.0,0,0
1766594178.523278,1766594178.4539766,340.8203125,971.19140625,-14.16015625,1.46484375,0.0,0,0
1766594178.523393,1766594178.457872,-543.45703125,-928.7109375,-34.1796875,-23.92578125,0.0,0,0
1766594178.523435,1766594178.4617672,-846.6796875,85.44921875,-37.109375,-43.45703125,0.0,0,0
1766594178.5234728,1766594178.4656627,-125.0,-1000.0,-4.8828125,-28.80859375,0.0,0,0
1766594178.523509,1766594178.469558,583.49609375,-1000.0,0.9765625,-3.41796875,0.0,0,0
1766594178.523547,1766594178.4734533,361.328125,182.6171875,-1.953125,-14.6484375,0.0,0,0
1766594178.523583,1766594178.4773488,-431.15234375,-764.6484375,-36.62109375,-56.640625,0.0,0,0
1766594178.5236201,1766594178.481244,-830.078125,127.44140625,-69.82421875,-72.265625,0.0,0,0
1766594178.5236568,1766594178.4851396,-231.93359375,-1000.0,-25.87890625,-42.48046875,0.0,0,0
1766594178.5237,1766594178.489035,554.19921875,-984.375,6.34765625,2.9296875,0.0,0,0
1766594178.523736,1766594178.4929302,375.0,-973.14453125,-28.80859375,-10.25390625,0.0,0,0
1766594178.523772,1766594178.4968257,-446.77734375,-1000.0,-48.828125,-37.109375,0.0,0,0
1766594178.568265,1766594178.500846,-908.203125,-938.96484375,-35.64453125,-55.6640625,0.0,0,0
1766594178.5684211,1766594178.5047412,-335.44921875,-1000.0,-10.7421875,-55.6640625,0.0,0,0
1766594178.5684621,1766594178.5086367,534.1796875,-207.51953125,15.13671875,-10.7421875,0.0,0,0
1766594178.568502,1766594178.512532,482.421875,-957.51953125,17.08984375,11.23046875,0.0,0,0
1766594178.568539,1766594178.5164273,-281.73828125,949.70703125,-31.73828125,-14.16015625,0.0,0,0
1766594178.5685859,1766594178.5203228,-773.92578125,941.89453125,-55.17578125,-35.15625,0.0,0,0
1766594178.568624,1766594178.524218,-382.8125,989.74609375,-34.1796875,-57.6171875,0.0,0,0
1766594178.568662,1766594178.5281136,383.7890625,897.94921875,-10.25390625,-40.0390625,0.0,0,0
1766594178.568699,1766594178.532009,531.73828125,-927.734375,-15.625,-1.953125,0.0,0,0
1766594178.568748,1766594178.5359044,-253.41796875,623.046875,-43.9453125,-14.16015625,0.0,0,0
1766594178.568785,1766594178.5397997,-942.87109375,-821.2890625,-19.04296875,-59.5703125,0.0,0,0
1766594178.56884,1766594178.5436952,-521.97265625,-1000.0,-9.27734375,-86.9140625,0.0,0,0
1766594178.6141398,1766594178.547703,361.81640625,-940.4296875,-11.71875,-47.36328125,0.0,0,0
1766594178.61425,1766594178.5515983,602.5390625,-1000.0,-4.8828125,-29.296875,0.0,0,0
1766594178.614308,1766594178.5554938,-78.61328125,-1000.0,-17.578125,-57.12890625,0.0,0,0
1766594178.61436,1766594178.559389,-799.8046875,-937.5,-61.5234375,-85.44921875,0.0,0,0
1766594178.614411,1766594178.5632846,-630.37109375,-1000.0,-28.80859375,-135.25390625,0.0,0,0
1766594178.614462,1766594178.56718,263.18359375,-218.26171875,12.20703125,-119.140625,0.0,0,0
1766594178.6145148,1766594178.5710754,613.76953125,975.09765625,11.71875,-94.23828125,0.0,0,0
1766594178.6145658,1766594178.5749707,-116.69921875,-909.1796875,-13.18359375,-176.7578125,0.0,0,0
1766594178.614618,1766594178.5788662,-908.69140625,185.05859375,-71.2890625,-218.26171875,0.0,0,0
1766594178.61467,1766594178.5827615,-878.41796875,-1000.0,-37.109375,-259.27734375,0.0,0,0
1766594178.61472,1766594178.586657,-62.01171875,-988.28125,-16.6015625,-250.9765625,0.0,0,0
1766594178.61477,1766594178.5905526,437.01171875,-971.19140625,-7.32421875,-230.95703125,0.0,0,0
1766594178.658036,1766594178.59455,-155.76171875,-1000.0,1.953125,-299.8046875,0.0,0,0
1766594178.658151,1766594178.5984452,-908.69140625,-998.53515625,-46.38671875,-320.3125,0.0,0,0
1766594178.658211,1766594178.6023407,-926.26953125,-941.89453125,0.9765625,-376.46484375,0.0,0,0
1766594178.6582668,1766594178.606236,-215.8203125,-1000.0,42.96875,-395.5078125,0.0,0,0
1766594178.658319,1766594178.6101315,459.9609375,-174.8046875,-5.37109375,-329.58984375,0.0,0,0
1766594178.658375,1766594178.614027,33.203125,-949.70703125,-4.8828125,-355.46875,0.0,0,0
1766594178.658426,1766594178.6179223,-840.33203125,945.3125,38.57421875,-440.91796875,0.0,0,0
1766594178.658477,1766594178.6218178,-893.06640625,944.3359375,-4.8828125,-327.63671875,0.0,0,0
1766594178.658527,1766594178.625713,-252.44140625,981.4453125,-22.4609375,-228.515625,0.0,0,0
1766594178.658592,1766594178.6296086,355.95703125,936.5234375,44.43359375,-263.18359375,0.0,0,0
1766594178.658643,1766594178.6335042,163.0859375,963.8671875,-1.953125,-202.1484375,0.0,0,0
1766594178.658696,1766594178.6373994,-616.69921875,995.1171875,-95.703125,-186.03515625,0.0,0,0
1766594178.716738,1766594178.6413867,-925.78125,-209.9609375,-48.828125,-231.93359375,0.0,0,0
1766594178.716867,1766594178.6452823,-251.953125,-1000.0,34.1796875,-300.29296875,0.0,0,0
1766594178.716921,1766594178.6491776,686.03515625,-197.75390625,-14.16015625,-199.21875,0.0,0,0
1766594178.7169752,1766594178.653073,525.390625,-976.07421875,-86.42578125,53.7109375,0.0,0,0
1766594178.7170272,1766594178.6569686,-456.0546875,957.51953125,-33.69140625,23.4375,0.0,0,0
1766594178.717089,1766594178.6608639,-756.8359375,937.5,-1.46484375,-85.44921875,0.0,0,0
1766594178.717139,1766594178.6647594,-50.78125,990.72265625,-75.68359375,66.89453125,0.0,0,0
1766594178.717189,1766594178.668655,584.47265625,904.296875,-35.64453125,59.5703125,0.0,0,0
1766594178.719124,1766594178.6725502,411.62109375,-948.73046875,-14.6484375,42.48046875,0.0,0,0
1766594178.719208,1766594178.6764457,-372.0703125,700.1953125,-80.56640625,193.359375,0.0,0,0
1766594178.719266,1766594178.6803412,-816.40625,-650.87890625,-72.265625,101.07421875,0.0,0,0
1766594178.7193222,1766594178.6842365,-239.2578125,-1000.0,-3.41796875,-16.6015625,0.0,0,0
1766594178.764292,1766594178.688301,697.265625,-381.8359375,-25.390625,96.19140625,0.0,0,0
1766594178.764443,1766594178.6921966,764.6484375,-994.62890625,-20.01953125,148.92578125,0.0,0,0
1766594178.7645,1766594178.6960921,-242.67578125,847.65625,21.484375,7.8125,0.0,0,0
1766594178.764551,1766594178.6999874,-898.92578125,-526.85546875,-31.25,-57.6171875,0.0,0,0
1766594178.764603,1766594178.703883,-362.3046875,-1000.0,-51.26953125,67.3828125,0.0,0,0
1766594178.764653,1766594178.7077785,684.08203125,-230.46875,-48.33984375,243.65234375,0.0,0,0
1766594178.764704,1766594178.711674,735.3515625,947.265625,-12.20703125,200.68359375,0.0,0,0
1766594178.764755,1766594178.7155695,-159.1796875,-907.71484375,-53.22265625,127.9296875,0.0,0,0
1766594178.7648058,1766594178.7194648,-769.04296875,87.40234375,-76.171875,162.59765625,0.0,0,0
1766594178.764856,1766594178.7233603,-448.73046875,-1000.0,-6.8359375,50.78125,0.0,0,0
1766594178.764905,1766594178.7272558,461.42578125,-1000.0,-20.5078125,47.8515625,0.0,0,0
1766594178.7649531,1766594178.7311513,790.52734375,-84.9609375,-5.859375,185.546875,0.0,0,0
1766594178.8080058,1766594178.7351215,159.66796875,-801.26953125,-40.52734375,213.37890625,0.0,0,0
1766594178.808102,1766594178.7390168,-689.453125,222.16796875,-97.16796875,192.87109375,0.0,0,0
1766594178.808156,1766594178.7429123,-633.7890625,-1000.0,-72.265625,151.3671875,0.0,0,0
1766594178.808207,1766594178.7468078,380.859375,-483.3984375,-10.25390625,149.90234375,0.0,0,0
1766594178.808258,1766594178.7507033,907.71484375,953.125,0.0,196.2890625,0.0,0,0
1766594178.808307,1766594178.7545989,134.765625,923.33984375,-43.45703125,178.22265625,0.0,0,0
1766594178.8083572,1766594178.7584944,-687.01171875,-949.70703125,-50.29296875,116.69921875,0.0,0,0
1766594178.808407,1766594178.7623897,-546.875,424.8046875,-20.01953125,85.44921875,0.0,0,0
1766594178.808457,1766594178.7662852,274.90234375,-977.05078125,3.41796875,118.1640625,0.0,0,0
1766594178.808521,1766594178.7701807,778.3203125,-1000.0,-16.11328125,131.34765625,0.0,0,0
1766594178.8085818,1766594178.7740762,207.03125,-957.51953125,-28.80859375,101.5625,0.0,0,0
1766594178.808652,1766594178.7779717,-610.83984375,-1000.0,-44.43359375,98.14453125,0.0,0,0
1766594178.8525,1766594178.7820103,-571.77734375,-958.0078125,-42.48046875,97.65625,0.0,0,0
1766594178.852583,1766594178.7859056,183.59375,-1000.0,-27.34375,102.5390625,0.0,0,0
1766594178.852609,1766594178.7898011,785.15625,-14.6484375,-16.6015625,112.79296875,0.0,0,0
1766594178.8526342,1766594178.7936966,372.55859375,-916.50390625,-8.30078125,100.09765625,0.0,0,0
1766594178.852659,1766594178.7975922,-631.34765625,925.29296875,-26.85546875,56.15234375,0.0,0,0
1766594178.852684,1766594178.8014877,-778.80859375,955.56640625,-47.8515625,61.03515625,0.0,0,0
1766594178.852708,1766594178.8053832,65.4296875,984.86328125,-37.59765625,90.33203125,0.0,0,0
1766594178.852732,1766594178.8092787,630.37109375,893.5546875,-19.04296875,92.7734375,0.0,0,0
1766594178.852756,1766594178.8131742,276.3671875,-907.2265625,-22.4609375,85.9375,0.0,0,0
1766594178.852779,1766594178.8170698,-460.44921875,514.6484375,-49.31640625,58.59375,0.0,0,0
1766594178.852803,1766594178.8209653,-730.46875,-921.38671875,-57.12890625,31.25,0.0,0,0
1766594178.8528252,1766594178.8248608,-87.890625,-1000.0,-27.34375,36.1328125,0.0,0,0
1766594178.899555,1766594178.8288894,656.73828125,-946.77734375,1.46484375,54.6875,0.0,0,0
1766594178.899667,1766594178.832785,497.55859375,-1000.0,-17.578125,62.98828125,0.0,0,0
1766594178.899724,1766594178.8366804,-379.8828125,-973.14453125,-44.921875,30.76171875,0.0,0,0
1766594178.899777,1766594178.840576,-812.01171875,-985.83984375,-41.50390625,15.625,0.0,0,0
1766594178.89983,1766594178.8444715,-249.51171875,-1000.0,-15.625,26.85546875,0.0,0,0
1766594178.899881,1766594178.848367,664.55078125,177.734375,8.30078125,27.83203125,0.0,0,0
1766594178.8999329,1766594178.8522625,636.23046875,-943.84765625,-0.9765625,53.7109375,0.0,0,0
1766594178.899987,1766594178.856158,-286.62109375,-975.5859375,-45.8984375,41.9921875,0.0,0,0
1766594178.9001138,1766594178.8600535,-863.28125,19.04296875,-59.5703125,-5.859375,0.0,0,0
1766594178.900198,1766594178.863949,-330.56640625,-1000.0,-20.99609375,-12.6953125,0.0,0,0
1766594178.9002519,1766594178.8678446,584.9609375,-1000.0,-5.37109375,26.85546875,0.0,0,0
1766594178.900312,1766594178.87174,676.7578125,-100.5859375,-14.16015625,48.828125,0.0,0,0
1766594178.943122,1766594178.8757582,-143.06640625,-791.015625,-33.69140625,30.2734375,0.0,0,0
1766594178.943298,1766594178.8796537,-813.4765625,152.34375,-42.96875,2.9296875,0.0,0,0
1766594178.9433658,1766594178.8835492,-443.84765625,-1000.0,-25.390625,-5.37109375,0.0,0,0
1766594178.94342,1766594178.8874447,444.82421875,-1000.0,1.953125,4.39453125,0.0,0,0
1766594178.9434721,1766594178.8913403,720.21484375,-49.8046875,-0.48828125,24.4140625,0.0,0,0
1766594178.9435241,1766594178.8952358,-16.6015625,-916.50390625,-24.90234375,25.87890625,0.0,0,0
1766594178.9435751,1766594178.8991313,-766.6015625,919.43359375,-50.78125,-22.4609375,0.0,0,0
1766594178.943618,1766594178.9030268,-552.24609375,-373.53515625,-45.41015625,-50.29296875,0.0,0,0
1766594178.943656,1766594178.9069226,354.00390625,-1000.0,-10.7421875,-27.34375,0.0,0,0
1766594178.9437041,1766594178.910818,783.69140625,-935.546875,5.37109375,13.18359375,0.0,0,0
1766594178.9437408,1766594178.9147136,148.4375,-1000.0,-13.671875,7.32421875,0.0,0,0
1766594178.943796,1766594178.9186091,-660.15625,-990.234375,-42.48046875,-33.203125,0.0,0,0
1766594178.988182,1766594178.922616,-525.390625,-954.58984375,-24.4140625,-33.69140625,0.0,0,0
1766594178.98829,1766594178.9265115,298.33984375,-1000.0,-3.90625,-11.71875,0.0,0,0
1766594178.988411,1766594178.930407,679.6875,-82.03125,-9.765625,-8.7890625,0.0,0,0
1766594178.988468,1766594178.9343028,193.84765625,-917.96875,-16.6015625,-7.32421875,0.0,0,0
1766594178.98852,1766594178.9381983,-570.80078125,977.5390625,-45.41015625,-19.53125,0.0,0,0
1766594178.988572,1766594178.9420938,-680.17578125,-527.83203125,-33.203125,-42.48046875,0.0,0,0
1766594178.988683,1766594178.9459894,234.86328125,-590.8203125,3.90625,-8.30078125,0.0,0,0
1766594178.988781,1766594178.949885,887.20703125,935.546875,-10.25390625,25.390625,0.0,0,0
1766594178.988826,1766594178.9537804,342.7734375,-871.58203125,-41.015625,5.859375,0.0,0,0
1766594178.988866,1766594178.9576762,-598.14453125,125.9765625,-51.7578125,-21.484375,0.0,0,0
1766594178.988905,1766594178.9615717,-753.90625,-995.1171875,-33.203125,-39.55078125,0.0,0,0
1766594178.9889421,1766594178.9654672,63.4765625,-1000.0,-7.8125,-28.3203125,0.0,0,0
1766594179.077219,1766594178.9696414,783.69140625,-711.42578125,-8.30078125,-4.8828125,0.0,0,0
1766594179.0773818,1766594178.973537,464.35546875,679.19921875,-27.34375,5.859375,0.0,0,0
1766594179.077442,1766594178.9774325,-480.46875,-949.21875,-48.828125,-21.484375,0.0,0,0
1766594179.0775628,1766594178.9813282,-619.62890625,905.76171875,-51.26953125,-55.6640625,0.0,0,0
1766594179.0776598,1766594178.9852238,91.796875,991.69921875,-27.34375,-25.390625,0.0,0,0
1766594179.077769,1766594178.9891193,742.1875,895.99609375,5.859375,25.390625,0.0,0,0
1766594179.077856,1766594178.993015,452.1484375,-895.99609375,-20.99609375,20.99609375,0.0,0,0
1766594179.077913,1766594178.9969106,-464.84375,379.39453125,-66.89453125,-26.85546875,0.0,0,0
1766594179.077965,1766594179.000806,-758.30078125,-995.1171875,-58.10546875,-46.875,0.0,0,0
1766594179.078016,1766594179.0047019,-95.21484375,-1000.0,-20.5078125,-24.90234375,0.0,0,0
1766594179.0781162,1766594179.0085974,551.7578125,-957.51953125,-6.34765625,-4.39453125,0.0,0,0
1766594179.078181,1766594179.012493,496.09375,-1000.0,-12.20703125,13.671875,0.0,0,0
1766594179.0792792,1766594179.0164912,-218.75,-1000.0,-36.62109375,2.44140625,0.0,0,0
1766594179.0806332,1766594179.0203867,-670.41015625,-932.12890625,-53.22265625,-55.6640625,0.0,0,0
1766594179.08068,1766594179.0242822,-161.1328125,-1000.0,-36.62109375,-76.66015625,0.0,0,0
1766594179.080718,1766594179.028178,701.171875,-319.82421875,-18.06640625,-19.53125,0.0,0,0
1766594179.080755,1766594179.0320735,659.66796875,-997.55859375,-13.18359375,18.06640625,0.0,0,0
1766594179.0807931,1766594179.0359693,-189.94140625,968.26171875,-24.90234375,5.37109375,0.0,0,0
1766594179.0808299,1766594179.0398648,-692.3828125,932.6171875,-43.9453125,-29.78515625,0.0,0,0
1766594179.080867,1766594179.0437605,-332.51953125,992.67578125,-30.2734375,-33.69140625,0.0,0,0
1766594179.080904,1766594179.047656,476.07421875,899.4140625,-4.8828125,1.46484375,0.0,0,0
1766594179.080938,1766594179.0515516,612.3046875,-934.08203125,-15.13671875,-5.37109375,0.0,0,0
1766594179.080966,1766594179.0554473,-154.296875,649.90234375,-49.31640625,-44.921875,0.0,0,0
1766594179.080995,1766594179.0593429,-797.8515625,-800.78125,-57.12890625,-54.6875,0.0,0,0
1766594179.123242,1766594179.0633185,-442.3828125,-1000.0,-38.0859375,-45.41015625,0.0,0,0
1766594179.123363,1766594179.067214,374.51171875,-1000.0,-15.13671875,-22.94921875,0.0,0,0
1766594179.1234188,1766594179.0711095,686.5234375,-468.75,0.9765625,22.94921875,0.0,0,0
1766594179.123473,1766594179.0750053,100.09765625,-898.4375,-19.04296875,28.3203125,0.0,0,0
1766594179.1235251,1766594179.0789008,-773.92578125,514.16015625,-46.875,-38.57421875,0.0,0,0
1766594179.123577,1766594179.0827966,-668.9453125,-916.015625,-23.92578125,-59.08203125,0.0,0,0
1766594179.1236281,1766594179.086692,263.671875,-1000.0,5.859375,-13.18359375,0.0,0,0
1766594179.1236732,1766594179.0905879,688.96484375,-86.9140625,-7.32421875,18.5546875,0.0,0,0
1766594179.123709,1766594179.0944834,96.19140625,979.98046875,-30.76171875,10.25390625,0.0,0,0
1766594179.123747,1766594179.0983791,-680.17578125,-920.41015625,-32.2265625,-6.8359375,0.0,0,0
1766594179.1237838,1766594179.1022747,-726.07421875,166.50390625,-28.80859375,-27.34375,0.0,0,0
1766594179.123828,1766594179.1061704,26.3671875,-1000.0,-18.06640625,-20.01953125,0.0,0,0
1766594179.1835861,1766594179.1101327,671.38671875,-984.375,-6.8359375,22.94921875,0.0,0,0
1766594179.1837351,1766594179.1140285,209.9609375,-976.5625,-20.01953125,30.2734375,0.0,0,0
1766594179.183794,1766594179.117924,-653.3203125,-990.234375,-32.71484375,2.9296875,0.0,0,0
1766594179.1838331,1766594179.1218197,-809.5703125,-965.33203125,-35.15625,-38.0859375,0.0,0,0
1766594179.183872,1766594179.1257153,-31.25,-1000.0,-24.4140625,-51.26953125,0.0,0,0
1766594179.18391,1766594179.129611,759.27734375,-24.90234375,4.39453125,-2.9296875,0.0,0,0
1766594179.183948,1766594179.1335065,356.93359375,-789.0625,-9.27734375,10.7421875,0.0,0,0
1766594179.183985,1766594179.1374023,-674.8046875,488.76953125,-67.3828125,-35.64453125,0.0,0,0
1766594179.1840231,1766594179.141298,-944.3359375,-822.265625,-69.82421875,-66.89453125,0.0,0,0
1766594179.184062,1766594179.1451936,-74.21875,-1000.0,-15.625,-35.64453125,0.0,0,0
1766594179.1841002,1766594179.1490893,746.09375,-525.87890625,1.953125,0.9765625,0.0,0,0
1766594179.184156,1766594179.1529849,370.60546875,752.44140625,-15.13671875,10.7421875,0.0,0,0
1766594179.227984,1766594179.157022,-588.37890625,-853.515625,-28.80859375,-18.06640625,0.0,0,0
1766594179.228093,1766594179.1609175,-850.5859375,447.75390625,-42.96875,-40.52734375,0.0,0,0
1766594179.228151,1766594179.1648133,-195.80078125,-910.15625,-22.4609375,-19.53125,0.0,0,0
1766594179.228203,1766594179.1687088,580.56640625,-1000.0,-2.9296875,-8.7890625,0.0,0,0
1766594179.228255,1766594179.1726046,398.4375,-947.75390625,-10.7421875,9.27734375,0.0,0,0
1766594179.2283049,1766594179.1765003,-520.5078125,-1000.0,-36.1328125,-10.25390625,0.0,0,0
1766594179.228364,1766594179.1803958,-931.15234375,-933.10546875,-58.59375,-69.82421875,0.0,0,0
1766594179.228415,1766594179.1842916,-350.09765625,-1000.0,-33.203125,-55.6640625,0.0,0,0
1766594179.2284641,1766594179.1881871,614.74609375,-298.33984375,-8.30078125,-7.8125,0.0,0,0
1766594179.2285151,1766594179.192083,672.8515625,-988.76953125,-10.7421875,15.13671875,0.0,0,0
1766594179.2285671,1766594179.1959786,-323.2421875,964.84375,-3.90625,-63.96484375,0.0,0,0
1766594179.228616,1766594179.1998742,-850.5859375,934.5703125,-19.04296875,-80.56640625,0.0,0,0
1766594179.273623,1766594179.2039008,-373.53515625,977.05078125,-35.64453125,-11.23046875,0.0,0,0
1766594179.273729,1766594179.2077966,439.453125,968.75,-11.71875,-18.5546875,0.0,0,0
1766594179.273771,1766594179.2116923,551.7578125,904.78515625,-2.9296875,-33.69140625,0.0,0,0
1766594179.2738109,1766594179.2155879,-214.84375,-894.04296875,5.37109375,-109.86328125,0.0,0,0
1766594179.2738502,1766594179.2194836,-915.0390625,250.48828125,-17.578125,-137.6953125,0.0,0,0
1766594179.273887,1766594179.2233794,-558.59375,-1000.0,-25.390625,-61.03515625,0.0,0,0
1766594179.2739258,1766594179.2272751,499.0234375,-234.375,23.4375,-92.7734375,0.0,0,0
1766594179.273962,1766594179.2311707,693.84765625,-939.94140625,-22.94921875,-121.58203125,0.0,0,0
1766594179.274,1766594179.2350664,-190.91796875,982.91015625,-29.78515625,-90.33203125,0.0,0,0
1766594179.274037,1766594179.2389622,-963.8671875,-290.52734375,-49.8046875,-59.08203125,0.0,0,0
1766594179.274074,1766594179.2428577,-637.6953125,-1000.0,14.6484375,-137.20703125,0.0,0,0
1766594179.2741098,1766594179.2467535,365.234375,-938.96484375,62.5,-157.71484375,0.0,0,0
1766594179.319131,1766594179.2507691,698.73046875,-1000.0,-7.8125,33.203125,0.0,0,0
1766594179.319239,1766594179.254665,-61.5234375,-1000.0,18.5546875,-76.66015625,0.0,0,0
1766594179.319298,1766594179.2585607,-847.65625,-931.640625,4.8828125,-232.91015625,0.0,0,0
1766594179.319351,1766594179.2624564,-678.7109375,-1000.0,77.63671875,-294.43359375,0.0,0,0
1766594179.319403,1766594179.266352,307.6171875,-661.62109375,7.32421875,-70.3125,0.0,0,0
1766594179.319453,1766594179.2702477,934.08203125,697.75390625,-84.47265625,168.9453125,0.0,0,0
1766594179.319505,1766594179.2741435,217.7734375,-856.4453125,-50.29296875,91.30859375,0.0,0,0
1766594179.3195572,1766594179.2780392,-856.93359375,554.19921875,-40.0390625,-73.2421875,0.0,0,0
1766594179.319608,1766594179.2819347,-851.5625,-748.53515625,-46.38671875,-145.99609375,0.0,0,0
1766594179.319658,1766594179.2858305,117.67578125,-1000.0,-43.45703125,-17.08984375,0.0,0,0
1766594179.3197162,1766594179.2897263,722.65625,-214.35546875,14.6484375,-8.30078125,0.0,0,0
1766594179.319784,1766594179.293622,145.99609375,-926.7578125,20.99609375,-51.7578125,0.0,0,0
1766594179.377759,1766594179.297632,-791.015625,824.70703125,-87.890625,56.640625,0.0,0,0
1766594179.377922,1766594179.3015277,-946.2890625,-560.546875,-6.34765625,-146.484375,0.0,0,0
1766594179.377978,1766594179.3054235,-85.9375,-1000.0,41.50390625,-170.8984375,0.0,0,0
1766594179.378029,1766594179.3093193,864.2578125,93.75,-95.703125,197.75390625,0.0,0,0
1766594179.37808,1766594179.313215,386.23046875,-920.8984375,-84.9609375,119.140625,0.0,0,0
1766594179.378131,1766594179.3171108,-759.765625,920.41015625,-57.12890625,-22.4609375,0.0,0,0
1766594179.3782,1766594179.3210065,-934.08203125,958.984375,-81.54296875,82.51953125,0.0,0,0
1766594179.378251,1766594179.324902,-135.25390625,978.02734375,-69.82421875,115.72265625,0.0,0,0
1766594179.378309,1766594179.3287978,596.6796875,896.97265625,-7.32421875,69.3359375,0.0,0,0
1766594179.378378,1766594179.3326936,273.92578125,-894.53125,-2.44140625,-6.34765625,0.0,0,0
1766594179.378446,1766594179.3365893,-646.484375,343.26171875,-23.92578125,-42.48046875,0.0,0,0
1766594179.378516,1766594179.340485,-1000.0,-1000.0,-32.71484375,-29.296875,0.0,0,0
1766594179.407985,1766594179.3444798,-333.984375,-1000.0,-69.82421875,80.078125,0.0,0,0
1766594179.408097,1766594179.3483756,613.76953125,-960.44921875,41.50390625,-67.87109375,0.0,0,0
1766594179.4081569,1766594179.3522713,456.54296875,-1000.0,62.01171875,-270.5078125,0.0,0,0
1766594179.40821,1766594179.356167,-417.48046875,-988.76953125,-71.77734375,7.8125,0.0,0,0
1766594179.4082618,1766594179.3600628,-919.921875,-956.0546875,-133.30078125,180.6640625,0.0,0,0
1766594179.4088619,1766594179.3639586,-346.6796875,-1000.0,-83.49609375,105.46875,0.0,0,0
1766594179.408918,1766594179.367854,703.61328125,-84.9609375,-44.921875,97.65625,0.0,0,0
1766594179.408969,1766594179.3717499,671.875,-856.93359375,-51.7578125,84.9609375,0.0,0,0
1766594179.409025,1766594179.3756456,-415.0390625,739.2578125,-73.73046875,62.5,0.0,0,0
1766594179.409075,1766594179.3795414,-1000.0,-555.17578125,-81.0546875,6.8359375,0.0,0,0
1766594179.4091232,1766594179.3834372,-621.09375,-1000.0,-52.24609375,-1.46484375,0.0,0,0
1766594179.409172,1766594179.387333,545.8984375,-423.828125,-25.87890625,17.578125,0.0,0,0
1766594179.45404,1766594179.3913176,819.3359375,830.078125,-25.87890625,41.50390625,0.0,0,0
1766594179.454132,1766594179.3952134,-225.09765625,-890.13671875,-52.734375,30.76171875,0.0,0,0
1766594179.454185,1766594179.3991091,-1000.0,540.52734375,-65.4296875,-20.01953125,0.0,0,0
1766594179.4542358,1766594179.403005,-721.6796875,-835.9375,-46.38671875,-29.78515625,0.0,0,0
1766594179.4542851,1766594179.4069006,376.46484375,-1000.0,-20.01953125,-0.9765625,0.0,0,0
1766594179.454336,1766594179.4107964,839.84375,155.76171875,-6.8359375,25.87890625,0.0,0,0
1766594179.4543848,1766594179.4146922,-86.9140625,-775.390625,-34.1796875,12.20703125,0.0,0,0
1766594179.454441,1766594179.418588,-1000.0,255.859375,-66.40625,-27.34375,0.0,0,0
1766594179.4544902,1766594179.4224837,-778.80859375,-953.61328125,-60.546875,-45.41015625,0.0,0,0
1766594179.454535,1766594179.4263794,272.94921875,-1000.0,-19.04296875,-15.13671875,0.0,0,0
1766594179.454627,1766594179.4302752,887.20703125,-361.328125,1.46484375,25.390625,0.0,0,0
1766594179.454686,1766594179.434171,124.0234375,-914.0625,-35.15625,-5.37109375,0.0,0,0
1766594179.498157,1766594179.438146,-914.0625,645.99609375,-68.84765625,-70.80078125,0.0,0,0
1766594179.498274,1766594179.4420419,-855.46875,-781.73828125,-51.26953125,-82.03125,0.0,0,0
1766594179.498315,1766594179.4459376,165.52734375,-1000.0,-15.625,-34.1796875,0.0,0,0
1766594179.498354,1766594179.4498334,920.8984375,-57.12890625,-2.44140625,9.27734375,0.0,0,0
1766594179.4983912,1766594179.4537292,197.75390625,986.81640625,-20.5078125,14.16015625,0.0,0,0
1766594179.4984279,1766594179.457625,-860.83984375,-923.828125,-39.55078125,-24.90234375,0.0,0,0
1766594179.498473,1766594179.4615207,-945.80078125,168.45703125,-48.33984375,-62.98828125,0.0,0,0
1766594179.498511,1766594179.4654164,10.25390625,-1000.0,-24.90234375,-46.38671875,0.0,0,0
1766594179.498549,1766594179.4693122,865.72265625,-984.375,-9.765625,-6.34765625,0.0,0,0
1766594179.498594,1766594179.473208,254.39453125,-974.12109375,-23.92578125,-10.7421875,0.0,0,0
1766594179.4986398,1766594179.4771037,-787.59765625,-1000.0,-37.59765625,-45.41015625,0.0,0,0
1766594179.498676,1766594179.4809995,-916.9921875,-943.84765625,-48.33984375,-69.3359375,0.0,0,0
1766594179.557607,1766594179.4849641,-66.89453125,-1000.0,-21.97265625,-60.546875,0.0,0,0
1766594179.557792,1766594179.48886,859.86328125,-214.84375,-3.41796875,-21.484375,0.0,0,0
1766594179.5578399,1766594179.4927557,437.98828125,-873.046875,-21.484375,-10.7421875,0.0,0,0
1766594179.557881,1766594179.4966514,-726.5625,752.9296875,-55.6640625,-56.640625,0.0,0,0
1766594179.557919,1766594179.5005472,-998.046875,-875.9765625,-50.29296875,-68.84765625,0.0,0,0
1766594179.5579572,1766594179.504443,-110.3515625,-570.3125,-7.8125,-53.22265625,0.0,0,0
1766594179.557994,1766594179.5083387,866.69921875,900.87890625,2.44140625,-42.48046875,0.0,0,0
1766594179.558031,1766594179.5122344,544.921875,-885.25390625,-15.625,-1.953125,0.0,0,0
1766594179.5580668,1766594179.5161302,-526.85546875,445.3125,-42.48046875,-8.7890625,0.0,0,0
1766594179.5581062,1766594179.520026,-1000.0,-836.9140625,-48.33984375,-54.19921875,0.0,0,0
1766594179.558163,1766594179.5239217,-378.90625,-1000.0,-12.20703125,-45.41015625,0.0,0,0
1766594179.558199,1766594179.5278177,729.00390625,-470.21484375,11.23046875,-16.11328125,0.0,0,0
1766594179.604322,1766594179.531854,700.1953125,824.21875,-8.30078125,0.48828125,0.0,0,0
1766594179.6044722,1766594179.5357497,-456.0546875,-860.83984375,-39.0625,-31.25,0.0,0,0
1766594179.604534,1766594179.5396454,-1000.0,162.59765625,-46.38671875,-71.2890625,0.0,0,0
1766594179.604587,1766594179.5435412,-611.81640625,-1000.0,-28.80859375,-74.21875,0.0,0,0
1766594179.6046379,1766594179.547437,490.234375,-1000.0,-1.46484375,-38.0859375,0.0,0,0
1766594179.604684,1766594179.5513327,818.84765625,198.2421875,6.8359375,4.8828125,0.0,0,0
1766594179.6047208,1766594179.5552287,-256.34765625,-859.86328125,-28.3203125,-3.41796875,0.0,0,0
1766594179.604793,1766594179.5591245,-1000.0,-246.58203125,-49.31640625,-49.31640625,0.0,0,0
1766594179.604852,1766594179.5630202,-633.7890625,-1000.0,-22.4609375,-69.3359375,0.0,0,0
1766594179.6048949,1766594179.566916,564.94140625,-197.75390625,11.23046875,-26.85546875,0.0,0,0
1766594179.604937,1766594179.5708117,852.5390625,-948.2421875,-4.8828125,9.27734375,0.0,0,0
1766594179.604975,1766594179.5747075,-261.23046875,922.36328125,-40.52734375,-21.97265625,0.0,0,0
1766594179.6770098,1766594179.5788224,-1000.0,-355.46875,-41.50390625,-55.6640625,0.0,0,0
1766594179.677173,1766594179.5827181,-736.328125,-1000.0,-26.3671875,-54.19921875,0.0,0,0
1766594179.677231,1766594179.586614,394.53125,-865.72265625,-0.9765625,-37.109375,0.0,0,0
1766594179.6772852,1766594179.59051,910.64453125,423.828125,1.46484375,0.9765625,0.0,0,0
1766594179.677345,1766594179.5944057,-141.6015625,-913.57421875,-27.34375,-3.90625,0.0,0,0
1766594179.677397,1766594179.5983014,-1000.0,901.85546875,-41.9921875,-34.1796875,0.0,0,0
1766594179.677448,1766594179.6021972,-788.0859375,989.74609375,-30.76171875,-53.7109375,0.0,0,0
1766594179.6774988,1766594179.6060932,267.08984375,913.57421875,-14.16015625,-55.6640625,0.0,0,0
1766594179.67755,1766594179.609989,889.6484375,-977.05078125,-20.01953125,-24.4140625,0.0,0,0
1766594179.6776,1766594179.6138847,-38.57421875,802.24609375,-35.15625,-10.25390625,0.0,0,0
1766594179.677706,1766594179.6177807,-1000.0,-523.92578125,-43.45703125,-31.25,0.0,0,0
1766594179.6777549,1766594179.6216764,-890.13671875,-1000.0,-29.78515625,-41.50390625,0.0,0,0
1766594179.693385,1766594179.6256967,159.66796875,-685.546875,10.25390625,-3.90625,0.0,0,0
1766594179.693486,1766594179.6295924,-997.55859375,580.56640625,4.39453125,1.953125,0.0,0,0
1766594179.6935449,1766594179.6334884,142.578125,-814.94140625,-28.80859375,-10.25390625,0.0,0,0
1766594179.6936,1766594179.6373842,-926.7578125,143.06640625,-42.48046875,-27.34375,0.0,0,0
1766594179.693653,1766594179.6412802,-995.1171875,-1000.0,-39.55078125,-44.921875,0.0,0,0
1766594179.6937048,1766594179.645176,-125.9765625,-1000.0,-2.9296875,-25.390625,0.0,0,0
1766594179.693755,1766594179.6490717,953.125,120.60546875,11.71875,2.9296875,0.0,0,0
1766594179.6938062,1766594179.6529677,375.9765625,-767.578125,-20.5078125,11.23046875,0.0,0,0
1766594179.693869,1766594179.6568635,-818.84765625,128.41796875,-60.546875,-30.76171875,0.0,0,0
1766594179.69392,1766594179.6607594,-1000.0,-1000.0,-52.734375,-54.19921875,0.0,0,0
1766594179.69398,1766594179.6646552,-197.265625,-1000.0,-8.7890625,-27.34375,0.0,0,0
1766594179.694038,1766594179.668551,939.453125,-229.4921875,7.8125,0.9765625,0.0,0,0
1766594179.73925,1766594179.672555,529.296875,-960.9375,-13.671875,7.8125,0.0,0,0
1766594179.7393558,1766594179.6764507,-718.26171875,953.125,-41.015625,-16.11328125,0.0,0,0
1766594179.739414,1766594179.6803467,-1000.0,-303.7109375,-43.45703125,-47.8515625,0.0,0,0
1766594179.739466,1766594179.6842425,-350.5859375,-1000.0,-5.37109375,-43.9453125,0.0,0,0
1766594179.739517,1766594179.6881385,848.6328125,-152.34375,6.34765625,-10.25390625,0.0,0,0
1766594179.739567,1766594179.6920342,659.1796875,968.75,-4.8828125,4.39453125,0.0,0,0
1766594179.739617,1766594179.69593,-574.21875,-909.1796875,-28.3203125,-3.90625,0.0,0,0
1766594179.7396731,1766594179.699826,-1000.0,210.44921875,-43.9453125,-22.4609375,0.0,0,0
1766594179.739723,1766594179.7037218,-545.8984375,-1000.0,-29.78515625,-31.73828125,0.0,0,0
1766594179.739785,1766594179.7076178,701.171875,-992.1875,-10.25390625,-4.39453125,0.0,0,0
1766594179.741686,1766594179.7115135,763.671875,-969.23828125,-4.8828125,18.06640625,0.0,0,0
1766594179.741724,1766594179.7154095,-445.3125,-1000.0,-26.85546875,-11.23046875,0.0,0,0
1766594179.782937,1766594179.7194035,-1000.0,-937.5,-43.45703125,-50.78125,0.0,0,0
1766594179.7830532,1766594179.7232993,-606.93359375,-1000.0,-20.99609375,-40.52734375,0.0,0,0
1766594179.783115,1766594179.7271953,634.27734375,-220.21484375,1.46484375,-6.8359375,0.0,0,0
1766594179.783169,1766594179.731091,869.140625,-960.9375,-6.8359375,24.90234375,0.0,0,0
1766594179.78322,1766594179.734987,-316.40625,951.66015625,-24.90234375,-1.953125,0.0,0,0
1766594179.7832708,1766594179.738883,-1000.0,940.91796875,-32.71484375,-52.734375,0.0,0,0
1766594179.7833211,1766594179.7427788,-677.24609375,983.3984375,-25.390625,-51.7578125,0.0,0,0
1766594179.783372,1766594179.7466748,526.3671875,933.10546875,-6.8359375,-29.78515625,0.0,0,0
1766594179.783422,1766594179.7505705,968.75,971.6796875,2.9296875,-2.9296875,0.0,0,0
1766594179.783471,1766594179.7544665,-140.625,977.5390625,-21.97265625,-4.8828125,0.0,0,0
1766594179.78352,1766594179.7583623,-1000.0,-334.9609375,-43.9453125,-22.94921875,0.0,0,0
1766594179.7835689,1766594179.7622583,-781.25,-1000.0,-34.1796875,-43.9453125,0.0,0,0
1766594179.827994,1766594179.7662418,353.02734375,-988.76953125,-5.37109375,-33.203125,0.0,0,0
1766594179.828075,1766594179.7701378,-925.78125,-859.375,9.765625,14.16015625,0.0,0,0
1766594179.828119,1766594179.7740335,173.828125,459.47265625,-18.06640625,1.953125,0.0,0,0
1766594179.82816,1766594179.7779295,-973.14453125,-716.30859375,-43.9453125,-56.15234375,0.0,0,0
1766594179.828198,1766594179.7818253,-953.61328125,-4.39453125,-62.01171875,-66.40625,0.0,0,0
1766594179.828235,1766594179.7857213,170.8984375,-657.2265625,7.8125,-57.12890625,0.0,0,0
1766594179.828272,1766594179.789617,-891.11328125,804.19921875,47.36328125,-41.015625,0.0,0,0
1766594179.828309,1766594179.793513,233.88671875,-815.4296875,-40.0390625,14.6484375,0.0,0,0
1766594179.828347,1766594179.797409,-943.359375,104.98046875,-66.40625,-23.4375,0.0,0,0
1766594179.828383,1766594179.8013048,-950.1953125,-1000.0,-19.53125,-52.24609375,0.0,0,0
1766594179.82844,1766594179.8052008,53.7109375,-984.86328125,31.73828125,-64.94140625,0.0,0,0
1766594179.8284779,1766594179.8090966,-938.96484375,-967.7734375,12.6953125,-67.3828125,0.0,0,0
1766594179.874107,1766594179.8130703,410.64453125,-986.328125,-16.11328125,-41.015625,0.0,0,0
1766594179.8742359,1766594179.816966,-811.5234375,-983.88671875,-35.64453125,-23.92578125,0.0,0,0
1766594179.874293,1766594179.820862,-1000.0,-963.8671875,-20.99609375,-57.6171875,0.0,0,0
1766594179.874345,1766594179.824758,-105.95703125,-1000.0,38.57421875,-160.15625,0.0,0,0
1766594179.874397,1766594179.8286538,-968.26171875,2.44140625,7.32421875,-101.5625,0.0,0,0
1766594179.874447,1766594179.8325498,539.0625,-938.4765625,-7.8125,4.39453125,0.0,0,0
1766594179.874496,1766594179.8364458,-713.8671875,-997.0703125,-16.11328125,-83.984375,0.0,0,0
1766594179.87455,1766594179.8403416,-1000.0,-111.328125,-54.6875,-91.30859375,0.0,0,0
1766594179.8745978,1766594179.8442376,-264.16015625,-1000.0,-52.734375,-55.6640625,0.0,0,0
1766594179.8746471,1766594179.8481333,931.15234375,-993.1640625,-3.41796875,-69.82421875,0.0,0,0
1766594179.874699,1766594179.8520293,694.3359375,148.92578125,-2.9296875,-10.25390625,0.0,0,0
1766594179.87476,1766594179.8559253,-540.0390625,-888.671875,4.39453125,-83.49609375,0.0,0,0
1766594179.977368,1766594179.859888,-1000.0,906.73828125,9.27734375,-226.5625,0.0,0,0
1766594179.9774761,1766594179.863784,-486.328125,-486.328125,-35.15625,-105.95703125,0.0,0,0
1766594179.977528,1766594179.86768,817.3828125,-1000.0,-31.25,33.69140625,0.0,0,0
1766594179.97758,1766594179.8715758,790.0390625,711.42578125,44.43359375,-75.1953125,0.0,0,0
1766594179.977632,1766594179.8754718,-430.6640625,893.5546875,85.44921875,-234.86328125,0.0,0,0
1766594179.9776819,1766594179.8793678,-1000.0,-902.83203125,-4.8828125,-157.71484375,0.0,0,0
1766594179.9777741,1766594179.8832636,-382.32421875,-424.31640625,-91.30859375,86.9140625,0.0,0,0
1766594179.977865,1766594179.8871596,923.33984375,979.00390625,-22.94921875,33.203125,0.0,0,0
1766594179.9779232,1766594179.8910556,775.390625,-933.10546875,-16.11328125,-80.078125,0.0,0,0
1766594179.978009,1766594179.8949513,-426.7578125,576.171875,-33.69140625,-84.47265625,0.0,0,0
1766594179.9780748,1766594179.8988473,-1000.0,-813.96484375,-67.3828125,3.90625,0.0,0,0
1766594179.978126,1766594179.9027433,-644.53125,-1000.0,-90.33203125,64.453125,0.0,0,0
1766594179.97949,1766594179.9067914,552.734375,-1000.0,-51.26953125,39.55078125,0.0,0,0
1766594179.979558,1766594179.9106872,-960.44921875,-250.9765625,-41.015625,71.77734375,0.0,0,0
1766594179.9796119,1766594179.9145832,-47.36328125,-905.2734375,-47.36328125,23.4375,0.0,0,0
1766594179.979666,1766594179.9184792,-1000.0,884.27734375,-92.28515625,-2.44140625,0.0,0,0
1766594179.979716,1766594179.9223752,-777.83203125,-708.984375,-25.87890625,-106.4453125,0.0,0,0
1766594179.979767,1766594179.926271,432.6171875,-308.10546875,40.52734375,-80.078125,0.0,0,0
1766594179.979808,1766594179.930167,985.83984375,-965.33203125,53.7109375,-126.46484375,0.0,0,0
1766594179.979846,1766594179.934063,-90.8203125,-957.51953125,-15.13671875,-242.1875,0.0,0,0
1766594179.979883,1766594179.937959,-1000.0,606.93359375,-130.37109375,55.6640625,0.0,0,0
1766594179.97992,1766594179.941855,-830.078125,-791.50390625,-120.1171875,158.69140625,0.0,0,0
1766594179.979957,1766594179.9457507,322.265625,-1000.0,-49.8046875,72.75390625,0.0,0,0
1766594179.98,1766594179.9496467,-905.76171875,65.4296875,-32.71484375,78.125,0.0,0,0
1766594180.0243762,1766594179.9536707,89.84375,-823.2421875,-29.78515625,-4.8828125,0.0,0,0
1766594180.0244842,1766594179.9575667,-1000.0,591.30859375,3.90625,-130.37109375,0.0,0,0
1766594180.0245419,1766594179.9614627,-958.0078125,-754.8828125,42.96875,-238.28125,0.0,0,0
1766594180.024596,1766594179.9653587,73.2421875,-1000.0,53.7109375,-312.5,0.0,0,0
1766594180.024648,1766594179.9692547,-884.27734375,-33.69140625,-8.30078125,-7.8125,0.0,0,0
1766594180.024699,1766594179.9731507,416.015625,-945.3125,-44.43359375,63.4765625,0.0,0,0
1766594180.02475,1766594179.9770465,-856.4453125,934.5703125,-62.98828125,-113.28125,0.0,0,0
1766594180.024801,1766594179.9809425,-985.83984375,960.44921875,-70.3125,9.765625,0.0,0,0
1766594180.024856,1766594179.9848385,64.94140625,930.17578125,-79.1015625,139.6484375,0.0,0,0
1766594180.024904,1766594179.9887345,-913.57421875,988.76953125,-44.43359375,81.54296875,0.0,0,0
1766594180.0249448,1766594179.9926305,474.609375,926.7578125,-2.9296875,-63.96484375,0.0,0,0
1766594180.024991,1766594179.9965265,-773.92578125,-411.1328125,-49.31640625,-14.16015625,0.0,0,0
1766594180.068022,1766594180.0005405,-1000.0,-1000.0,-58.59375,5.37109375,0.0,0,0
1766594180.0681448,1766594180.0044365,-187.5,-935.05859375,11.23046875,-71.77734375,0.0,0,0
1766594180.068204,1766594180.0083325,-999.51171875,-1000.0,-15.625,52.734375,0.0,0,0
1766594180.0682602,1766594180.0122285,614.74609375,-1000.0,-36.1328125,88.37890625,0.0,0,0
1766594180.0683122,1766594180.0161245,-580.078125,-989.74609375,-75.68359375,147.4609375,0.0,0,0
1766594180.068365,1766594180.0200205,-1000.0,-955.078125,-20.99609375,-74.70703125,0.0,0,0
1766594180.068415,1766594180.0239165,-299.31640625,-1000.0,10.25390625,-227.5390625,0.0,0,0
1766594180.068467,1766594180.0278122,993.1640625,-38.57421875,-47.8515625,75.68359375,0.0,0,0
1766594180.068518,1766594180.0317082,657.2265625,-984.86328125,-3.41796875,64.94140625,0.0,0,0
1766594180.068581,1766594180.0356042,-567.87109375,-939.94140625,-23.92578125,9.27734375,0.0,0,0
1766594180.068631,1766594180.0395002,-1000.0,265.13671875,-82.51953125,40.52734375,0.0,0,0
1766594180.068682,1766594180.0433962,-473.6328125,-1000.0,-58.59375,23.4375,0.0,0,0
1766594180.113101,1766594180.047399,812.98828125,-337.40234375,-21.97265625,96.6796875,0.0,0,0
1766594180.113205,1766594180.051295,902.83203125,964.35546875,-55.17578125,140.625,0.0,0,0
1766594180.113261,1766594180.055191,-267.578125,-903.3203125,-42.48046875,85.9375,0.0,0,0
1766594180.11477,1766594180.059087,-1000.0,142.578125,-48.828125,0.48828125,0.0,0,0
1766594180.114827,1766594180.062983,-547.36328125,-1000.0,-79.1015625,-11.71875,0.0,0,0
1766594180.114867,1766594180.066879,731.4453125,-207.03125,-38.57421875,68.84765625,0.0,0,0
1766594180.114906,1766594180.070775,927.24609375,-981.4453125,-7.8125,89.84375,0.0,0,0
1766594180.114943,1766594180.074671,-255.37109375,-938.96484375,-38.0859375,41.015625,0.0,0,0
1766594180.1149812,1766594180.078567,-1000.0,-51.7578125,-89.84375,12.6953125,0.0,0,0
1766594180.115017,1766594180.082463,-559.5703125,-1000.0,-70.80078125,36.1328125,0.0,0,0
1766594180.115053,1766594180.086359,652.34375,-938.96484375,-25.390625,55.17578125,0.0,0,0
1766594180.11509,1766594180.090255,-984.375,-1000.0,-23.4375,49.31640625,0.0,0,0
1766594180.158994,1766594180.0942485,92.28515625,299.31640625,-46.38671875,32.71484375,0.0,0,0
1766594180.1590998,1766594180.0981445,-1000.0,387.20703125,-32.2265625,-41.50390625,0.0,0,0
1766594180.159158,1766594180.1020405,-747.55859375,-1000.0,-1.46484375,-92.28515625,0.0,0,0
1766594180.159213,1766594180.1059365,478.515625,-265.13671875,-23.92578125,22.94921875,0.0,0,0
1766594180.1592672,1766594180.1098325,-906.73828125,977.05078125,-5.37109375,82.51953125,0.0,0,0
1766594180.159319,1766594180.1137285,251.46484375,-961.42578125,-6.8359375,33.203125,0.0,0,0
1766594180.15937,1766594180.1176245,-915.0390625,675.29296875,-58.10546875,15.13671875,0.0,0,0
1766594180.159421,1766594180.1215208,-920.8984375,-632.8125,-20.01953125,-72.75390625,0.0,0,0
1766594180.159471,1766594180.1254168,155.2734375,-1000.0,39.0625,-130.859375,0.0,0,0
1766594180.15952,1766594180.1293128,-907.71484375,-381.34765625,22.4609375,-48.828125,0.0,0,0
1766594180.1595688,1766594180.1332088,497.0703125,-904.78515625,-48.33984375,75.1953125,0.0,0,0
1766594180.1596181,1766594180.1371047,-779.78515625,472.16796875,-104.4921875,97.16796875,0.0,0,0
1766594180.2029629,1766594180.1410882,-947.265625,-943.84765625,-71.2890625,15.625,0.0,0,0
1766594180.2030668,1766594180.1449842,162.59765625,-1000.0,-29.78515625,11.23046875,0.0,0,0
1766594180.203125,1766594180.1488802,-914.0625,-109.375,-20.99609375,30.2734375,0.0,0,0
1766594180.203178,1766594180.1527762,541.015625,-842.28515625,-35.64453125,16.11328125,0.0,0,0
1766594180.203233,1766594180.1566722,-716.30859375,613.28125,-68.84765625,-27.34375,0.0,0,0
1766594180.203284,1766594180.1605685,-1000.0,-1000.0,-56.640625,-60.05859375,0.0,0,0
1766594180.2033339,1766594180.1644645,89.35546875,-527.83203125,-9.765625,-38.0859375,0.0,0,0
1766594180.2033842,1766594180.1683605,-916.50390625,919.43359375,-19.04296875,-11.23046875,0.0,0,0
1766594180.2034361,1766594180.1722565,626.953125,-877.9296875,-37.109375,2.9296875,0.0,0,0
1766594180.203487,1766594180.1761525,-566.89453125,196.77734375,-44.43359375,-24.4140625,0.0,0,0
1766594180.203537,1766594180.1800485,-1000.0,-1000.0,-51.7578125,-65.4296875,0.0,0,0
1766594180.203605,1766594180.1839445,-97.16796875,-934.08203125,-11.71875,-32.71484375,0.0,0,0
1766594180.263149,1766594180.1879992,991.2109375,-1000.0,8.30078125,-8.7890625,0.0,0,0
1766594180.263283,1766594180.1918952,834.47265625,-192.87109375,1.46484375,-11.23046875,0.0,0,0
1766594180.2633421,1766594180.1957915,-321.77734375,-952.1484375,-19.53125,-35.15625,0.0,0,0
1766594180.263396,1766594180.1996875,-1000.0,947.265625,-33.69140625,-70.3125,0.0,0,0
1766594180.263448,1766594180.2035835,-248.53515625,944.3359375,-23.92578125,-72.75390625,0.0,0,0
1766594180.2635,1766594180.2074795,924.8046875,911.1328125,3.90625,-48.828125,0.0,0,0
1766594180.263551,1766594180.2113755,792.96875,-893.5546875,5.37109375,-17.08984375,0.0,0,0
1766594180.263603,1766594180.2152717,-383.30078125,191.89453125,-40.52734375,-41.50390625,0.0,0,0
1766594180.2636642,1766594180.2191677,-1000.0,-1000.0,-46.875,-73.2421875,0.0,0,0
1766594180.2637088,1766594180.2230637,-418.45703125,-984.86328125,-15.13671875,-67.87109375,0.0,0,0
1766594180.263747,1766594180.2269597,813.4765625,-972.65625,4.39453125,-45.41015625,0.0,0,0
1766594180.263783,1766594180.230856,891.11328125,-1000.0,-5.37109375,-20.01953125,0.0,0,0
1766594180.308105,1766594180.2348194,-237.79296875,-1000.0,-25.390625,-50.29296875,0.0,0,0
1766594180.308209,1766594180.2387156,-1000.0,-937.5,-23.4375,-88.8671875,0.0,0,0
1766594180.308265,1766594180.2426116,-435.05859375,-1000.0,-11.23046875,-61.03515625,0.0,0,0
1766594180.308317,1766594180.2465076,744.62890625,-220.21484375,5.859375,-29.78515625,0.0,0,0
1766594180.308369,1766594180.250404,984.86328125,-960.9375,6.8359375,-31.73828125,0.0,0,0
1766594180.308419,1766594180.2542999,29.296875,951.66015625,-22.4609375,-48.33984375,0.0,0,0
1766594180.308471,1766594180.2581959,-1000.0,940.91796875,-41.9921875,-70.80078125,0.0,0,0
1766594180.308522,1766594180.2620919,-642.578125,982.421875,-34.1796875,-74.70703125,0.0,0,0
1766594180.308576,1766594180.265988,579.1015625,936.03515625,-12.6953125,-58.10546875,0.0,0,0
1766594180.308627,1766594180.269884,-977.5390625,964.35546875,-11.71875,-32.2265625,0.0,0,0
1766594180.3086772,1766594180.27378,103.02734375,998.53515625,-34.66796875,-37.109375,0.0,0,0
1766594180.308746,1766594180.277676,-998.046875,-279.78515625,-46.38671875,-75.68359375,0.0,0,0
1766594180.352652,1766594180.28171,-742.1875,-1000.0,-37.59765625,-92.28515625,0.0,0,0
1766594180.3527548,1766594180.285606,461.9140625,-937.98828125,-9.765625,-48.828125,0.0,0,0
1766594180.3527832,1766594180.289502,-931.640625,-1000.0,2.44140625,-11.71875,0.0,0,0
1766594180.3528068,1766594180.2933981,223.6328125,-1000.0,-26.85546875,-32.2265625,0.0,0,0
1766594180.352831,1766594180.2972941,-938.96484375,-937.5,-46.38671875,-56.15234375,0.0,0,0
1766594180.352855,1766594180.3011901,-793.9453125,-1000.0,-21.484375,-65.4296875,0.0,0,0
1766594180.352878,1766594180.3050864,348.14453125,-750.0,-1.953125,-70.3125,0.0,0,0
1766594180.3529012,1766594180.3089824,-925.29296875,673.33984375,-0.48828125,-52.734375,0.0,0,0
1766594180.352927,1766594180.3128786,483.3984375,990.234375,-28.3203125,-53.22265625,0.0,0,0
1766594180.35295,1766594180.3167746,-708.49609375,-934.08203125,-59.5703125,-80.56640625,0.0,0,0
1766594180.3529742,1766594180.3206706,-984.375,128.90625,-61.5234375,-110.3515625,0.0,0,0
1766594180.3529978,1766594180.3245668,74.70703125,-1000.0,-26.85546875,-91.796875,0.0,0,0
1766594180.398106,1766594180.3285892,-948.2421875,192.87109375,1.953125,-22.94921875,0.0,0,0
1766594180.398262,1766594180.3324852,571.2890625,-754.8828125,-22.94921875,-25.390625,0.0,0,0
1766594180.39834,1766594180.3363814,-636.71875,453.61328125,-56.15234375,-71.2890625,0.0,0,0
1766594180.398396,1766594180.3402774,-957.51953125,-902.83203125,-53.22265625,-82.51953125,0.0,0,0
1766594180.39845,1766594180.3441737,104.00390625,-1000.0,-21.484375,-80.078125,0.0,0,0
1766594180.3985002,1766594180.3480697,-951.66015625,105.46875,0.9765625,-31.25,0.0,0,0
1766594180.398551,1766594180.351966,586.9140625,-800.29296875,-21.97265625,-8.7890625,0.0,0,0
1766594180.398603,1766594180.355862,-608.88671875,510.25390625,-64.94140625,-61.03515625,0.0,0,0
1766594180.398657,1766594180.359758,-1000.0,-873.53515625,-74.21875,-104.98046875,0.0,0,0
1766594180.398717,1766594180.3636541,-72.75390625,-980.95703125,-27.83203125,-68.359375,0.0,0,0
1766594180.3987682,1766594180.3675501,940.91796875,-1000.0,1.953125,-10.25390625,0.0,0,0
1766594180.3988302,1766594180.3714464,869.140625,-100.5859375,-14.6484375,15.13671875,0.0,0,0
1766594180.444324,1766594180.3754587,-268.06640625,777.83203125,-44.43359375,-32.2265625,0.0,0,0
1766594180.444414,1766594180.379355,-1000.0,-730.46875,-53.22265625,-85.44921875,0.0,0,0
1766594180.4444659,1766594180.383251,-168.9453125,-1000.0,-24.4140625,-66.89453125,0.0,0,0
1766594180.4445162,1766594180.3871472,926.26953125,41.9921875,-11.71875,-31.25,0.0,0,0
1766594180.444567,1766594180.3910432,866.2109375,995.1171875,-23.4375,-0.9765625,0.0,0,0
1766594180.444618,1766594180.3949394,-169.921875,-935.546875,-32.2265625,-34.1796875,0.0,0,0
1766594180.444669,1766594180.3988354,-1000.0,331.54296875,-60.546875,-61.5234375,0.0,0,0
1766594180.4447181,1766594180.4027317,-496.58203125,-939.453125,-50.78125,-56.15234375,0.0,0,0
1766594180.446122,1766594180.4066277,718.75,-1000.0,-14.16015625,-52.24609375,0.0,0,0
1766594180.446166,1766594180.410524,-943.84765625,-293.45703125,-17.578125,-24.4140625,0.0,0,0
1766594180.446203,1766594180.41442,159.1796875,-857.421875,-45.41015625,-25.390625,0.0,0,0
1766594180.446248,1766594180.4183161,-1000.0,126.953125,-60.546875,-64.453125,0.0,0,0
1766594180.4883652,1766594180.4223204,-597.65625,-1000.0,-48.33984375,-82.51953125,0.0,0,0
1766594180.488561,1766594180.4262166,621.09375,-1000.0,-15.625,-40.52734375,0.0,0,0
1766594180.488608,1766594180.4301128,-953.61328125,-249.51171875,-2.44140625,-5.37109375,0.0,0,0
1766594180.488649,1766594180.4340088,146.97265625,-841.30859375,-27.34375,-8.7890625,0.0,0,0
1766594180.488687,1766594180.437905,-980.46875,594.23828125,-50.29296875,-58.59375,0.0,0,0
1766594180.488725,1766594180.441801,-670.41015625,-1000.0,-38.0859375,-104.98046875,0.0,0,0
1766594180.4887621,1766594180.4456973,507.8125,-283.203125,-0.9765625,-50.78125,0.0,0,0
1766594180.4888,1766594180.4495933,-933.10546875,-921.38671875,-12.20703125,-5.859375,0.0,0,0
1766594180.488838,1766594180.4534895,164.0625,-995.1171875,-57.12890625,-13.18359375,0.0,0,0
1766594180.488874,1766594180.4573858,-997.0703125,-218.75,-65.4296875,-43.45703125,0.0,0,0
1766594180.4889112,1766594180.4612818,-773.92578125,-1000.0,-52.24609375,-77.1484375,0.0,0,0
1766594180.488947,1766594180.465178,397.4609375,-941.89453125,-22.4609375,-47.36328125,0.0,0,0
1766594180.564055,1766594180.4693358,-933.10546875,-998.53515625,-9.765625,-8.7890625,0.0,0,0
1766594180.5641868,1766594180.473232,388.671875,-1000.0,-25.390625,-21.97265625,0.0,0,0
1766594180.5642428,1766594180.477128,-788.57421875,-926.26953125,-46.38671875,-57.6171875,0.0,0,0
1766594180.564296,1766594180.4810243,-860.3515625,-1000.0,-42.96875,-80.56640625,0.0,0,0
1766594180.5643468,1766594180.4849205,284.1796875,-513.18359375,-6.34765625,-52.24609375,0.0,0,0
1766594180.564398,1766594180.4888167,-912.109375,828.125,7.8125,-21.97265625,0.0,0,0
1766594180.5645251,1766594180.4927127,472.16796875,-878.41796875,-30.2734375,-20.99609375,0.0,0,0
1766594180.564585,1766594180.496609,-740.234375,508.30078125,-56.640625,-51.7578125,0.0,0,0
1766594180.5646238,1766594180.5005052,-943.359375,-810.05859375,-50.78125,-84.9609375,0.0,0,0
1766594180.564665,1766594180.5044012,130.859375,-1000.0,-22.4609375,-77.63671875,0.0,0,0
1766594180.5647008,1766594180.5082974,-942.87109375,-131.8359375,1.46484375,-36.62109375,0.0,0,0
1766594180.564739,1766594180.5121937,591.796875,-862.79296875,-21.97265625,-24.4140625,0.0,0,0
1766594180.57858,1766594180.516181,-615.72265625,650.87890625,-56.15234375,-69.3359375,0.0,0,0
1766594180.578732,1766594180.5200772,-1000.0,-714.35546875,-49.8046875,-96.19140625,0.0,0,0
1766594180.578784,1766594180.5239735,-102.05078125,-1000.0,-15.13671875,-72.75390625,0.0,0,0
1766594180.5788229,1766594180.5278697,965.33203125,-158.203125,-1.953125,-35.64453125,0.0,0,0
1766594180.579273,1766594180.5317657,712.890625,-975.5859375,-20.5078125,-31.25,0.0,0,0
1766594180.579353,1766594180.535662,-504.39453125,951.66015625,-15.13671875,-63.96484375,0.0,0,0
1766594180.579395,1766594180.5395582,-1000.0,940.91796875,-27.83203125,-91.796875,0.0,0,0
1766594180.579433,1766594180.5434544,-275.87890625,990.234375,-34.1796875,-104.00390625,0.0,0,0
1766594180.5795379,1766594180.5473506,801.26953125,904.296875,-3.41796875,-73.2421875,0.0,0,0
1766594180.579587,1766594180.5512466,786.62109375,-952.1484375,0.48828125,-48.828125,0.0,0,0
1766594180.579679,1766594180.5551429,-343.26171875,735.83984375,-9.27734375,-89.84375,0.0,0,0
1766594180.579742,1766594180.559039,-1000.0,-704.58984375,-11.23046875,-147.4609375,0.0,0,0
1766594180.6229901,1766594180.5630126,-379.8828125,-1000.0,3.41796875,-104.00390625,0.0,0,0
1766594180.623092,1766594180.5669088,796.38671875,-935.05859375,32.2265625,-110.83984375,0.0,0,0
1766594180.623134,1766594180.570805,877.9296875,-1000.0,24.4140625,-85.44921875,0.0,0,0
1766594180.623171,1766594180.5747013,-177.24609375,-930.6640625,-27.34375,36.62109375,0.0,0,0
1766594180.623208,1766594180.5785975,-1000.0,-1000.0,-49.8046875,-68.359375,0.0,0,0
1766594180.623245,1766594180.5824935,-462.40234375,-645.01953125,10.25390625,-128.90625,0.0,0,0
1766594180.623281,1766594180.5863898,822.265625,735.83984375,51.7578125,-105.95703125,0.0,0,0
1766594180.62332,1766594180.590286,901.3671875,-918.45703125,10.25390625,-162.109375,0.0,0,0
1766594180.6233568,1766594180.5941823,-149.90234375,778.3203125,-40.52734375,-122.55859375,0.0,0,0
1766594180.6234019,1766594180.5980785,-1000.0,-505.37109375,-10.7421875,-49.8046875,0.0,0,0
1766594180.6234381,1766594180.6019747,-642.578125,-1000.0,32.2265625,-128.90625,0.0,0,0
1766594180.623474,1766594180.6058707,535.15625,-1000.0,-15.625,-163.57421875,0.0,0,0
1766594180.6831949,1766594180.6098344,-973.6328125,130.37109375,-46.38671875,55.17578125,0.0,0,0
1766594180.6833541,1766594180.6137307,92.28515625,-899.90234375,-33.203125,29.296875,0.0,0,0
1766594180.683411,1766594180.617627,-1000.0,910.64453125,-57.12890625,1.953125,0.0,0,0
1766594180.683465,1766594180.621523,-782.2265625,965.8203125,-42.96875,-51.26953125,0.0,0,0
1766594180.683517,1766594180.6254191,377.9296875,969.23828125,-49.8046875,-34.66796875,0.0,0,0
1766594180.6835682,1766594180.6293154,-930.17578125,905.2734375,3.41796875,45.8984375,0.0,0,0
1766594180.683619,1766594180.6332116,220.21484375,-893.06640625,-17.578125,-26.85546875,0.0,0,0
1766594180.68367,1766594180.6371078,-933.10546875,187.98828125,-98.14453125,-38.0859375,0.0,0,0
1766594180.683712,1766594180.641004,-865.234375,-1000.0,-76.66015625,19.53125,0.0,0,0
1766594180.683763,1766594180.6449003,284.1796875,-984.375,-46.38671875,106.93359375,0.0,0,0
1766594180.683809,1766594180.6487966,-963.37890625,-973.14453125,89.84375,-153.3203125,0.0,0,0
1766594180.68385,1766594180.6526928,346.6796875,-1000.0,59.5703125,-211.42578125,0.0,0,0
1766594180.7291021,1766594180.6567237,-785.64453125,-933.10546875,-82.51953125,-68.359375,0.0,0,0
1766594180.7291892,1766594180.66062,-903.80859375,-1000.0,-81.0546875,-20.99609375,0.0,0,0
1766594180.7292428,1766594180.6645162,191.40625,-695.3125,-27.83203125,83.984375,0.0,0,0
1766594180.729295,1766594180.6684122,-929.6875,746.58203125,-41.9921875,134.27734375,0.0,0,0
1766594180.729346,1766594180.6723084,480.46875,-958.0078125,-46.875,30.76171875,0.0,0,0
1766594180.7293959,1766594180.6762047,-719.23828125,906.25,-61.03515625,-36.1328125,0.0,0,0
1766594180.729446,1766594180.680101,-972.16796875,982.91015625,-70.80078125,51.26953125,0.0,0,0
1766594180.7294989,1766594180.6839972,18.5546875,973.14453125,-43.45703125,58.59375,0.0,0,0
1766594180.729558,1766594180.6878934,-981.93359375,900.390625,-28.3203125,100.5859375,0.0,0,0
1766594180.729614,1766594180.6917896,596.6796875,-893.06640625,-39.0625,62.01171875,0.0,0,0
1766594180.729664,1766594180.6956859,-607.91015625,266.6015625,-66.89453125,20.99609375,0.0,0,0
1766594180.7297769,1766594180.699582,-1000.0,-1000.0,-64.94140625,17.08984375,0.0,0,0
1766594180.773542,1766594180.703605,-185.05859375,-986.328125,-47.36328125,15.13671875,0.0,0,0
1766594180.773706,1766594180.7075012,915.52734375,-1000.0,-17.08984375,15.625,0.0,0,0
1766594180.773769,1766594180.7113974,759.765625,342.7734375,-14.6484375,27.83203125,0.0,0,0
1766594180.773846,1766594180.7152936,-422.8515625,895.5078125,-56.15234375,20.01953125,0.0,0,0
1766594180.773885,1766594180.7191901,-1000.0,-721.19140625,-67.3828125,-12.6953125,0.0,0,0
1766594180.773921,1766594180.7230864,-340.33203125,-1000.0,-38.57421875,-1.46484375,0.0,0,0
1766594180.773958,1766594180.7269826,883.30078125,139.16015625,-17.08984375,32.2265625,0.0,0,0
1766594180.773995,1766594180.7308788,773.92578125,-853.02734375,-34.1796875,29.78515625,0.0,0,0
1766594180.7740312,1766594180.734775,-399.4140625,740.72265625,-45.41015625,-19.04296875,0.0,0,0
1766594180.7740679,1766594180.7386713,-1000.0,-607.421875,-51.26953125,-19.53125,0.0,0,0
1766594180.774104,1766594180.7425675,-523.92578125,-1000.0,-27.34375,-22.4609375,0.0,0,0
1766594180.77414,1766594180.7464638,669.921875,-1000.0,46.38671875,-72.265625,0.0,0,0
1766594180.817873,1766594180.7504764,990.234375,-261.23046875,6.8359375,-0.9765625,0.0,0,0
1766594180.8179991,1766594180.7543726,-59.08203125,-877.9296875,-62.98828125,31.25,0.0,0,0
1766594180.818043,1766594180.7582688,-1000.0,-47.36328125,-65.91796875,-35.15625,0.0,0,0
1766594180.818122,1766594180.762165,-607.91015625,-1000.0,-48.33984375,-33.69140625,0.0,0,0
1766594180.8181791,1766594180.7660613,613.76953125,-478.02734375,-8.30078125,-7.8125,0.0,0,0
1766594180.818221,1766594180.7699575,989.2578125,835.44921875,1.953125,26.85546875,0.0,0,0
1766594180.81826,1766594180.7738538,-29.296875,-854.4921875,-26.3671875,26.3671875,0.0,0,0
1766594180.8182971,1766594180.77775,-1000.0,119.140625,-50.29296875,-28.3203125,0.0,0,0
1766594180.8183339,1766594180.7816463,-750.0,-999.0234375,-39.55078125,-62.5,0.0,0,0
1766594180.818371,1766594180.7855427,437.01171875,-1000.0,-12.20703125,-38.57421875,0.0,0,0
1766594180.8184068,1766594180.789439,-942.87109375,-257.8125,-1.46484375,-2.44140625,0.0,0,0
1766594180.818447,1766594180.7933352,189.94140625,-861.328125,-26.85546875,-18.5546875,0.0,0,0
1766594180.863151,1766594180.7973354,-918.45703125,606.4453125,-62.5,-71.77734375,0.0,0,0
1766594180.863213,1766594180.8012316,-874.51171875,-792.96875,-51.26953125,-91.30859375,0.0,0,0
1766594180.8632379,1766594180.805128,192.3828125,-1000.0,-6.8359375,-51.7578125,0.0,0,0
1766594180.863262,1766594180.8090243,-935.546875,-104.4921875,-7.32421875,-10.7421875,0.0,0,0
1766594180.863285,1766594180.8129206,459.9609375,-962.890625,-29.78515625,-21.484375,0.0,0,0
1766594180.86331,1766594180.8168168,-775.390625,943.84765625,-41.9921875,-50.78125,0.0,0,0
1766594180.8633332,1766594180.820713,-892.578125,949.21875,-37.109375,-62.5,0.0,0,0
1766594180.8633559,1766594180.8246093,189.453125,954.58984375,-23.92578125,-56.640625,0.0,0,0
1766594180.86338,1766594180.8285058,-928.22265625,936.5234375,-22.4609375,-36.62109375,0.0,0,0
1766594180.863403,1766594180.832402,419.921875,-935.546875,-34.1796875,-39.0625,0.0,0,0
1766594180.8634272,1766594180.8362982,-830.56640625,-108.88671875,-60.05859375,-82.51953125,0.0,0,0
1766594180.863462,1766594180.8401945,-920.8984375,-1000.0,-49.8046875,-94.7265625,0.0,0,0
1766594180.907852,1766594180.8441865,120.1171875,-948.2421875,-19.04296875,-62.98828125,0.0,0,0
1766594180.907927,1766594180.848083,-965.8203125,-994.140625,-8.7890625,-27.34375,0.0,0,0
1766594180.907969,1766594180.8519793,540.0390625,-1000.0,-15.13671875,-21.484375,0.0,0,0
1766594180.908007,1766594180.8558755,-673.33984375,-931.15234375,-39.55078125,-57.6171875,0.0,0,0
1766594180.908046,1766594180.8597717,-989.2578125,-1000.0,-51.26953125,-75.68359375,0.0,0,0
1766594180.908083,1766594180.8636682,28.3203125,-651.85546875,-15.625,-44.43359375,0.0,0,0
1766594180.9081202,1766594180.8675644,-960.9375,729.00390625,8.7890625,-7.32421875,0.0,0,0
1766594180.9081569,1766594180.8714607,647.4609375,-923.828125,-16.11328125,-20.99609375,0.0,0,0
1766594180.908194,1766594180.875357,-553.22265625,802.734375,-49.8046875,-57.6171875,0.0,0,0
1766594180.908232,1766594180.8792534,-1000.0,-436.5234375,-41.50390625,-62.98828125,0.0,0,0
1766594180.908267,1766594180.8831496,-179.19921875,-1000.0,-9.27734375,-40.0390625,0.0,0,0
1766594180.908303,1766594180.8870459,937.5,-169.43359375,2.44140625,-14.6484375,0.0,0,0
1766594180.952947,1766594180.8910267,741.69921875,991.69921875,-14.6484375,-7.32421875,0.0,0,0
1766594180.9530308,1766594180.894923,-427.734375,-955.56640625,-41.9921875,-32.71484375,0.0,0,0
1766594180.953085,1766594180.8988194,-1000.0,-12.20703125,-40.52734375,-60.05859375,0.0,0,0
1766594180.953135,1766594180.9027157,-386.71875,-1000.0,-20.01953125,-62.5,0.0,0,0
1766594180.953184,1766594180.906612,810.546875,-453.61328125,4.8828125,-42.96875,0.0,0,0
1766594180.953259,1766594180.9105084,896.484375,903.3203125,5.859375,-14.16015625,0.0,0,0
1766594180.953314,1766594180.9144046,-154.296875,969.23828125,-28.80859375,-37.109375,0.0,0,0
1766594180.953365,1766594180.9183009,-1000.0,-985.83984375,-40.52734375,-60.05859375,0.0,0,0
1766594180.953415,1766594180.922197,-593.75,-82.03125,-29.296875,-46.875,0.0,0,0
1766594180.9534662,1766594180.9260936,628.90625,-1000.0,-0.9765625,-35.64453125,0.0,0,0
1766594180.953516,1766594180.9299898,910.15625,-950.1953125,3.90625,-6.34765625,0.0,0,0
1766594180.9535658,1766594180.933886,-165.0390625,-1000.0,-33.203125,-13.671875,0.0,0,0
1766594180.999236,1766594180.9378574,-1000.0,-929.6875,-61.03515625,-69.82421875,0.0,0,0
1766594180.9993348,1766594180.9417536,-552.734375,-1000.0,-50.29296875,-84.9609375,0.0,0,0
1766594180.999393,1766594180.94565,614.74609375,-412.59765625,-3.41796875,-27.83203125,0.0,0,0
1766594180.999448,1766594180.9495463,-985.3515625,961.9140625,14.16015625,18.5546875,0.0,0,0
1766594180.999501,1766594180.9534426,143.06640625,985.3515625,-29.78515625,6.34765625,0.0,0,0
1766594180.999587,1766594180.957339,-976.07421875,925.29296875,-52.24609375,-45.41015625,0.0,0,0
1766594180.999687,1766594180.9612353,-726.5625,980.46875,-50.78125,-86.42578125,0.0,0,0
1766594180.999748,1766594180.9651315,482.421875,968.26171875,-41.015625,-73.73046875,0.0,0,0
1766594180.999802,1766594180.969028,944.3359375,905.76171875,-13.671875,-34.1796875,0.0,0,0
1766594180.999854,1766594180.9729242,172.8515625,-893.5546875,-16.6015625,-6.34765625,0.0,0,0
1766594180.999905,1766594180.9768205,-855.95703125,182.12890625,-54.19921875,-20.99609375,0.0,0,0
1766594180.999956,1766594180.980717,-791.50390625,-1000.0,-48.33984375,-57.6171875,0.0,0,0
1766594181.057398,1766594180.984678,383.30078125,-983.3984375,-14.16015625,-47.36328125,0.0,0,0
1766594181.0575209,1766594180.9885745,-924.31640625,-973.14453125,-5.37109375,-11.71875,0.0,0,0
1766594181.057557,1766594180.9924707,373.046875,-1000.0,-32.2265625,-22.4609375,0.0,0,0
1766594181.05759,1766594180.9963672,-795.41015625,-931.15234375,-52.24609375,-59.08203125,0.0,0,0
1766594181.0576189,1766594181.0002635,-907.2265625,-1000.0,-51.26953125,-72.265625,0.0,0,0
1766594181.057653,1766594181.0041597,209.9609375,-320.80078125,-13.671875,-45.8984375,0.0,0,0
1766594181.057682,1766594181.0080562,-912.109375,923.33984375,15.625,12.20703125,0.0,0,0
1766594181.0577111,1766594181.0119524,477.5390625,-902.34375,-21.484375,13.18359375,0.0,0,0
1766594181.05774,1766594181.0158489,-706.54296875,451.171875,-61.03515625,-41.9921875,0.0,0,0
1766594181.057798,1766594181.019745,-1000.0,-859.375,-63.96484375,-70.3125,0.0,0,0
1766594181.057855,1766594181.0236413,-35.64453125,-1000.0,-32.71484375,-66.40625,0.0,0,0
1766594181.0579,1766594181.0275378,-997.0703125,-291.50390625,4.8828125,-29.296875,0.0,0,0
1766594181.103034,1766594181.0315683,670.41015625,-861.81640625,-16.11328125,-14.16015625,0.0,0,0
1766594181.103154,1766594181.0354648,-538.0859375,431.640625,-45.41015625,-39.0625,0.0,0,0
1766594181.1031969,1766594181.039361,-1000.0,-941.40625,-32.71484375,-50.29296875,0.0,0,0
1766594181.103235,1766594181.0432575,-159.66796875,-1000.0,-6.8359375,-34.66796875,0.0,0,0
1766594181.103273,1766594181.0471537,940.91796875,-158.203125,2.44140625,-21.484375,0.0,0,0
1766594181.103314,1766594181.0510502,719.23828125,-865.72265625,-15.625,-37.59765625,0.0,0,0
1766594181.10335,1766594181.0549464,-476.07421875,652.34375,-55.17578125,-58.10546875,0.0,0,0
1766594181.1033878,1766594181.058843,-1000.0,-743.65234375,-61.5234375,-62.98828125,0.0,0,0
1766594181.103424,1766594181.0627391,-287.109375,-1000.0,-25.390625,-48.33984375,0.0,0,0
1766594181.10346,1766594181.0666356,866.2109375,-1000.0,-0.48828125,-25.390625,0.0,0,0
1766594181.103498,1766594181.0705318,857.91015625,123.046875,-5.859375,-10.7421875,0.0,0,0
1766594181.1035352,1766594181.074428,-261.71875,-787.59765625,-38.0859375,-29.296875,0.0,0,0
1766594181.16414,1766594181.078526,-1000.0,14.16015625,-50.78125,-64.453125,0.0,0,0
1766594181.164277,1766594181.0824225,-465.33203125,-1000.0,-29.296875,-60.546875,0.0,0,0
1766594181.164333,1766594181.086319,757.32421875,-276.3671875,-0.48828125,-22.94921875,0.0,0,0
1766594181.1643882,1766594181.0902152,894.53125,-981.93359375,-7.32421875,-3.41796875,0.0,0,0
1766594181.164441,1766594181.0941117,-200.68359375,964.84375,-34.66796875,-29.296875,0.0,0,0
1766594181.166101,1766594181.098008,-1000.0,933.10546875,-41.015625,-50.29296875,0.0,0,0
1766594181.1661608,1766594181.1019044,-560.546875,991.69921875,-15.625,-55.17578125,0.0,0,0
1766594181.166204,1766594181.1058009,634.765625,909.66796875,-0.9765625,-36.62109375,0.0,0,0
1766594181.166244,1766594181.109697,957.51953125,-964.84375,-32.71484375,-5.37109375,0.0,0,0
1766594181.166281,1766594181.1135936,-58.10546875,773.92578125,-53.22265625,-29.78515625,0.0,0,0
1766594181.1663191,1766594181.1174898,-1000.0,-643.06640625,-55.17578125,-71.77734375,0.0,0,0
1766594181.166356,1766594181.1213863,-712.890625,-1000.0,-41.9921875,-103.02734375,0.0,0,0
1766594181.192354,1766594181.1254015,488.28125,-935.05859375,-4.39453125,-77.63671875,0.0,0,0
1766594181.1924322,1766594181.1292977,992.1875,-1000.0,2.44140625,5.859375,0.0,0,0
1766594181.192459,1766594181.1331942,38.0859375,-1000.0,-17.08984375,-21.97265625,0.0,0,0
1766594181.1924832,1766594181.1370907,-1000.0,-937.5,-46.875,-81.54296875,0.0,0,0
1766594181.1925068,1766594181.140987,-739.74609375,-1000.0,-37.109375,-78.61328125,0.0,0,0
1766594181.1925309,1766594181.1448834,434.5703125,-209.9609375,10.7421875,-74.70703125,0.0,0,0
1766594181.192555,1766594181.1487799,-929.6875,966.796875,-1.46484375,-4.39453125,0.0,0,0
1766594181.192578,1766594181.152676,293.9453125,-914.0625,-14.6484375,-48.33984375,0.0,0,0
1766594181.1926022,1766594181.1565726,-856.93359375,370.1171875,-34.1796875,-81.0546875,0.0,0,0
1766594181.192626,1766594181.160469,-893.5546875,-916.015625,-40.0390625,-31.73828125,0.0,0,0
1766594181.192649,1766594181.1643653,172.36328125,-1000.0,3.41796875,-58.59375,0.0,0,0
1766594181.192672,1766594181.1682618,-930.17578125,-246.09375,21.97265625,-67.3828125,0.0,0,0
1766594181.237924,1766594181.1722655,479.4921875,-877.44140625,-19.04296875,-11.23046875,0.0,0,0
1766594181.238008,1766594181.1761618,-769.53125,635.25390625,-10.7421875,-120.1171875,0.0,0,0
1766594181.2380621,1766594181.1800582,-945.3125,-865.72265625,-2.9296875,-176.26953125,0.0,0,0
1766594181.23809,1766594181.1839547,111.328125,-1000.0,-18.06640625,20.01953125,0.0,0,0
1766594181.238115,1766594181.1878512,-961.9140625,391.6015625,-16.11328125,-26.85546875,0.0,0,0
1766594181.2381399,1766594181.1917474,555.6640625,-987.3046875,9.27734375,-105.95703125,0.0,0,0
1766594181.238164,1766594181.195644,-610.83984375,-957.51953125,28.80859375,-132.32421875,0.0,0,0
1766594181.238189,1766594181.1995404,-1000.0,262.20703125,-43.45703125,-122.0703125,0.0,0,0
1766594181.238235,1766594181.2034366,-287.109375,-1000.0,-18.5546875,-106.4453125,0.0,0,0
1766594181.238267,1766594181.207333,933.10546875,-995.60546875,28.80859375,-102.05078125,0.0,0,0
1766594181.238292,1766594181.2112296,674.8046875,-967.7734375,-34.66796875,13.671875,0.0,0,0
1766594181.238316,1766594181.215126,-545.8984375,-1000.0,-49.8046875,-36.1328125,0.0,0,0
1766594181.285105,1766594181.2191212,-1000.0,-937.5,-54.19921875,-85.9375,0.0,0,0
1766594181.285255,1766594181.2230175,-283.69140625,-1000.0,-20.99609375,-64.453125,0.0,0,0
1766594181.28532,1766594181.226914,905.76171875,-220.21484375,23.4375,-91.30859375,0.0,0,0
1766594181.285373,1766594181.2308104,767.08984375,-960.9375,38.57421875,-58.59375,0.0,0,0
1766594181.2854269,1766594181.2347069,-394.53125,951.66015625,-47.36328125,42.96875,0.0,0,0
1766594181.28548,1766594181.2386034,-1000.0,940.4296875,-120.1171875,34.1796875,0.0,0,0
1766594181.28553,1766594181.2424996,-379.39453125,976.07421875,-69.3359375,39.55078125,0.0,0,0
1766594181.285582,1766594181.246396,793.45703125,959.9609375,0.9765625,-45.41015625,0.0,0,0
1766594181.2856262,1766594181.2502925,770.99609375,917.96875,43.45703125,-205.078125,0.0,0,0
1766594181.285663,1766594181.254189,-377.9296875,-913.57421875,-13.18359375,-94.7265625,0.0,0,0
1766594181.2857301,1766594181.2580853,-1000.0,116.69921875,-110.83984375,62.98828125,0.0,0,0
1766594181.285766,1766594181.2619817,-564.453125,-1000.0,-77.63671875,50.29296875,0.0,0,0
1766594181.327841,1766594181.2659624,672.8515625,-315.4296875,-31.25,71.2890625,0.0,0,0
1766594181.327936,1766594181.2698588,875.0,974.609375,41.9921875,-0.48828125,0.0,0,0
1766594181.3279948,1766594181.2737553,-245.1171875,-939.94140625,-20.5078125,-81.0546875,0.0,0,0
1766594181.3280451,1766594181.2776518,-1000.0,-14.6484375,-90.8203125,12.6953125,0.0,0,0
1766594181.328084,1766594181.2815483,-643.06640625,-1000.0,-50.29296875,-2.44140625,0.0,0,0
1766594181.3281221,1766594181.2854447,547.36328125,-550.78125,-43.45703125,-40.52734375,0.0,0,0
1766594181.328159,1766594181.2893412,999.51171875,802.734375,8.30078125,2.44140625,0.0,0,0
1766594181.328196,1766594181.2932374,-16.11328125,-850.09765625,-42.48046875,35.64453125,0.0,0,0
1766594181.328234,1766594181.297134,-1000.0,72.75390625,-101.07421875,91.796875,0.0,0,0
1766594181.3282702,1766594181.3010304,-762.6953125,-1000.0,-85.9375,53.7109375,0.0,0,0
1766594181.3283079,1766594181.3049269,373.53515625,-1000.0,-40.0390625,61.03515625,0.0,0,0
1766594181.328344,1766594181.3088233,-933.59375,-146.97265625,-33.69140625,112.79296875,0.0,0,0
1766594181.387506,1766594181.3127952,254.8828125,-803.22265625,-48.33984375,77.1484375,0.0,0,0
1766594181.387682,1766594181.3166916,-907.71484375,352.5390625,-60.05859375,40.0390625,0.0,0,0
1766594181.3877409,1766594181.320588,-875.48828125,-947.265625,-29.78515625,-27.83203125,0.0,0,0
1766594181.387794,1766594181.3244846,223.6328125,-1000.0,-17.578125,-28.80859375,0.0,0,0
1766594181.387845,1766594181.3283808,-927.734375,-197.265625,-30.76171875,67.87109375,0.0,0,0
1766594181.387897,1766594181.3322773,348.6328125,-982.421875,-38.57421875,71.2890625,0.0,0,0
1766594181.387947,1766594181.3361738,-835.44921875,985.83984375,-60.05859375,16.11328125,0.0,0,0
1766594181.387999,1766594181.3400702,-958.0078125,-196.2890625,-59.5703125,-32.2265625,0.0,0,0
1766594181.388048,1766594181.3439667,83.0078125,-1000.0,-30.76171875,-6.8359375,0.0,0,0
1766594181.388097,1766594181.3478632,-936.03515625,-727.5390625,-17.08984375,48.33984375,0.0,0,0
1766594181.388149,1766594181.3517597,573.2421875,850.5859375,-35.15625,45.41015625,0.0,0,0
1766594181.3882,1766594181.3556561,-671.875,344.7265625,-33.69140625,-29.78515625,0.0,0,0
1766594181.451909,1766594181.3597772,-1000.0,-1000.0,-34.66796875,-63.96484375,0.0,0,0
1766594181.452066,1766594181.3636737,-39.55078125,-1000.0,-29.296875,-13.671875,0.0,0,0
1766594181.4521248,1766594181.3675702,995.1171875,-246.09375,-4.39453125,-28.80859375,0.0,0,0
1766594181.452179,1766594181.3714666,541.50390625,-845.703125,-32.2265625,-72.265625,0.0,0,0
1766594181.452217,1766594181.375363,-669.921875,517.08984375,-63.4765625,-124.51171875,0.0,0,0
1766594181.452255,1766594181.3792596,-1000.0,-911.62109375,-59.5703125,-180.6640625,0.0,0,0
1766594181.4522932,1766594181.383156,-337.890625,-1000.0,-34.1796875,-195.3125,0.0,0,0
1766594181.452328,1766594181.3870525,854.98046875,53.22265625,-21.484375,-181.640625,0.0,0,0
1766594181.4523652,1766594181.390949,513.18359375,-781.73828125,-34.66796875,-196.2890625,0.0,0,0
1766594181.4524102,1766594181.3948455,-682.12890625,127.9296875,-59.08203125,-249.0234375,0.0,0,0
1766594181.45249,1766594181.398742,-1000.0,-1000.0,-62.98828125,-295.41015625,0.0,0,0
1766594181.452526,1766594181.4026384,-528.3203125,-1000.0,-32.2265625,-300.78125,0.0,0,0
1766594181.4794009,1766594181.4066765,726.5625,-360.83984375,-12.20703125,-250.48828125,0.0,0,0
1766594181.479488,1766594181.4105732,765.13671875,924.31640625,-28.3203125,-217.28515625,0.0,0,0
1766594181.4795399,1766594181.4144697,-454.1015625,-899.90234375,-53.7109375,-242.67578125,0.0,0,0
1766594181.4795918,1766594181.4183662,-1000.0,33.69140625,-51.26953125,-261.71875,0.0,0,0
1766594181.4796422,1766594181.4222627,-589.84375,-1000.0,-24.4140625,-249.51171875,0.0,0,0
1766594181.479692,1766594181.4261591,623.53515625,-156.73828125,0.9765625,-205.56640625,0.0,0,0
1766594181.479743,1766594181.4300556,828.61328125,997.55859375,-16.11328125,-171.875,0.0,0,0
1766594181.479794,1766594181.433952,-310.546875,-932.12890625,-36.62109375,-157.2265625,0.0,0,0
1766594181.479844,1766594181.4378486,-1000.0,221.6796875,-41.50390625,-163.0859375,0.0,0,0
1766594181.480373,1766594181.441745,-654.296875,-1000.0,-41.015625,-180.17578125,0.0,0,0
1766594181.480413,1766594181.4456418,526.85546875,-629.39453125,-19.04296875,-130.37109375,0.0,0,0
1766594181.480451,1766594181.4495382,-991.2109375,742.1875,-13.18359375,-65.91796875,0.0,0,0
1766594181.5239081,1766594181.453562,-3.90625,-848.14453125,-48.33984375,-63.96484375,0.0,0,0
1766594181.5240169,1766594181.4574585,-1000.0,370.60546875,-61.5234375,-92.28515625,0.0,0,0
1766594181.52406,1766594181.4613552,-719.7265625,-1000.0,-39.55078125,-86.42578125,0.0,0,0
1766594181.5240982,1766594181.4652517,472.16796875,-496.09375,-6.8359375,-32.71484375,0.0,0,0
1766594181.524137,1766594181.4691482,-950.1953125,967.28515625,0.48828125,7.32421875,0.0,0,0
1766594181.5241768,1766594181.4730446,192.3828125,987.3046875,-17.08984375,17.578125,0.0,0,0
1766594181.524214,1766594181.476941,-954.58984375,919.43359375,-35.15625,1.46484375,0.0,0,0
1766594181.524253,1766594181.4808378,-701.66015625,983.88671875,-37.109375,-21.484375,0.0,0,0
1766594181.5242891,1766594181.4847343,483.88671875,956.0546875,-23.4375,-4.8828125,0.0,0,0
1766594181.5243258,1766594181.4886308,-942.3828125,924.31640625,-5.859375,44.43359375,0.0,0,0
1766594181.524367,1766594181.4925272,347.16796875,-915.0390625,-16.6015625,56.15234375,0.0,0,0
1766594181.524404,1766594181.4964237,-825.68359375,-7.32421875,-40.0390625,19.53125,0.0,0,0
1766594181.571635,1766594181.5004365,-841.796875,-1000.0,-39.55078125,-3.41796875,0.0,0,0
1766594181.5717492,1766594181.504333,299.8046875,-958.49609375,-15.13671875,24.90234375,0.0,0,0
1766594181.5718122,1766594181.5082295,-920.41015625,-987.3046875,1.953125,63.4765625,0.0,0,0
1766594181.571866,1766594181.5121262,515.625,-1000.0,-11.23046875,71.77734375,0.0,0,0
1766594181.5719192,1766594181.5160227,-699.70703125,-1000.0,-27.34375,50.78125,0.0,0,0
1766594181.571969,1766594181.5199192,-937.5,-937.5,-23.92578125,24.90234375,0.0,0,0
1766594181.57202,1766594181.5238156,179.6875,-1000.0,-21.97265625,31.25,0.0,0,0
1766594181.57207,1766594181.5277123,-938.4765625,-259.27734375,-18.5546875,51.7578125,0.0,0,0
1766594181.5721211,1766594181.5316088,667.48046875,-947.75390625,-20.5078125,70.80078125,0.0,0,0
1766594181.572171,1766594181.5355053,-506.8359375,925.78125,-38.57421875,55.17578125,0.0,0,0
1766594181.5722492,1766594181.539402,-1000.0,-329.1015625,-32.2265625,16.11328125,0.0,0,0
1766594181.5723178,1766594181.5432985,-17.578125,-1000.0,-7.32421875,20.01953125,0.0,0,0
1766594181.613776,1766594181.5473018,992.1875,-316.89453125,1.46484375,62.5,0.0,0,0
1766594181.613858,1766594181.5511985,724.12109375,906.73828125,-13.671875,76.171875,0.0,0,0
1766594181.6139011,1766594181.555095,-409.1796875,-887.20703125,-47.8515625,28.3203125,0.0,0,0
1766594181.613941,1766594181.5589914,-1000.0,215.33203125,-62.98828125,-1.46484375,0.0,0,0
1766594181.6139789,1766594181.5628881,-264.6484375,-1000.0,-35.15625,18.06640625,0.0,0,0
1766594181.614017,1766594181.5667846,917.96875,-326.66015625,11.71875,43.45703125,0.0,0,0
1766594181.614057,1766594181.570681,780.2734375,-970.21484375,0.0,43.9453125,0.0,0,0
1766594181.614094,1766594181.5745778,-362.3046875,980.95703125,-55.17578125,4.8828125,0.0,0,0
1766594181.614131,1766594181.5784743,-1000.0,-277.34375,-67.3828125,-30.76171875,0.0,0,0
1766594181.6141682,1766594181.5823708,-399.4140625,-1000.0,-26.3671875,-1.46484375,0.0,0,0
1766594181.614204,1766594181.5862675,785.64453125,-940.4296875,13.671875,46.875,0.0,0,0
1766594181.6142468,1766594181.590164,885.7421875,287.59765625,2.9296875,55.6640625,0.0,0,0
1766594181.659358,1766594181.5941567,-206.0546875,-803.22265625,-28.3203125,22.4609375,0.0,0,0
1766594181.659468,1766594181.5980532,-1000.0,-63.4765625,-33.69140625,-5.859375,0.0,0,0
1766594181.6595268,1766594181.60195,-492.1875,-1000.0,-17.578125,-12.6953125,0.0,0,0
1766594181.65958,1766594181.6058464,704.1015625,-953.125,2.9296875,1.46484375,0.0,0,0
1766594181.659631,1766594181.609743,952.63671875,326.66015625,0.0,34.66796875,0.0,0,0
1766594181.659681,1766594181.6136396,21.97265625,-905.76171875,-14.16015625,39.0625,0.0,0,0
1766594181.659733,1766594181.617536,-991.2109375,903.3203125,-30.76171875,-0.48828125,0.0,0,0
1766594181.659785,1766594181.6214328,-636.71875,977.5390625,-37.59765625,-21.97265625,0.0,0,0
1766594181.659837,1766594181.6253293,562.5,947.265625,-13.671875,0.0,0.0,0,0
1766594181.6598852,1766594181.6292257,992.67578125,940.4296875,8.7890625,41.015625,0.0,0,0
1766594181.659936,1766594181.6331224,-17.08984375,-944.3359375,-17.578125,23.4375,0.0,0,0
1766594181.659987,1766594181.637019,-1000.0,-132.8125,-41.015625,-10.7421875,0.0,0,0
1766594181.750407,1766594181.6412318,-714.35546875,-1000.0,-23.92578125,-13.18359375,0.0,0,0
1766594181.750541,1766594181.6451285,452.63671875,-1000.0,0.0,14.16015625,0.0,0,0
1766594181.7505972,1766594181.649025,-926.7578125,-269.04296875,4.8828125,54.19921875,0.0,0,0
1766594181.750649,1766594181.6529217,297.36328125,-820.3125,-17.578125,41.9921875,0.0,0,0
1766594181.7507021,1766594181.6568182,-892.08984375,270.01953125,-53.7109375,-19.53125,0.0,0,0
1766594181.750753,1766594181.6607149,-816.40625,-1000.0,-35.15625,-43.45703125,0.0,0,0
1766594181.7508018,1766594181.6646113,368.1640625,-202.63671875,9.27734375,4.39453125,0.0,0,0
1766594181.7508538,1766594181.668508,-918.9453125,-993.1640625,-3.90625,30.2734375,0.0,0,0
1766594181.750904,1766594181.6724048,323.73046875,-917.48046875,-22.4609375,18.5546875,0.0,0,0
1766594181.750955,1766594181.6763012,-827.63671875,160.64453125,-33.69140625,3.90625,0.0,0,0
1766594181.751071,1766594181.680198,-959.47265625,-1000.0,-40.0390625,-14.6484375,0.0,0,0
1766594181.751161,1766594181.6840944,93.26171875,-984.375,-12.20703125,-1.953125,0.0,0,0
1766594181.752646,1766594181.6880908,-929.6875,-973.14453125,-3.90625,30.2734375,0.0,0,0
1766594181.752696,1766594181.6919873,561.03515625,-1000.0,-27.83203125,13.671875,0.0,0,0
1766594181.752735,1766594181.695884,-676.7578125,-999.0234375,-53.22265625,-6.8359375,0.0,0,0
1766594181.752772,1766594181.6997807,-957.03125,-940.91796875,-43.9453125,-5.37109375,0.0,0,0
1766594181.75281,1766594181.7036772,116.69921875,-1000.0,-15.13671875,-2.9296875,0.0,0,0
1766594181.752846,1766594181.707574,-945.80078125,-249.0234375,6.34765625,23.4375,0.0,0,0
1766594181.752882,1766594181.7114704,616.69921875,-861.81640625,-16.6015625,18.06640625,0.0,0,0
1766594181.7529202,1766594181.715367,-572.265625,662.109375,-56.15234375,-19.04296875,0.0,0,0
1766594181.7529569,1766594181.7192638,-1000.0,-722.16796875,-48.828125,-43.45703125,0.0,0,0
1766594181.752993,1766594181.7231603,-222.16796875,-1000.0,-22.4609375,-38.0859375,0.0,0,0
1766594181.7530298,1766594181.727057,904.78515625,-118.65234375,-24.90234375,-10.25390625,0.0,0,0
1766594181.753067,1766594181.7309537,790.52734375,-975.5859375,-28.3203125,4.39453125,0.0,0,0
1766594181.80963,1766594181.7349188,-369.62890625,990.72265625,-36.62109375,-3.41796875,0.0,0,0
1766594181.80976,1766594181.7388153,-1000.0,-178.7109375,-46.38671875,-21.97265625,0.0,0,0
1766594181.809815,1766594181.742712,-309.08203125,-1000.0,-19.04296875,-28.3203125,0.0,0,0
1766594181.8098528,1766594181.7466087,865.234375,-822.75390625,-5.859375,-14.16015625,0.0,0,0
1766594181.80989,1766594181.7505052,883.30078125,504.8828125,-13.18359375,-1.46484375,0.0,0,0
1766594181.809927,1766594181.754402,-212.890625,-922.8515625,-28.3203125,-13.18359375,0.0,0,0
1766594181.809964,1766594181.7582986,-1000.0,902.34375,-36.1328125,-41.9921875,0.0,0,0
1766594181.810001,1766594181.762195,-431.15234375,979.4921875,-34.66796875,-44.921875,0.0,0,0
1766594181.810038,1766594181.7660918,760.7421875,905.2734375,-20.99609375,-9.27734375,0.0,0,0
1766594181.8100748,1766594181.7699885,883.7890625,-893.5546875,-6.8359375,7.8125,0.0,0,0
1766594181.810111,1766594181.773885,-258.30078125,187.5,-31.73828125,-16.6015625,0.0,0,0
1766594181.810147,1766594181.7777817,-1000.0,-1000.0,-36.1328125,-33.69140625,0.0,0,0
1766594181.8562062,1766594181.781813,-540.52734375,-921.875,-19.53125,-31.73828125,0.0,0,0
1766594181.8563352,1766594181.7857094,624.51171875,-1000.0,-9.27734375,-30.76171875,0.0,0,0
1766594181.856389,1766594181.789606,-970.703125,-274.90234375,-12.6953125,-20.99609375,0.0,0,0
1766594181.858488,1766594181.7935028,62.98828125,-823.73046875,-39.55078125,-8.30078125,0.0,0,0
1766594181.85855,1766594181.7973995,-1000.0,127.9296875,-43.45703125,-33.203125,0.0,0,0
1766594181.858614,1766594181.801296,-669.921875,-1000.0,-28.80859375,-61.5234375,0.0,0,0
1766594181.85868,1766594181.8051927,517.578125,-1000.0,-16.6015625,-29.78515625,0.0,0,0
1766594181.85873,1766594181.8090894,-934.5703125,-215.8203125,-1.46484375,24.90234375,0.0,0,0
1766594181.8588002,1766594181.8129861,255.859375,-816.89453125,-19.53125,33.203125,0.0,0,0
1766594181.858851,1766594181.8168826,-930.6640625,181.15234375,-40.52734375,-32.2265625,0.0,0,0
1766594181.8589041,1766594181.8207793,-787.109375,-1000.0,-29.78515625,-61.03515625,0.0,0,0
1766594181.858953,1766594181.824676,401.85546875,-941.40625,-3.90625,-20.01953125,0.0,0,0
1766594181.8988779,1766594181.8286974,-930.17578125,-1000.0,10.25390625,-7.8125,0.0,0,0
1766594181.899013,1766594181.8325942,416.015625,59.5703125,-2.9296875,-12.6953125,0.0,0,0
1766594181.89907,1766594181.8364909,-768.5546875,-878.41796875,-44.921875,-7.8125,0.0,0,0
1766594181.899123,1766594181.8403873,-914.55078125,-361.328125,-34.66796875,-30.76171875,0.0,0,0
1766594181.899176,1766594181.844284,219.7265625,-1000.0,13.18359375,-46.38671875,0.0,0,0
1766594181.8992262,1766594181.8481808,-914.0625,222.65625,21.97265625,18.5546875,0.0,0,0
1766594181.8992698,1766594181.8520775,486.81640625,-962.40234375,-29.78515625,41.015625,0.0,0,0
1766594181.899307,1766594181.8559742,-706.54296875,-956.54296875,-57.6171875,-25.390625,0.0,0,0
1766594181.8993459,1766594181.8598707,-1000.0,134.27734375,-35.64453125,-101.5625,0.0,0,0
1766594181.899381,1766594181.8637674,20.01953125,-1000.0,-28.3203125,-46.875,0.0,0,0
1766594181.8994272,1766594181.867664,-922.8515625,-977.05078125,3.90625,40.0390625,0.0,0,0
1766594181.899473,1766594181.8715608,562.98828125,-977.5390625,16.6015625,-58.59375,0.0,0,0
1766594181.942823,1766594181.8755682,-666.015625,-1000.0,-23.92578125,-108.88671875,0.0,0,0
1766594181.942923,1766594181.8794649,-993.65234375,-937.5,-41.50390625,-42.48046875,0.0,0,0
1766594181.942962,1766594181.8833616,27.34375,-1000.0,-0.9765625,-24.4140625,0.0,0,0
1766594181.943,1766594181.8872583,-979.98046875,-206.0546875,31.73828125,-48.33984375,0.0,0,0
1766594181.94304,1766594181.891155,693.84765625,976.5625,-24.90234375,8.7890625,0.0,0,0
1766594181.943077,1766594181.8950517,-465.8203125,-969.7265625,13.18359375,-80.56640625,0.0,0,0
1766594181.943115,1766594181.8989482,-1000.0,759.27734375,17.08984375,-182.12890625,0.0,0,0
1766594181.9431522,1766594181.902845,-416.015625,-817.3828125,-49.8046875,-1.953125,0.0,0,0
1766594181.943189,1766594181.9067416,873.046875,-368.1640625,-20.99609375,87.40234375,0.0,0,0
1766594181.943226,1766594181.9106383,727.5390625,-784.1796875,-5.859375,-29.78515625,0.0,0,0
1766594181.943263,1766594181.914535,-479.00390625,539.55078125,-52.24609375,-42.48046875,0.0,0,0
1766594181.9433,1766594181.9184318,-1000.0,-807.6171875,-60.546875,-13.18359375,0.0,0,0
1766594182.049702,1766594181.9227316,-434.08203125,-1000.0,31.73828125,-84.9609375,0.0,0,0
1766594182.049912,1766594181.9266284,755.859375,-557.6171875,50.29296875,-110.83984375,0.0,0,0
1766594182.050056,1766594181.930525,883.7890625,759.765625,-54.19921875,43.45703125,0.0,0,0
1766594182.050134,1766594181.9344218,-258.30078125,-835.44921875,-89.84375,116.69921875,0.0,0,0
1766594182.0501912,1766594181.9383185,-1000.0,64.94140625,-100.09765625,56.15234375,0.0,0,0
1766594182.050242,1766594181.9422152,-541.9921875,-1000.0,-41.015625,-17.578125,0.0,0,0
1766594182.050293,1766594181.946112,700.68359375,-23.4375,12.20703125,-20.01953125,0.0,0,0
1766594182.0503428,1766594181.9500086,937.98828125,-874.51171875,-37.109375,58.59375,0.0,0,0
1766594182.050473,1766594181.9539056,-169.43359375,874.51171875,-74.21875,92.28515625,0.0,0,0
1766594182.0505338,1766594181.9578023,-1000.0,-368.65234375,-58.59375,0.48828125,0.0,0,0
1766594182.050588,1766594181.961699,-666.9921875,-1000.0,-42.48046875,-32.71484375,0.0,0,0
1766594182.0506399,1766594181.9655957,545.8984375,-154.78515625,-11.23046875,25.390625,0.0,0,0
1766594182.051905,1766594181.96968,-988.76953125,970.21484375,-4.8828125,25.390625,0.0,0,0
1766594182.0519621,1766594181.973577,-31.25,-910.64453125,-42.96875,22.4609375,0.0,0,0
1766594182.0520031,1766594181.9774737,-1000.0,147.4609375,-57.6171875,5.859375,0.0,0,0
1766594182.0520399,1766594181.9813704,-747.0703125,-1000.0,-44.921875,-20.99609375,0.0,0,0
1766594182.052078,1766594181.9852672,401.85546875,-1000.0,-25.390625,5.37109375,0.0,0,0
1766594182.052115,1766594181.989164,-912.59765625,-287.59765625,-10.7421875,34.1796875,0.0,0,0
1766594182.0521522,1766594181.9930608,202.63671875,-848.14453125,-37.109375,11.71875,0.0,0,0
1766594182.0521889,1766594181.9969575,-989.74609375,405.76171875,-70.3125,-29.78515625,0.0,0,0
1766594182.0522282,1766594182.0008543,-825.68359375,-1000.0,-47.36328125,-32.71484375,0.0,0,0
1766594182.052264,1766594182.0047512,315.91796875,-1000.0,-9.765625,0.48828125,0.0,0,0
1766594182.0523,1766594182.008648,-895.99609375,263.671875,3.90625,21.484375,0.0,0,0
1766594182.052345,1766594182.0125446,302.24609375,-777.83203125,-27.34375,13.671875,0.0,0,0
1766594182.078602,1766594182.0165265,-929.6875,188.4765625,-58.10546875,-19.04296875,0.0,0,0
1766594182.078691,1766594182.0204232,-899.4140625,-1000.0,-47.8515625,-51.7578125,0.0,0,0
1766594182.0787451,1766594182.0243201,244.62890625,-228.515625,-20.01953125,-41.9921875,0.0,0,0
1766594182.0787961,1766594182.0282168,-901.3671875,-941.89453125,-19.04296875,1.953125,0.0,0,0
1766594182.078847,1766594182.0321136,420.41015625,949.21875,-38.0859375,23.4375,0.0,0,0
1766594182.078898,1766594182.0360105,-750.9765625,938.96484375,-46.875,-8.30078125,0.0,0,0
1766594182.078948,1766594182.0399072,-1000.0,978.02734375,-43.9453125,-42.48046875,0.0,0,0
1766594182.078998,1766594182.043804,-138.18359375,954.1015625,-33.203125,-40.0390625,0.0,0,0
1766594182.0790489,1766594182.0477006,970.703125,927.24609375,-22.94921875,-11.71875,0.0,0,0
1766594182.0791,1766594182.0515976,672.8515625,-920.41015625,-30.76171875,6.34765625,0.0,0,0
1766594182.0791512,1766594182.0554943,-563.4765625,-38.0859375,-53.22265625,-13.18359375,0.0,0,0
1766594182.0792,1766594182.059391,-1000.0,-1000.0,-41.015625,-65.4296875,0.0,0,0
1766594182.1240242,1766594182.0633585,-145.5078125,-955.078125,-12.6953125,-51.7578125,0.0,0,0
1766594182.124139,1766594182.0672553,979.00390625,-989.74609375,-2.9296875,19.04296875,0.0,0,0
1766594182.124195,1766594182.071152,698.73046875,-1000.0,-11.71875,17.08984375,0.0,0,0
1766594182.124249,1766594182.075049,-504.8828125,-927.24609375,-41.50390625,-24.90234375,0.0,0,0
1766594182.1243,1766594182.0789456,-1000.0,-1000.0,-42.96875,-48.33984375,0.0,0,0
1766594182.12435,1766594182.0828424,-126.46484375,-432.6171875,-19.04296875,-8.7890625,0.0,0,0
1766594182.1244009,1766594182.0867393,-979.98046875,873.53515625,23.92578125,-21.484375,0.0,0,0
1766594182.124457,1766594182.090636,725.5859375,-896.97265625,22.94921875,-72.265625,0.0,0,0
1766594182.124522,1766594182.0945327,-402.34375,543.45703125,-54.19921875,-23.4375,0.0,0,0
1766594182.1245708,1766594182.0984297,-1000.0,-843.75,-65.4296875,-25.390625,0.0,0,0
1766594182.1246421,1766594182.1023264,-430.17578125,-995.60546875,-36.1328125,-26.3671875,0.0,0,0
1766594182.124692,1766594182.106223,754.39453125,-1000.0,-16.6015625,-48.33984375,0.0,0,0
1766594182.1829581,1766594182.1101842,990.72265625,-289.55078125,-26.85546875,-23.4375,0.0,0,0
1766594182.183085,1766594182.114081,-128.41796875,-837.890625,-40.52734375,-1.953125,0.0,0,0
1766594182.183142,1766594182.1179779,-1000.0,96.6796875,-35.64453125,-66.89453125,0.0,0,0
1766594182.1831942,1766594182.1218746,-446.77734375,-1000.0,-28.3203125,-51.26953125,0.0,0,0
1766594182.1832461,1766594182.1257713,728.515625,-1000.0,1.46484375,-66.40625,0.0,0,0
1766594182.183296,1766594182.1296682,-988.76953125,95.703125,16.6015625,-54.19921875,0.0,0,0
1766594182.183347,1766594182.133565,57.6171875,-768.5546875,-24.90234375,-23.4375,0.0,0,0
1766594182.1833978,1766594182.1374617,-1000.0,338.37890625,-72.75390625,-54.19921875,0.0,0,0
1766594182.1838841,1766594182.1413586,-672.36328125,-925.29296875,-62.5,-40.52734375,0.0,0,0
1766594182.1839411,1766594182.1452553,512.6953125,-1000.0,-15.625,-31.25,0.0,0,0
1766594182.18399,1766594182.1491523,-935.05859375,-238.28125,10.7421875,-41.9921875,0.0,0,0
1766594182.184054,1766594182.153049,207.03125,-839.84375,-15.625,-41.9921875,0.0,0,0
1766594182.229383,1766594182.1570773,-970.703125,195.3125,-60.05859375,-22.94921875,0.0,0,0
1766594182.229515,1766594182.1609743,-775.390625,-1000.0,-49.31640625,-41.015625,0.0,0,0
1766594182.229575,1766594182.164871,399.90234375,-1000.0,-17.578125,1.953125,0.0,0,0
1766594182.2296278,1766594182.1687677,-928.22265625,169.43359375,12.20703125,16.6015625,0.0,0,0
1766594182.229682,1766594182.1726646,281.73828125,-906.73828125,-20.5078125,-45.41015625,0.0,0,0
1766594182.229735,1766594182.1765614,-892.578125,910.64453125,-11.71875,-72.265625,0.0,0,0
1766594182.2298071,1766594182.1804583,-883.7890625,965.8203125,-8.7890625,-46.875,0.0,0,0
1766594182.2298582,1766594182.184355,259.27734375,969.23828125,-35.15625,-45.41015625,0.0,0,0
1766594182.229909,1766594182.188252,-903.3203125,905.2734375,-2.44140625,-20.99609375,0.0,0,0
1766594182.2299678,1766594182.1921487,415.0390625,-893.5546875,-11.71875,23.92578125,0.0,0,0
1766594182.230029,1766594182.1960456,-786.62109375,177.24609375,-37.109375,-32.2265625,0.0,0,0
1766594182.2300959,1766594182.1999424,-940.4296875,-1000.0,4.39453125,-117.1875,0.0,0,0
1766594182.275224,1766594182.2039561,72.75390625,-997.0703125,52.24609375,-131.8359375,0.0,0,0
1766594182.27534,1766594182.2078528,-962.40234375,-997.0703125,0.0,-34.66796875,0.0,0,0
1766594182.2753952,1766594182.2117498,605.46875,501.46484375,-17.578125,-13.671875,0.0,0,0
1766594182.275449,1766594182.2156465,-641.6015625,560.05859375,-22.4609375,-59.5703125,0.0,0,0
1766594182.2755,1766594182.2195435,-1000.0,-1000.0,-41.50390625,-103.02734375,0.0,0,0
1766594182.275549,1766594182.2234404,4.39453125,-487.79296875,-19.53125,-75.1953125,0.0,0,0
1766594182.2756,1766594182.2273371,-939.94140625,887.20703125,-28.3203125,12.20703125,0.0,0,0
1766594182.275651,1766594182.231234,633.30078125,-883.7890625,-68.84765625,41.50390625,0.0,0,0
1766594182.275703,1766594182.2351308,-546.38671875,441.40625,-72.265625,-4.8828125,0.0,0,0
1766594182.275754,1766594182.2390277,-1000.0,-921.875,0.9765625,-152.83203125,0.0,0,0
1766594182.275831,1766594182.2429245,-235.83984375,-1000.0,0.0,-205.078125,0.0,0,0
1766594182.275893,1766594182.2468214,936.03515625,-948.73046875,-34.1796875,-42.96875,0.0,0,0
1766594182.335438,1766594182.2509127,707.03125,-1000.0,-18.06640625,24.90234375,0.0,0,0
1766594182.335571,1766594182.2548094,-484.86328125,-1000.0,-21.97265625,-74.21875,0.0,0,0
1766594182.3356102,1766594182.2587063,-1000.0,-937.5,4.8828125,-173.33984375,0.0,0,0
1766594182.3356469,1766594182.2626033,-311.5234375,-1000.0,-34.66796875,-80.078125,0.0,0,0
1766594182.335685,1766594182.2665,851.07421875,-205.56640625,-27.83203125,-5.859375,0.0,0,0
1766594182.335724,1766594182.270397,847.16796875,968.26171875,-21.97265625,30.2734375,0.0,0,0
1766594182.3357599,1766594182.274294,-266.6015625,-944.3359375,-80.56640625,46.38671875,0.0,0,0
1766594182.335798,1766594182.2781906,-1000.0,584.9609375,-84.47265625,-19.04296875,0.0,0,0
1766594182.335834,1766594182.2820876,-597.65625,-836.42578125,-50.29296875,-69.3359375,0.0,0,0
1766594182.3358898,1766594182.2859843,631.34765625,-1000.0,-2.9296875,-136.23046875,0.0,0,0
1766594182.335933,1766594182.2898812,962.40234375,192.87109375,-5.37109375,-68.84765625,0.0,0,0
1766594182.335979,1766594182.2937782,-126.953125,-812.98828125,-20.5078125,5.37109375,0.0,0,0
1766594182.364688,1766594182.2977836,-1000.0,567.87109375,-39.0625,-65.4296875,0.0,0,0
1766594182.3648279,1766594182.3016806,-693.84765625,-787.59765625,-36.62109375,-107.91015625,0.0,0,0
1766594182.3648698,1766594182.3055773,493.65234375,-1000.0,40.52734375,-126.953125,0.0,0,0
1766594182.3649092,1766594182.3094742,-957.51953125,54.6875,1.46484375,-75.1953125,0.0,0,0
1766594182.364946,1766594182.3133712,25.87890625,-934.08203125,-56.15234375,-16.6015625,0.0,0,0
1766594182.364992,1766594182.3172681,-1000.0,925.29296875,-45.8984375,-88.37890625,0.0,0,0
1766594182.3650298,1766594182.3211648,-812.5,970.703125,16.6015625,-208.984375,0.0,0,0
1766594182.365067,1766594182.3250618,350.09765625,896.484375,8.30078125,-212.40234375,0.0,0,0
1766594182.365105,1766594182.3289587,982.91015625,-910.15625,-64.453125,-85.44921875,0.0,0,0
1766594182.365168,1766594182.3328555,-91.30859375,531.25,-69.82421875,-106.4453125,0.0,0,0
1766594182.365205,1766594182.3367524,-1000.0,-907.71484375,-73.73046875,-166.9921875,0.0,0,0
1766594182.3652601,1766594182.3406494,-897.94921875,-1000.0,-27.83203125,-250.48828125,0.0,0,0
1766594182.4103522,1766594182.3446386,114.2578125,-945.80078125,-13.18359375,-257.32421875,0.0,0,0
1766594182.410482,1766594182.3485355,947.75390625,-1000.0,-47.8515625,-174.8046875,0.0,0,0
1766594182.410541,1766594182.3524325,88.37890625,-1000.0,-59.5703125,-195.80078125,0.0,0,0
1766594182.410594,1766594182.3563292,-960.9375,-937.5,-76.66015625,-213.37890625,0.0,0,0
1766594182.410646,1766594182.3602262,-953.61328125,-1000.0,-58.10546875,-243.1640625,0.0,0,0
1766594182.410696,1766594182.364123,110.3515625,-219.7265625,-14.16015625,-270.5078125,0.0,0,0
1766594182.410748,1766594182.36802,-908.203125,-960.44921875,-11.71875,-210.9375,0.0,0,0
1766594182.410799,1766594182.3719168,240.72265625,889.16015625,-24.4140625,-193.359375,0.0,0,0
1766594182.41085,1766594182.3758137,-917.96875,-928.7109375,-61.5234375,-189.94140625,0.0,0,0
1766594182.41091,1766594182.3797107,-1000.0,255.859375,-83.984375,-164.55078125,0.0,0,0
1766594182.41096,1766594182.3836076,-140.625,-1000.0,-32.71484375,-180.6640625,0.0,0,0
1766594182.411009,1766594182.3875043,996.09375,-339.84375,-1.46484375,-143.5546875,0.0,0,0
1766594182.45359,1766594182.3914843,572.75390625,958.984375,-55.17578125,-83.49609375,0.0,0,0
1766594182.453693,1766594182.395381,-653.3203125,-904.78515625,-83.0078125,-91.796875,0.0,0,0
1766594182.453747,1766594182.399278,-1000.0,99.12109375,-81.54296875,-123.53515625,0.0,0,0
1766594182.453799,1766594182.4031749,-268.5546875,-1000.0,-57.12890625,-120.1171875,0.0,0,0
1766594182.45385,1766594182.4070718,921.38671875,-1000.0,-30.2734375,-74.70703125,0.0,0,0
1766594182.453901,1766594182.4109688,769.04296875,31.25,-26.3671875,-5.859375,0.0,0,0
1766594182.453951,1766594182.4148657,-399.90234375,-775.390625,-47.8515625,-29.296875,0.0,0,0
1766594182.454002,1766594182.4187624,-1000.0,423.33984375,-75.1953125,-63.96484375,0.0,0,0
1766594182.454051,1766594182.4226594,-499.0234375,-1000.0,-48.828125,-23.4375,0.0,0,0
1766594182.454099,1766594182.4265563,754.8828125,-242.1875,-12.6953125,27.34375,0.0,0,0
1766594182.454149,1766594182.4304533,857.421875,-978.02734375,-23.4375,37.59765625,0.0,0,0
1766594182.4541981,1766594182.4343503,-293.45703125,-922.8515625,-49.31640625,25.390625,0.0,0,0
1766594182.498461,1766594182.4383209,-1000.0,156.25,-45.41015625,4.8828125,0.0,0,0
1766594182.498569,1766594182.4422178,-408.69140625,-1000.0,-27.83203125,0.9765625,0.0,0,0
1766594182.498612,1766594182.4461148,819.82421875,-983.3984375,-18.06640625,55.17578125,0.0,0,0
1766594182.498652,1766594182.4500117,892.08984375,-973.6328125,-20.01953125,86.9140625,0.0,0,0
1766594182.498691,1766594182.4539087,-182.6171875,-1000.0,-39.55078125,65.91796875,0.0,0,0
1766594182.4987268,1766594182.4578056,-1000.0,-934.5703125,-38.0859375,35.15625,0.0,0,0
1766594182.498764,1766594182.4617026,-492.67578125,-1000.0,-23.92578125,41.9921875,0.0,0,0
1766594182.498801,1766594182.4655993,705.56640625,-267.08984375,-16.6015625,77.63671875,0.0,0,0
1766594182.4988391,1766594182.4694963,991.2109375,-976.5625,-18.06640625,100.5859375,0.0,0,0
1766594182.4988759,1766594182.4733932,10.7421875,959.47265625,-51.26953125,83.984375,0.0,0,0
1766594182.498915,1766594182.4772902,-1000.0,937.01171875,-62.01171875,48.33984375,0.0,0,0
1766594182.498955,1766594182.481187,-583.984375,979.98046875,-38.0859375,39.0625,0.0,0,0
1766594182.5579672,1766594182.4851487,618.65234375,949.21875,-5.859375,67.87109375,0.0,0,0
1766594182.558507,1766594182.4890456,-957.03125,936.03515625,0.9765625,89.35546875,0.0,0,0
1766594182.558579,1766594182.4929423,161.62109375,-943.84765625,-37.59765625,70.3125,0.0,0,0
1766594182.558631,1766594182.4968393,-994.140625,-33.203125,-58.59375,37.109375,0.0,0,0
1766594182.558692,1766594182.5007362,-748.53515625,-1000.0,-32.2265625,25.87890625,0.0,0,0
1766594182.558741,1766594182.5046332,459.47265625,-352.05078125,12.20703125,58.10546875,0.0,0,0
1766594182.5588,1766594182.5085301,-913.0859375,920.8984375,17.578125,100.5859375,0.0,0,0
1766594182.55885,1766594182.512427,237.79296875,-889.16015625,-24.90234375,90.8203125,0.0,0,0
1766594182.558899,1766594182.516324,-950.1953125,41.9921875,-47.36328125,41.50390625,0.0,0,0
1766594182.5589492,1766594182.520221,-811.5234375,-1000.0,-28.80859375,22.4609375,0.0,0,0
1766594182.558998,1766594182.524118,331.54296875,-1000.0,4.39453125,43.9453125,0.0,0,0
1766594182.5590458,1766594182.5280147,-913.57421875,-616.2109375,12.20703125,64.94140625,0.0,0,0
1766594182.634104,1766594182.5321894,529.78515625,992.67578125,-12.6953125,62.98828125,0.0,0,0
1766594182.634258,1766594182.5360863,-713.37890625,294.43359375,-49.8046875,26.3671875,0.0,0,0
1766594182.634318,1766594182.5399833,-922.36328125,-1000.0,-43.45703125,-1.46484375,0.0,0,0
1766594182.634449,1766594182.5438802,213.8671875,-1000.0,-10.25390625,23.92578125,0.0,0,0
1766594182.634526,1766594182.5477772,-916.015625,53.7109375,9.765625,61.03515625,0.0,0,0
1766594182.63457,1766594182.5516741,539.55078125,-971.6796875,-0.48828125,62.5,0.0,0,0
1766594182.634611,1766594182.555571,-641.11328125,-954.58984375,-37.59765625,35.64453125,0.0,0,0
1766594182.6346502,1766594182.559468,-1000.0,91.796875,-54.19921875,2.9296875,0.0,0,0
1766594182.6346922,1766594182.563365,-83.984375,-1000.0,-18.06640625,-0.9765625,0.0,0,0
1766594182.634728,1766594182.567262,-979.00390625,-1000.0,2.9296875,25.390625,0.0,0,0
1766594182.634763,1766594182.571159,746.58203125,137.20703125,-14.6484375,44.43359375,0.0,0,0
1766594182.634809,1766594182.5750558,-439.94140625,822.75390625,-42.48046875,24.4140625,0.0,0,0
1766594182.64906,1766594182.579076,-1000.0,-703.61328125,-49.8046875,-10.7421875,0.0,0,0
1766594182.649154,1766594182.582973,-141.11328125,-1000.0,-11.23046875,-1.46484375,0.0,0,0
1766594182.6492102,1766594182.58687,978.02734375,-271.484375,17.08984375,36.1328125,0.0,0,0
1766594182.6492631,1766594182.590767,750.0,-882.8125,-3.90625,54.19921875,0.0,0,0
1766594182.649315,1766594182.5946639,-431.640625,589.84375,-38.57421875,16.6015625,0.0,0,0
1766594182.649365,1766594182.5985608,-1000.0,-1000.0,-39.0625,-20.5078125,0.0,0,0
1766594182.6494138,1766594182.6024578,-223.14453125,-596.19140625,-18.06640625,-5.859375,0.0,0,0
1766594182.649473,1766594182.606355,981.93359375,845.703125,-11.23046875,19.04296875,0.0,0,0
1766594182.649525,1766594182.610252,786.62109375,-887.6953125,-19.04296875,27.34375,0.0,0,0
1766594182.649583,1766594182.6141489,-363.28125,533.203125,-44.43359375,3.41796875,0.0,0,0
1766594182.649643,1766594182.6180458,-1000.0,-836.9140625,-62.98828125,-32.71484375,0.0,0,0
1766594182.649693,1766594182.6219428,-419.43359375,-1000.0,-36.62109375,-31.73828125,0.0,0,0
1766594182.695432,1766594182.6259494,776.3671875,-942.87109375,-5.859375,-1.953125,0.0,0,0
1766594182.69553,1766594182.6298463,870.60546875,-1000.0,-10.7421875,12.20703125,0.0,0,0
1766594182.695585,1766594182.6337433,-181.640625,-989.2578125,-29.78515625,2.9296875,0.0,0,0
1766594182.695637,1766594182.6376402,-1000.0,-955.56640625,-41.50390625,-8.30078125,0.0,0,0
1766594182.695689,1766594182.6415372,-544.43359375,-1000.0,-25.390625,-14.16015625,0.0,0,0
1766594182.695738,1766594182.6454344,676.7578125,-16.6015625,6.8359375,1.46484375,0.0,0,0
1766594182.695791,1766594182.6493313,994.140625,-988.76953125,-6.34765625,25.87890625,0.0,0,0
1766594182.695842,1766594182.6532283,9.765625,-976.07421875,-28.80859375,9.765625,0.0,0,0
1766594182.6958919,1766594182.6571252,-1000.0,632.8125,-33.69140625,-14.6484375,0.0,0,0
1766594182.6959412,1766594182.6610222,-770.99609375,-832.51953125,-24.4140625,-16.11328125,0.0,0,0
1766594182.6959932,1766594182.6649194,425.29296875,-1000.0,12.6953125,0.9765625,0.0,0,0
1766594182.696063,1766594182.6688163,-922.8515625,283.203125,8.30078125,11.23046875,0.0,0,0
1766594182.739421,1766594182.6728165,228.515625,-783.69140625,-37.59765625,3.90625,0.0,0,0
1766594182.739533,1766594182.6767137,-939.453125,245.1171875,-63.4765625,-35.64453125,0.0,0,0
1766594182.739595,1766594182.6806107,-786.1328125,-1000.0,-47.8515625,-59.08203125,0.0,0,0
1766594182.73965,1766594182.6845076,382.32421875,-1000.0,-8.30078125,-6.8359375,0.0,0,0
1766594182.739712,1766594182.6884046,-909.66796875,208.0078125,6.8359375,22.4609375,0.0,0,0
1766594182.739764,1766594182.6923018,353.02734375,-984.375,-9.765625,-1.46484375,0.0,0,0
1766594182.739817,1766594182.6961987,-832.51953125,-961.42578125,-23.92578125,-12.20703125,0.0,0,0
1766594182.739868,1766594182.7000957,-944.3359375,461.9140625,-33.203125,-30.76171875,0.0,0,0
1766594182.7399302,1766594182.7039926,72.265625,-947.265625,-22.94921875,-30.2734375,0.0,0,0
1766594182.73998,1766594182.7078898,-950.1953125,-1000.0,-3.90625,2.9296875,0.0,0,0
1766594182.740036,1766594182.7117867,426.26953125,-957.51953125,-15.13671875,9.765625,0.0,0,0
1766594182.740087,1766594182.7156837,-822.75390625,-986.81640625,-47.36328125,-26.3671875,0.0,0,0
1766594182.784267,1766594182.719671,-902.34375,-986.328125,-59.5703125,-50.78125,0.0,0,0
1766594182.784367,1766594182.723568,214.35546875,-1000.0,-13.18359375,-10.25390625,0.0,0,0
1766594182.7844238,1766594182.727465,-927.734375,159.66796875,26.85546875,28.3203125,0.0,0,0
1766594182.784478,1766594182.7313619,615.72265625,-898.92578125,-11.71875,1.46484375,0.0,0,0
1766594182.7845309,1766594182.735259,-587.890625,920.41015625,-57.6171875,-38.0859375,0.0,0,0
1766594182.7845829,1766594182.739156,-1000.0,-225.5859375,-35.15625,-41.50390625,0.0,0,0
1766594182.784634,1766594182.743053,-86.9140625,-1000.0,-4.39453125,-8.7890625,0.0,0,0
1766594182.784686,1766594182.7469501,-989.2578125,-212.40234375,0.0,14.6484375,0.0,0,0
1766594182.784738,1766594182.750847,661.1328125,-913.57421875,-21.97265625,6.34765625,0.0,0,0
1766594182.784788,1766594182.754744,-542.48046875,809.08203125,-48.828125,-15.13671875,0.0,0,0
1766594182.784838,1766594182.758641,-1000.0,-543.9453125,-41.9921875,-33.203125,0.0,0,0
1766594182.784887,1766594182.7625382,-283.203125,-1000.0,-16.11328125,-24.4140625,0.0,0,0
1766594182.846453,1766594182.766591,886.71875,-988.76953125,-6.34765625,-11.71875,0.0,0,0
1766594182.846574,1766594182.7704883,822.265625,343.75,-23.92578125,-19.53125,0.0,0,0
1766594182.846626,1766594182.7743852,-334.9609375,955.56640625,-45.8984375,-27.83203125,0.0,0,0
1766594182.846679,1766594182.7782822,-1000.0,-547.8515625,-41.015625,-45.8984375,0.0,0,0
1766594182.846729,1766594182.7821794,-459.47265625,-1000.0,-13.671875,-34.66796875,0.0,0,0
1766594182.8467789,1766594182.7860763,899.90234375,-110.83984375,19.04296875,9.765625,0.0,0,0
1766594182.846835,1766594182.7899733,744.62890625,974.609375,-8.7890625,-1.953125,0.0,0,0
1766594182.846893,1766594182.7938704,-261.71875,-671.38671875,-35.15625,-44.43359375,0.0,0,0
1766594182.846944,1766594182.7977674,541.015625,-981.93359375,-11.71875,-35.64453125,0.0,0,0
1766594182.846994,1766594182.8016646,-937.98828125,585.9375,-8.7890625,-23.92578125,0.0,0,0
1766594182.847043,1766594182.8055615,-78.125,-812.5,-27.34375,-21.484375,0.0,0,0
1766594182.8470871,1766594182.8094585,-1000.0,79.1015625,-49.31640625,-53.22265625,0.0,0,0
1766594182.8883772,1766594182.8135002,-639.16015625,-1000.0,-31.25,-76.66015625,0.0,0,0
1766594182.8884459,1766594182.817397,549.31640625,-1000.0,0.9765625,-31.73828125,0.0,0,0
1766594182.888486,1766594182.8212943,-925.29296875,-193.84765625,4.8828125,5.859375,0.0,0,0
1766594182.888522,1766594182.8251913,160.15625,-965.8203125,-18.06640625,12.6953125,0.0,0,0
1766594182.888559,1766594182.8290882,-1000.0,951.171875,-32.2265625,-25.390625,0.0,0,0
1766594182.8885949,1766594182.8329854,-717.28515625,949.70703125,-20.01953125,-60.05859375,0.0,0,0
1766594182.891131,1766594182.8368824,465.8203125,938.96484375,-14.16015625,-55.6640625,0.0,0,0
1766594182.891167,1766594182.8407795,-927.24609375,972.65625,-17.578125,-44.921875,0.0,0,0
1766594182.891197,1766594182.8446765,280.76171875,977.05078125,-26.3671875,-24.90234375,0.0,0,0
1766594182.8912268,1766594182.8485737,-926.26953125,-341.796875,-35.64453125,-29.78515625,0.0,0,0
1766594182.891257,1766594182.8524706,-823.73046875,-1000.0,-34.66796875,-59.5703125,0.0,0,0
1766594182.8912861,1766594182.8563678,330.56640625,-1000.0,-16.11328125,-52.734375,0.0,0,0
1766594182.9330812,1766594182.8603973,-897.4609375,-565.91796875,1.46484375,-2.44140625,0.0,0,0
1766594182.933214,1766594182.8642945,452.63671875,-996.09375,1.46484375,25.390625,0.0,0,0
1766594182.933256,1766594182.8681915,-802.24609375,734.86328125,-30.2734375,-15.625,0.0,0,0
1766594182.933297,1766594182.8720887,-940.91796875,-791.015625,-36.62109375,-54.6875,0.0,0,0
1766594182.933337,1766594182.8759856,142.08984375,-1000.0,-9.765625,-41.50390625,0.0,0,0
1766594182.933374,1766594182.8798828,-934.08203125,135.7421875,7.8125,-10.25390625,0.0,0,0
1766594182.933412,1766594182.8837798,565.4296875,-784.1796875,-11.71875,-6.8359375,0.0,0,0
1766594182.933449,1766594182.887677,-651.3671875,398.4375,-55.17578125,-39.0625,0.0,0,0
1766594182.933493,1766594182.891574,-1000.0,-877.9296875,-38.0859375,-63.96484375,0.0,0,0
1766594182.93353,1766594182.895471,-41.50390625,-1000.0,14.6484375,-53.22265625,0.0,0,0
1766594182.9335759,1766594182.8993683,-968.75,-464.84375,7.32421875,-6.8359375,0.0,0,0
1766594182.9336221,1766594182.9032652,675.29296875,-985.83984375,-15.625,-13.18359375,0.0,0,0
1766594182.979158,1766594182.907284,-520.5078125,708.0078125,-29.78515625,-49.31640625,0.0,0,0
1766594182.979275,1766594182.9111812,-1000.0,-747.55859375,-25.87890625,-88.8671875,0.0,0,0
1766594182.97941,1766594182.9150784,-216.30859375,-1000.0,-14.16015625,-89.84375,0.0,0,0
1766594182.979475,1766594182.9189754,957.03125,-928.22265625,15.625,-43.45703125,0.0,0,0
1766594182.97953,1766594182.9228725,753.41796875,215.33203125,13.18359375,-5.37109375,0.0,0,0
1766594182.9795809,1766594182.9267697,-409.66796875,-794.43359375,-24.90234375,4.39453125,0.0,0,0
1766594182.979646,1766594182.9306667,-1000.0,534.1796875,-20.01953125,-56.640625,0.0,0,0
1766594182.9797099,1766594182.9345639,-424.8046875,-763.18359375,-7.8125,-108.3984375,0.0,0,0
1766594182.979761,1766594182.9384608,819.82421875,-1000.0,1.953125,-92.28515625,0.0,0,0
1766594182.979819,1766594182.942358,894.53125,-68.84765625,7.8125,-39.0625,0.0,0,0
1766594182.979878,1766594182.9462552,-251.953125,713.37890625,-0.48828125,-66.40625,0.0,0,0
1766594182.979936,1766594182.9501522,-1000.0,-719.7265625,1.46484375,-153.80859375,0.0,0,0
1766594183.023236,1766594182.9541621,-467.28515625,-1000.0,10.7421875,-179.6875,0.0,0,0
1766594183.023363,1766594182.9580593,764.6484375,-679.19921875,8.30078125,-31.25,0.0,0,0
1766594183.023406,1766594182.9619565,925.78125,594.7265625,-4.39453125,56.640625,0.0,0,0
1766594183.023445,1766594182.9658537,-183.59375,-798.828125,-34.1796875,-39.55078125,0.0,0,0
1766594183.023484,1766594182.9697506,-1000.0,218.26171875,-38.57421875,-162.59765625,0.0,0,0
1766594183.023521,1766594182.9736478,-600.5859375,-1000.0,-7.8125,-119.140625,0.0,0,0
1766594183.023558,1766594182.977545,635.7421875,-114.74609375,-16.11328125,-47.36328125,0.0,0,0
1766594183.023602,1766594182.981442,-990.234375,-867.67578125,-26.85546875,-21.484375,0.0,0,0
1766594183.023639,1766594182.9853392,-50.29296875,851.07421875,4.39453125,-100.09765625,0.0,0,0
1766594183.023694,1766594182.9892364,-1000.0,-471.6796875,-10.7421875,-179.19921875,0.0,0,0
1766594183.023731,1766594182.9931333,-654.78515625,-1000.0,-9.765625,-68.84765625,0.0,0,0
1766594183.023808,1766594182.9970305,541.9921875,-1000.0,-17.578125,-34.66796875,0.0,0,0
1766594183.067907,1766594183.001031,-930.17578125,-123.53515625,-40.0390625,10.7421875,0.0,0,0
1766594183.068022,1766594183.004928,202.1484375,-799.31640625,-23.92578125,5.37109375,0.0,0,0
1766594183.068084,1766594183.008825,-977.05078125,429.6875,-41.50390625,-51.26953125,0.0,0,0
1766594183.068139,1766594183.0127223,-791.50390625,-1000.0,-86.9140625,-39.0625,0.0,0,0
1766594183.068192,1766594183.0166194,392.578125,-937.98828125,-61.03515625,55.6640625,0.0,0,0
1766594183.068243,1766594183.0205166,-905.2734375,428.22265625,-18.5546875,73.73046875,0.0,0,0
1766594183.068303,1766594183.0244136,246.58203125,-791.50390625,-67.87109375,13.671875,0.0,0,0
1766594183.068365,1766594183.0283108,-938.4765625,217.28515625,-10.7421875,-126.46484375,0.0,0,0
