timestamp,lsl_timestamp,TP9,AF7,AF8,TP10,Right AUX,keypress_A,keypress_B
1766859739.723552,1766859739.6330569,143.06640625,-43.9453125,-227.5390625,-134.27734375,0.0,0,0
1766859739.7240388,1766859739.6369522,-906.25,-62.98828125,-109.375,-213.37890625,0.0,0,0
1766859739.724076,1766859739.6408472,-632.32421875,-37.109375,104.00390625,-30.2734375,0.0,0,0
1766859739.724103,1766859739.6447423,375.48828125,-5.37109375,171.38671875,146.484375,0.0,0,0
1766859739.724129,1766859739.6486373,861.81640625,-9.765625,-54.19921875,76.66015625,0.0,0,0
1766859739.724153,1766859739.6525323,282.2265625,-31.25,-209.9609375,-97.65625,0.0,0,0
1766859739.7241778,1766859739.6564276,-833.0078125,4.8828125,-141.6015625,-229.00390625,0.0,0,0
1766859739.724203,1766859739.6603227,-737.3046875,7.8125,68.84765625,-83.0078125,0.0,0,0
1766859739.7242272,1766859739.6642177,252.9296875,-23.92578125,164.55078125,133.30078125,0.0,0,0
1766859739.724252,1766859739.6681128,895.5078125,-23.92578125,-35.64453125,92.28515625,0.0,0,0
1766859739.724276,1766859739.6720078,333.984375,-45.8984375,-215.33203125,-116.69921875,0.0,0,0
1766859739.724301,1766859739.675903,-716.30859375,-67.3828125,-169.921875,-227.5390625,0.0,0,0
1766859739.753626,1766859739.679882,-794.43359375,-48.828125,73.73046875,-62.5,0.0,0,0
1766859739.753738,1766859739.683777,72.265625,-21.97265625,196.2890625,150.87890625,0.0,0,0
1766859739.753772,1766859739.6876721,892.578125,-26.3671875,6.34765625,115.234375,0.0,0,0
1766859739.7537978,1766859739.6915672,465.33203125,-37.109375,-184.5703125,-76.171875,0.0,0,0
1766859739.7538319,1766859739.6954625,-542.48046875,-35.15625,-177.24609375,-175.29296875,0.0,0,0
1766859739.7538571,1766859739.6993575,-813.96484375,-36.1328125,46.875,-100.09765625,0.0,0,0
1766859739.7538948,1766859739.7032526,-91.796875,-35.15625,189.453125,82.03125,0.0,0,0
1766859739.753919,1766859739.7071476,859.86328125,-28.80859375,33.69140625,130.37109375,0.0,0,0
1766859739.753943,1766859739.711043,493.65234375,-40.0390625,-188.96484375,-79.1015625,0.0,0,0
1766859739.75397,1766859739.714938,-510.25390625,-64.453125,-213.37890625,-191.40625,0.0,0,0
1766859739.753994,1766859739.718833,-878.41796875,-66.40625,14.16015625,-78.125,0.0,0,0
1766859739.754018,1766859739.722728,-245.1171875,-30.76171875,169.921875,78.125,0.0,0,0
1766859739.7987242,1766859739.7267778,803.22265625,-29.296875,60.546875,160.64453125,0.0,0,0
1766859739.798833,1766859739.7306728,623.53515625,-11.71875,-163.0859375,-8.30078125,0.0,0,0
1766859739.798878,1766859739.734568,-381.34765625,-13.18359375,-230.46875,-226.07421875,0.0,0,0
1766859739.79892,1766859739.7384632,-935.05859375,-31.73828125,2.44140625,-140.13671875,0.0,0,0
1766859739.798959,1766859739.7423582,-348.6328125,-8.30078125,189.453125,54.19921875,0.0,0,0
1766859739.799,1766859739.7462535,755.859375,-24.90234375,118.65234375,170.8984375,0.0,0,0
1766859739.799037,1766859739.7501485,703.61328125,-42.96875,-135.7421875,38.0859375,0.0,0,0
1766859739.7990751,1766859739.7540436,-271.97265625,-58.10546875,-235.3515625,-166.015625,0.0,0,0
1766859739.799113,1766859739.7579389,-994.62890625,-50.29296875,-41.9921875,-184.08203125,0.0,0,0
1766859739.79915,1766859739.761834,-427.24609375,-28.80859375,163.0859375,21.484375,0.0,0,0
1766859739.799186,1766859739.765729,630.859375,-31.25,143.5546875,187.98828125,0.0,0,0
1766859739.799267,1766859739.7696242,706.54296875,-34.66796875,-124.0234375,8.30078125,0.0,0,0
1766859739.843437,1766859739.7736626,-117.67578125,-50.29296875,-249.51171875,-172.8515625,0.0,0,0
1766859739.8435168,1766859739.7775576,-951.171875,-62.5,-64.453125,-152.34375,0.0,0,0
1766859739.843543,1766859739.781453,-527.34375,-52.734375,135.25390625,0.9765625,0.0,0,0
1766859739.843571,1766859739.785348,469.7265625,-38.57421875,137.6953125,168.45703125,0.0,0,0
1766859739.8436322,1766859739.7892432,750.48828125,-60.05859375,-93.26171875,46.875,0.0,0,0
1766859739.843658,1766859739.7931383,125.9765625,-69.82421875,-246.09375,-160.15625,0.0,0,0
1766859739.843682,1766859739.7970335,-845.21484375,-58.10546875,-90.33203125,-159.66796875,0.0,0,0
1766859739.843738,1766859739.8009286,-618.65234375,-41.9921875,129.8828125,28.3203125,0.0,0,0
1766859739.843762,1766859739.8048239,372.55859375,2.9296875,160.64453125,173.33984375,0.0,0,0
1766859739.843786,1766859739.808719,841.796875,-12.20703125,-52.734375,72.265625,0.0,0,0
1766859739.8438091,1766859739.812614,209.47265625,-50.29296875,-229.4921875,-116.69921875,0.0,0,0
1766859739.8438358,1766859739.8165092,-859.86328125,-64.94140625,-131.8359375,-176.7578125,0.0,0,0
1766859739.888494,1766859739.8205364,-720.21484375,-55.6640625,97.65625,-23.4375,0.0,0,0
1766859739.888578,1766859739.8244317,209.9609375,-23.92578125,174.31640625,135.25390625,0.0,0,0
1766859739.888621,1766859739.8283267,852.05078125,-37.59765625,-25.87890625,134.27734375,0.0,0,0
1766859739.88866,1766859739.832222,317.87109375,-48.828125,-243.1640625,-110.83984375,0.0,0,0
1766859739.888701,1766859739.8361173,-759.765625,-39.55078125,-194.82421875,-226.5625,0.0,0,0
1766859739.888739,1766859739.8400123,-732.421875,-31.73828125,85.9375,-20.01953125,0.0,0,0
1766859739.888777,1766859739.8439076,163.57421875,-11.71875,209.47265625,160.15625,0.0,0,0
1766859739.888814,1766859739.8478026,889.6484375,-20.5078125,-14.16015625,114.2578125,0.0,0,0
1766859739.888851,1766859739.851698,379.8828125,10.25390625,-216.796875,-83.0078125,0.0,0,0
1766859739.888891,1766859739.855593,-649.4140625,2.9296875,-182.6171875,-205.56640625,0.0,0,0
1766859739.888926,1766859739.8594882,-808.59375,-41.9921875,56.640625,-78.125,0.0,0,0
1766859739.888963,1766859739.8633833,-43.45703125,-13.18359375,199.70703125,120.60546875,0.0,0,0
1766859739.93358,1766859739.8673997,890.13671875,-12.20703125,29.78515625,130.859375,0.0,0,0
1766859739.933696,1766859739.871295,524.90234375,-44.921875,-194.3359375,-42.96875,0.0,0,0
1766859739.933739,1766859739.8751903,-493.65234375,-47.8515625,-201.171875,-192.3828125,0.0,0,0
1766859739.933781,1766859739.8790853,-928.22265625,-16.6015625,18.06640625,-126.46484375,0.0,0,0
1766859739.933821,1766859739.8829806,-240.234375,-17.578125,171.875,58.59375,0.0,0,0
1766859739.9338582,1766859739.8868756,877.44140625,-21.97265625,67.87109375,153.80859375,0.0,0,0
1766859739.9338949,1766859739.890771,612.3046875,-30.76171875,-158.69140625,-22.4609375,0.0,0,0
1766859739.933932,1766859739.8946662,-412.109375,-34.66796875,-233.3984375,-205.56640625,0.0,0,0
1766859739.9339688,1766859739.8985612,-939.94140625,-29.78515625,-19.04296875,-130.37109375,0.0,0,0
1766859739.934007,1766859739.9024565,-322.75390625,-21.484375,185.546875,47.8515625,0.0,0,0
1766859739.934044,1766859739.9063518,733.88671875,6.8359375,105.95703125,113.28125,0.0,0,0
1766859739.93408,1766859739.9102468,639.6484375,-30.2734375,-157.71484375,-39.0625,0.0,0,0
1766859739.97855,1766859739.914251,-268.06640625,-40.0390625,-243.65234375,-201.171875,0.0,0,0
1766859739.9786339,1766859739.9181464,-902.34375,-30.2734375,-29.78515625,-141.11328125,0.0,0,0
1766859739.978687,1766859739.9220417,-364.2578125,-34.1796875,151.85546875,78.125,0.0,0,0
1766859739.978774,1766859739.9259367,675.29296875,-23.92578125,116.69921875,180.6640625,0.0,0,0
1766859739.978854,1766859739.929832,748.046875,-34.1796875,-129.39453125,44.921875,0.0,0,0
1766859739.978901,1766859739.9337273,-79.58984375,-47.36328125,-250.48828125,-150.87890625,0.0,0,0
1766859739.978945,1766859739.9376225,-947.75390625,-52.24609375,-72.265625,-188.4765625,0.0,0,0
1766859739.97899,1766859739.9415176,-496.58203125,-43.9453125,132.8125,25.390625,0.0,0,0
1766859739.979032,1766859739.9454129,565.4296875,-14.16015625,144.53125,187.5,0.0,0,0
1766859739.979073,1766859739.9493082,814.453125,-20.99609375,-77.1484375,56.15234375,0.0,0,0
1766859739.9791129,1766859739.9532032,56.15234375,-31.73828125,-238.76953125,-125.9765625,0.0,0,0
1766859739.9791539,1766859739.9570985,-937.01171875,-42.48046875,-107.421875,-166.015625,0.0,0,0
1766859740.024696,1766859739.9611003,-593.75,-42.96875,131.34765625,-9.27734375,0.0,0,0
1766859740.024819,1766859739.9649956,435.546875,-30.76171875,172.8515625,176.26953125,0.0,0,0
1766859740.0248609,1766859739.968891,770.99609375,-25.390625,-69.82421875,53.7109375,0.0,0,0
1766859740.025358,1766859739.972786,91.796875,-28.3203125,-229.00390625,-180.6640625,0.0,0,0
1766859740.0254028,1766859739.9766812,-874.0234375,-37.59765625,-137.20703125,-241.2109375,0.0,0,0
1766859740.025444,1766859739.9805765,-680.6640625,-34.1796875,92.28515625,-85.9375,0.0,0,0
1766859740.025504,1766859739.9844718,286.1328125,16.11328125,173.828125,82.03125,0.0,0,0
1766859740.025543,1766859739.9883668,798.828125,41.50390625,-55.17578125,40.0390625,0.0,0,0
1766859740.025582,1766859739.9922621,174.31640625,-27.83203125,-238.28125,-135.7421875,0.0,0,0
1766859740.02562,1766859739.9961574,-824.21875,-60.05859375,-175.78125,-261.23046875,0.0,0,0
1766859740.025655,1766859740.0000527,-766.11328125,-52.24609375,58.59375,-102.05078125,0.0,0,0
1766859740.0256908,1766859740.003948,158.69140625,-21.97265625,182.12890625,117.67578125,0.0,0,0
1766859740.082745,1766859740.0079324,887.6953125,-11.71875,-30.2734375,75.68359375,0.0,0,0
1766859740.0828989,1766859740.0118277,355.95703125,-33.203125,-222.16796875,-159.66796875,0.0,0,0
1766859740.082957,1766859740.0157228,-661.62109375,-55.6640625,-181.15234375,-258.7890625,0.0,0,0
1766859740.083016,1766859740.019618,-785.64453125,-44.43359375,38.0859375,-96.6796875,0.0,0,0
1766859740.083067,1766859740.0235133,10.25390625,-17.08984375,179.6875,98.14453125,0.0,0,0
1766859740.083118,1766859740.0274086,900.390625,-6.8359375,17.578125,129.39453125,0.0,0,0
1766859740.08317,1766859740.031304,478.02734375,-16.11328125,-200.68359375,-69.3359375,0.0,0,0
1766859740.08322,1766859740.0351992,-567.87109375,-48.828125,-219.7265625,-240.234375,0.0,0,0
1766859740.0832992,1766859740.0390942,-855.46875,-53.22265625,15.625,-130.859375,0.0,0,0
1766859740.0833511,1766859740.0429895,-143.06640625,-10.25390625,180.17578125,76.66015625,0.0,0,0
1766859740.083411,1766859740.0468848,855.95703125,-14.6484375,39.55078125,135.25390625,0.0,0,0
1766859740.083479,1766859740.05078,591.796875,-41.50390625,-184.08203125,-43.9453125,0.0,0,0
1766859740.129459,1766859740.054754,-430.17578125,-46.875,-229.98046875,-208.49609375,0.0,0,0
1766859740.1295848,1766859740.0586493,-942.87109375,-38.57421875,-25.390625,-175.29296875,0.0,0,0
1766859740.129631,1766859740.0625443,-265.13671875,-17.08984375,170.41015625,41.015625,0.0,0,0
1766859740.1296692,1766859740.0664396,823.73046875,-15.625,95.703125,166.9921875,0.0,0,0
1766859740.129707,1766859740.070335,665.52734375,-36.62109375,-158.203125,-10.7421875,0.0,0,0
1766859740.1297479,1766859740.0742302,-300.78125,-20.5078125,-237.3046875,-198.2421875,0.0,0,0
1766859740.129785,1766859740.0781255,-937.98828125,1.46484375,-17.08984375,-159.1796875,0.0,0,0
1766859740.1298208,1766859740.0820208,-367.67578125,-16.6015625,161.1328125,34.1796875,0.0,0,0
1766859740.129858,1766859740.085916,702.63671875,-15.13671875,112.3046875,150.87890625,0.0,0,0
1766859740.129895,1766859740.0898113,722.65625,-7.8125,-109.86328125,15.13671875,0.0,0,0
1766859740.129931,1766859740.0937066,-160.64453125,-20.5078125,-233.3984375,-184.5703125,0.0,0,0
1766859740.1299682,1766859740.0976017,-952.1484375,-41.50390625,-56.15234375,-177.734375,0.0,0,0
1766859740.173721,1766859740.101651,-458.984375,-39.0625,144.53125,9.27734375,0.0,0,0
1766859740.1738791,1766859740.1055462,559.5703125,-28.80859375,125.48828125,139.6484375,0.0,0,0
1766859740.173939,1766859740.1094415,763.671875,-28.3203125,-106.93359375,15.13671875,0.0,0,0
1766859740.173984,1766859740.1133368,5.859375,-51.26953125,-251.46484375,-144.53125,0.0,0,0
1766859740.174021,1766859740.117232,-940.4296875,-57.12890625,-89.84375,-164.0625,0.0,0,0
1766859740.17406,1766859740.1211274,-548.33984375,-13.18359375,136.23046875,-13.671875,0.0,0,0
1766859740.1740968,1766859740.1250226,411.1328125,0.9765625,135.7421875,107.421875,0.0,0,0
1766859740.174145,1766859740.128918,752.44140625,-7.32421875,-109.86328125,18.06640625,0.0,0,0
1766859740.174186,1766859740.1328132,110.3515625,-20.01953125,-259.27734375,-172.36328125,0.0,0,0
1766859740.174247,1766859740.1367085,-888.671875,-31.25,-141.6015625,-254.8828125,0.0,0,0
1766859740.174301,1766859740.1406038,-670.8984375,0.48828125,64.453125,-122.0703125,0.0,0,0
1766859740.174347,1766859740.144499,309.5703125,20.99609375,127.44140625,77.63671875,0.0,0,0
1766859740.2188811,1766859740.1485376,822.265625,9.27734375,-98.6328125,35.64453125,0.0,0,0
1766859740.219006,1766859740.152433,221.19140625,-8.30078125,-291.015625,-184.5703125,0.0,0,0
1766859740.21905,1766859740.1563284,-808.10546875,-12.6953125,-212.890625,-271.97265625,0.0,0,0
1766859740.2190888,1766859740.1602237,-744.140625,-2.44140625,20.99609375,-114.2578125,0.0,0,0
1766859740.219127,1766859740.164119,197.75390625,22.94921875,132.32421875,81.54296875,0.0,0,0
1766859740.219164,1766859740.1680143,908.203125,24.4140625,-67.87109375,39.0625,0.0,0,0
1766859740.2192042,1766859740.1719096,330.078125,2.44140625,-274.4140625,-157.2265625,0.0,0,0
1766859740.21924,1766859740.1758049,-742.67578125,-23.4375,-236.328125,-274.4140625,0.0,0,0
1766859740.219278,1766859740.1797001,-787.109375,-1.953125,-0.9765625,-121.09375,0.0,0,0
1766859740.219319,1766859740.1835954,43.45703125,28.80859375,134.27734375,81.54296875,0.0,0,0
1766859740.2193542,1766859740.1874907,885.25390625,3.90625,-50.29296875,87.40234375,0.0,0,0
1766859740.21939,1766859740.191386,472.16796875,-14.16015625,-245.60546875,-76.66015625,0.0,0,0
1766859740.263901,1766859740.1954136,-539.0625,-29.78515625,-219.23828125,-213.8671875,0.0,0,0
1766859740.2640572,1766859740.1993089,-793.9453125,-20.5078125,21.484375,-89.84375,0.0,0,0
1766859740.2641149,1766859740.2032042,-41.9921875,4.39453125,172.36328125,99.12109375,0.0,0,0
1766859740.264168,1766859740.2070994,897.94921875,2.44140625,12.20703125,128.90625,0.0,0,0
1766859740.26422,1766859740.210995,556.15234375,-15.625,-207.51953125,-45.8984375,0.0,0,0
1766859740.264278,1766859740.2148902,-402.34375,-11.23046875,-229.98046875,-184.08203125,0.0,0,0
1766859740.264322,1766859740.2187855,-869.62890625,-18.5546875,-17.08984375,-98.6328125,0.0,0,0
1766859740.264359,1766859740.2226808,-266.6015625,-14.16015625,149.90234375,67.3828125,0.0,0,0
1766859740.264401,1766859740.226576,810.546875,54.19921875,53.22265625,132.32421875,0.0,0,0
1766859740.264438,1766859740.2304714,633.7890625,32.2265625,-180.17578125,-39.0625,0.0,0,0
1766859740.264483,1766859740.234367,-365.72265625,-48.828125,-253.41796875,-197.265625,0.0,0,0
1766859740.264529,1766859740.2382622,-938.96484375,-45.41015625,-37.109375,-133.7890625,0.0,0,0
1766859740.324934,1766859740.242371,-331.0546875,-17.578125,155.2734375,46.38671875,0.0,0,0
1766859740.325063,1766859740.2462664,719.23828125,-3.90625,81.54296875,152.34375,0.0,0,0
1766859740.3251069,1766859740.2501616,686.03515625,-20.99609375,-146.484375,-2.44140625,0.0,0,0
1766859740.3251462,1766859740.2540572,-157.71484375,-44.43359375,-232.91015625,-195.80078125,0.0,0,0
1766859740.325184,1766859740.2579525,-869.140625,-24.90234375,-53.22265625,-148.92578125,0.0,0,0
1766859740.3252218,1766859740.2618477,-464.35546875,0.48828125,134.27734375,-11.23046875,0.0,0,0
1766859740.325262,1766859740.2657433,631.8359375,-12.20703125,119.140625,150.390625,0.0,0,0
1766859740.3252978,1766859740.2696385,761.23046875,2.44140625,-122.55859375,87.890625,0.0,0,0
1766859740.325345,1766859740.2735338,-93.75,12.20703125,-268.06640625,-171.38671875,0.0,0,0
1766859740.325384,1766859740.2774293,-944.82421875,-47.8515625,-90.8203125,-194.3359375,0.0,0,0
1766859740.325421,1766859740.2813246,-531.73828125,-34.1796875,139.16015625,15.13671875,0.0,0,0
1766859740.325475,1766859740.28522,533.69140625,-6.34765625,162.59765625,186.03515625,0.0,0,0
1766859740.353514,1766859740.2892225,801.7578125,-20.99609375,-79.1015625,75.68359375,0.0,0,0
1766859740.353615,1766859740.293118,35.15625,-47.36328125,-253.41796875,-171.38671875,0.0,0,0
1766859740.3536708,1766859740.2970133,-931.640625,-50.78125,-120.1171875,-227.05078125,0.0,0,0
1766859740.353724,1766859740.3009086,-649.90234375,-39.0625,95.703125,-41.015625,0.0,0,0
1766859740.353775,1766859740.304804,378.41796875,-10.25390625,130.859375,148.92578125,0.0,0,0
1766859740.353826,1766859740.3086994,848.6328125,-5.37109375,-57.12890625,123.046875,0.0,0,0
1766859740.354393,1766859740.312595,173.33984375,-34.1796875,-228.02734375,-104.4921875,0.0,0,0
1766859740.354435,1766859740.3164902,-836.9140625,-58.10546875,-154.78515625,-208.984375,0.0,0,0
1766859740.3544729,1766859740.3203855,-715.33203125,-43.9453125,77.1484375,-52.24609375,0.0,0,0
1766859740.354528,1766859740.324281,230.46875,-24.90234375,180.6640625,132.32421875,0.0,0,0
1766859740.3545642,1766859740.3281763,835.9375,-23.4375,-22.94921875,83.984375,0.0,0,0
1766859740.354611,1766859740.3320718,319.82421875,-39.55078125,-210.9375,-91.30859375,0.0,0,0
1766859740.398805,1766859740.336065,-659.66796875,-51.7578125,-162.59765625,-169.921875,0.0,0,0
1766859740.398924,1766859740.3399603,-791.015625,-10.7421875,52.734375,-62.01171875,0.0,0,0
1766859740.3989692,1766859740.3438559,62.5,-8.7890625,175.78125,117.1875,0.0,0,0
1766859740.399007,1766859740.3477511,912.109375,-38.0859375,-10.25390625,98.14453125,0.0,0,0
1766859740.3990452,1766859740.3516467,428.22265625,-41.015625,-237.79296875,-90.8203125,0.0,0,0
1766859740.399084,1766859740.355542,-606.4453125,-46.38671875,-212.40234375,-201.66015625,0.0,0,0
1766859740.3991208,1766859740.3594375,-809.08203125,-49.31640625,54.19921875,-93.75,0.0,0,0
1766859740.399158,1766859740.3633327,-34.1796875,-43.9453125,177.24609375,118.65234375,0.0,0,0
1766859740.3992078,1766859740.3672283,926.7578125,-7.32421875,32.71484375,192.87109375,0.0,0,0
1766859740.399256,1766859740.3711236,541.9921875,-8.7890625,-169.921875,-20.5078125,0.0,0,0
1766859740.399292,1766859740.375019,-551.26953125,-28.80859375,-218.75,-228.02734375,0.0,0,0
1766859740.3993568,1766859740.3789144,-901.3671875,-20.99609375,3.41796875,-125.9765625,0.0,0,0
1766859740.44417,1766859740.3828967,-195.80078125,-6.34765625,161.62109375,69.82421875,0.0,0,0
1766859740.444293,1766859740.3867922,811.5234375,0.0,32.71484375,136.71875,0.0,0,0
1766859740.4443462,1766859740.3906875,600.5859375,-4.8828125,-179.19921875,-0.9765625,0.0,0,0
1766859740.4443982,1766859740.394583,-397.4609375,-43.9453125,-229.4921875,-200.1953125,0.0,0,0
1766859740.444449,1766859740.3984783,-926.26953125,-48.828125,-15.13671875,-143.5546875,0.0,0,0
1766859740.4445,1766859740.4023738,-331.0546875,-23.92578125,170.41015625,50.78125,0.0,0,0
1766859740.4445498,1766859740.406269,796.875,29.296875,107.91015625,170.41015625,0.0,0,0
1766859740.4446049,1766859740.4101646,667.96875,1.953125,-145.5078125,6.8359375,0.0,0,0
1766859740.444654,1766859740.4140599,-308.59375,-52.24609375,-263.18359375,-202.63671875,0.0,0,0
1766859740.4447,1766859740.4179554,-949.70703125,-51.7578125,-47.36328125,-156.73828125,0.0,0,0
1766859740.444736,1766859740.4218507,-423.828125,-37.59765625,162.109375,14.6484375,0.0,0,0
1766859740.4447901,1766859740.4257462,661.62109375,-3.41796875,125.0,163.0859375,0.0,0,0
1766859740.5035782,1766859740.4297187,741.2109375,-23.92578125,-110.83984375,43.9453125,0.0,0,0
1766859740.50368,1766859740.4336143,-110.3515625,-32.2265625,-260.25390625,-224.12109375,0.0,0,0
1766859740.503712,1766859740.4375098,-921.38671875,-34.1796875,-66.89453125,-187.5,0.0,0,0
1766859740.503742,1766859740.441405,-474.609375,-13.18359375,158.69140625,47.36328125,0.0,0,0
1766859740.503804,1766859740.4453006,532.71484375,-3.41796875,141.6015625,163.0859375,0.0,0,0
1766859740.503854,1766859740.4491959,814.94140625,-5.859375,-83.49609375,41.015625,0.0,0,0
1766859740.503886,1766859740.4530914,92.28515625,-8.7890625,-240.234375,-160.64453125,0.0,0,0
1766859740.503916,1766859740.4569867,-938.4765625,-62.98828125,-105.95703125,-196.2890625,0.0,0,0
1766859740.5039449,1766859740.4608822,-555.6640625,-48.33984375,140.625,7.8125,0.0,0,0
1766859740.5039759,1766859740.4647777,403.80859375,-0.9765625,168.9453125,158.69140625,0.0,0,0
1766859740.504014,1766859740.468673,788.57421875,-18.06640625,-78.61328125,22.94921875,0.0,0,0
1766859740.504073,1766859740.4725685,235.83984375,-33.203125,-220.21484375,-140.625,0.0,0,0
1766859740.5487292,1766859740.4766142,-815.4296875,-41.50390625,-112.79296875,-181.640625,0.0,0,0
1766859740.548831,1766859740.4805098,-689.94140625,-31.73828125,98.14453125,-43.9453125,0.0,0,0
1766859740.548873,1766859740.4844053,273.4375,5.37109375,174.8046875,130.37109375,0.0,0,0
1766859740.548912,1766859740.4883006,840.8203125,-12.6953125,-58.59375,61.03515625,0.0,0,0
1766859740.5489511,1766859740.492196,324.21875,-54.6875,-229.4921875,-106.93359375,0.0,0,0
1766859740.5489879,1766859740.4960916,-707.51953125,-58.10546875,-153.3203125,-216.30859375,0.0,0,0
1766859740.549029,1766859740.499987,-765.625,-47.36328125,65.4296875,-107.421875,0.0,0,0
1766859740.5490649,1766859740.5038824,133.7890625,-32.71484375,183.59375,123.046875,0.0,0,0
1766859740.549102,1766859740.507778,920.41015625,-14.6484375,-18.5546875,136.71875,0.0,0,0
1766859740.54914,1766859740.5116732,437.5,-35.64453125,-214.35546875,-55.17578125,0.0,0,0
1766859740.549176,1766859740.5155687,-629.39453125,-43.45703125,-182.12890625,-208.0078125,0.0,0,0
1766859740.549218,1766859740.5194643,-797.36328125,-31.73828125,47.8515625,-94.7265625,0.0,0,0
1766859740.638079,1766859740.5236688,-11.23046875,-28.3203125,175.29296875,93.75,0.0,0,0
1766859740.638218,1766859740.5275643,878.41796875,-28.3203125,12.6953125,117.67578125,0.0,0,0
1766859740.638277,1766859740.5314598,530.76171875,-40.52734375,-183.59375,-41.9921875,0.0,0,0
1766859740.6383302,1766859740.5353553,-484.375,-52.734375,-208.0078125,-199.21875,0.0,0,0
1766859740.638381,1766859740.5392509,-847.65625,-42.48046875,23.92578125,-99.609375,0.0,0,0
1766859740.638432,1766859740.5431461,-149.90234375,-20.99609375,192.87109375,91.30859375,0.0,0,0
1766859740.6385531,1766859740.5470417,850.09765625,-8.30078125,53.7109375,126.46484375,0.0,0,0
1766859740.638627,1766859740.5509372,603.515625,-18.5546875,-179.6875,-39.0625,0.0,0,0
1766859740.63868,1766859740.5548327,-389.16015625,-57.6171875,-225.09765625,-199.70703125,0.0,0,0
1766859740.638743,1766859740.5587282,-904.78515625,-51.7578125,-8.30078125,-129.8828125,0.0,0,0
1766859740.638794,1766859740.5626237,-283.69140625,-12.6953125,166.015625,62.01171875,0.0,0,0
1766859740.6388469,1766859740.5665193,782.2265625,-13.671875,82.51953125,158.69140625,0.0,0,0
1766859740.640224,1766859740.5705566,674.31640625,-30.76171875,-146.97265625,12.20703125,0.0,0,0
1766859740.640279,1766859740.5744522,-230.46875,-32.2265625,-219.7265625,-167.96875,0.0,0,0
1766859740.640361,1766859740.5783477,-884.765625,-23.4375,-5.859375,-124.0234375,0.0,0,0
1766859740.6404438,1766859740.5822432,-371.58203125,-29.296875,172.8515625,39.0625,0.0,0,0
1766859740.6405098,1766859740.5861387,665.0390625,-23.4375,105.95703125,146.484375,0.0,0,0
1766859740.6405509,1766859740.5900342,703.61328125,-29.78515625,-126.953125,12.6953125,0.0,0,0
1766859740.640589,1766859740.5939298,-151.85546875,-42.96875,-243.65234375,-182.6171875,0.0,0,0
1766859740.640627,1766859740.5978253,-970.703125,-44.43359375,-60.05859375,-199.21875,0.0,0,0
1766859740.6406631,1766859740.6017208,-462.40234375,-27.34375,147.4609375,9.27734375,0.0,0,0
1766859740.640699,1766859740.6056163,582.03125,-7.8125,135.25390625,169.43359375,0.0,0,0
1766859740.640735,1766859740.6095119,782.2265625,-23.92578125,-88.8671875,43.9453125,0.0,0,0
1766859740.640775,1766859740.6134074,45.41015625,-39.0625,-236.81640625,-129.8828125,0.0,0,0
1766859740.6992571,1766859740.6175046,-910.64453125,-39.55078125,-94.7265625,-194.82421875,0.0,0,0
1766859740.6993952,1766859740.6214,-583.984375,-21.97265625,108.88671875,-14.16015625,0.0,0,0
1766859740.699441,1766859740.6252956,400.87890625,-14.6484375,134.27734375,148.92578125,0.0,0,0
1766859740.69948,1766859740.6291912,819.82421875,-9.27734375,-87.890625,50.29296875,0.0,0,0
1766859740.699517,1766859740.6330867,209.9609375,18.06640625,-228.02734375,-114.2578125,0.0,0,0
1766859740.6995578,1766859740.6369822,-870.1171875,-18.5546875,-102.05078125,-214.84375,0.0,0,0
1766859740.699595,1766859740.6408777,-653.3203125,-39.55078125,130.859375,-49.31640625,0.0,0,0
1766859740.699633,1766859740.6447732,324.21875,19.04296875,181.640625,146.97265625,0.0,0,0
1766859740.699669,1766859740.648669,836.42578125,53.22265625,-68.359375,64.453125,0.0,0,0
1766859740.700005,1766859740.6525645,297.36328125,-23.92578125,-241.2109375,-120.60546875,0.0,0,0
1766859740.700049,1766859740.65646,-789.0625,-65.91796875,-159.66796875,-225.5859375,0.0,0,0
1766859740.700086,1766859740.6603556,-752.9296875,-48.828125,80.078125,-77.1484375,0.0,0,0
1766859740.728915,1766859740.664362,187.98828125,-30.2734375,192.87109375,128.41796875,0.0,0,0
1766859740.7290182,1766859740.6682577,890.625,-21.484375,-20.99609375,88.8671875,0.0,0,0
1766859740.729057,1766859740.6721532,375.48828125,-34.1796875,-221.19140625,-104.4921875,0.0,0,0
1766859740.729084,1766859740.6760488,-686.03515625,-48.828125,-183.10546875,-217.7734375,0.0,0,0
1766859740.729109,1766859740.6799443,-774.90234375,-24.90234375,64.453125,-82.03125,0.0,0,0
1766859740.729153,1766859740.6838398,58.10546875,-3.90625,204.58984375,113.28125,0.0,0,0
1766859740.729198,1766859740.6877356,890.13671875,-24.4140625,7.32421875,104.00390625,0.0,0,0
1766859740.729242,1766859740.691631,476.07421875,-47.8515625,-212.890625,-71.2890625,0.0,0,0
1766859740.729287,1766859740.6955266,-569.3359375,-51.26953125,-210.44921875,-214.84375,0.0,0,0
1766859740.7293491,1766859740.6994221,-903.80859375,-48.33984375,8.30078125,-135.25390625,0.0,0,0
1766859740.729397,1766859740.7033176,-160.64453125,-27.34375,173.33984375,77.63671875,0.0,0,0
1766859740.729435,1766859740.7072134,853.515625,-27.83203125,43.45703125,125.0,0.0,0,0
1766859740.774009,1766859740.711212,560.546875,-40.0390625,-171.38671875,-38.57421875,0.0,0,0
1766859740.774081,1766859740.7151074,-453.125,-41.9921875,-204.1015625,-203.61328125,0.0,0,0
1766859740.774109,1766859740.7190032,-899.4140625,-38.0859375,2.9296875,-137.20703125,0.0,0,0
1766859740.774134,1766859740.7228987,-249.0234375,-15.13671875,176.7578125,64.453125,0.0,0,0
1766859740.7741592,1766859740.7267942,826.171875,1.953125,83.49609375,149.4140625,0.0,0,0
1766859740.7741828,1766859740.7306898,661.1328125,-26.3671875,-146.484375,-5.37109375,0.0,0,0
1766859740.774206,1766859740.7345855,-311.03515625,-27.34375,-209.47265625,-176.26953125,0.0,0,0
1766859740.774231,1766859740.738481,-925.29296875,-4.39453125,-14.16015625,-138.671875,0.0,0,0
1766859740.774254,1766859740.7423766,-418.45703125,-24.4140625,153.3203125,21.484375,0.0,0,0
1766859740.7742772,1766859740.746272,673.33984375,-14.6484375,100.5859375,134.765625,0.0,0,0
1766859740.7743008,1766859740.7501678,731.93359375,-24.90234375,-133.7890625,6.34765625,0.0,0,0
1766859740.774325,1766859740.7540634,-162.109375,-47.36328125,-231.93359375,-176.7578125,0.0,0,0
1766859740.8326569,1766859740.7580445,-947.265625,-45.8984375,-50.78125,-164.0625,0.0,0,0
1766859740.8327959,1766859740.76194,-482.421875,-37.109375,130.37109375,-0.9765625,0.0,0,0
1766859740.8328562,1766859740.7658358,565.4296875,-15.13671875,122.0703125,137.20703125,0.0,0,0
1766859740.83291,1766859740.7697313,797.36328125,-20.5078125,-95.703125,39.55078125,0.0,0,0
1766859740.832968,1766859740.7736268,15.13671875,-40.0390625,-237.79296875,-156.25,0.0,0,0
1766859740.8330188,1766859740.7775226,-941.89453125,-53.22265625,-75.1953125,-178.22265625,0.0,0,0
1766859740.83307,1766859740.781418,-539.55078125,25.390625,136.71875,22.94921875,0.0,0,0
1766859740.83312,1766859740.7853136,408.69140625,47.36328125,143.5546875,144.04296875,0.0,0,0
1766859740.833171,1766859740.7892094,789.0625,-23.92578125,-76.171875,24.4140625,0.0,0,0
1766859740.8332212,1766859740.793105,146.484375,-40.52734375,-235.3515625,-140.625,0.0,0,0
1766859740.833271,1766859740.7970004,-930.6640625,-54.6875,-126.953125,-219.7265625,0.0,0,0
1766859740.8333209,1766859740.8008962,-632.8125,-43.45703125,115.234375,-38.0859375,0.0,0,0
1766859740.879688,1766859740.804867,330.56640625,-22.4609375,154.78515625,119.62890625,0.0,0,0
1766859740.8798552,1766859740.8087626,823.73046875,-20.5078125,-80.078125,54.19921875,0.0,0,0
1766859740.879914,1766859740.812658,267.578125,-35.15625,-238.76953125,-123.046875,0.0,0,0
1766859740.879967,1766859740.8165538,-830.56640625,-58.10546875,-166.015625,-224.12109375,0.0,0,0
1766859740.880019,1766859740.8204494,-722.16796875,-45.8984375,76.66015625,-36.1328125,0.0,0,0
1766859740.880069,1766859740.824345,256.8359375,-0.9765625,195.80078125,150.87890625,0.0,0,0
1766859740.880121,1766859740.8282406,885.7421875,-13.18359375,-16.11328125,80.56640625,0.0,0,0
1766859740.880172,1766859740.8321362,346.19140625,-46.875,-229.00390625,-106.93359375,0.0,0,0
1766859740.880223,1766859740.836032,-743.65234375,-71.2890625,-193.359375,-217.28515625,0.0,0,0
1766859740.8802729,1766859740.8399274,-800.29296875,-42.96875,54.6875,-61.03515625,0.0,0,0
1766859740.8803232,1766859740.843823,67.3828125,3.90625,183.59375,127.44140625,0.0,0,0
1766859740.880417,1766859740.8477187,890.625,-11.71875,-9.27734375,96.19140625,0.0,0,0
1766859740.92714,1766859740.8517804,428.22265625,-35.64453125,-221.6796875,-115.72265625,0.0,0,0
1766859740.927286,1766859740.855676,-595.21484375,-41.9921875,-198.2421875,-201.66015625,0.0,0,0
1766859740.92733,1766859740.8595717,-825.1953125,-38.0859375,48.33984375,-60.546875,0.0,0,0
1766859740.92737,1766859740.8634672,-111.81640625,-31.73828125,181.640625,108.88671875,0.0,0,0
1766859740.9274082,1766859740.867363,836.42578125,-34.66796875,11.71875,126.46484375,0.0,0,0
1766859740.9274461,1766859740.8712585,542.48046875,-35.64453125,-191.89453125,-53.7109375,0.0,0,0
1766859740.927495,1766859740.8751543,-463.8671875,-36.62109375,-191.40625,-187.98828125,0.0,0,0
1766859740.927532,1766859740.8790498,-926.7578125,-28.80859375,9.765625,-131.8359375,0.0,0,0
1766859740.927569,1766859740.8829455,-292.48046875,-31.73828125,180.6640625,62.98828125,0.0,0,0
1766859740.927618,1766859740.886841,791.015625,-7.8125,72.75390625,158.69140625,0.0,0,0
1766859740.927656,1766859740.8907368,640.625,-13.671875,-167.48046875,-12.20703125,0.0,0,0
1766859740.9276931,1766859740.8946323,-348.6328125,-49.8046875,-236.328125,-189.94140625,0.0,0,0
1766859740.969646,1766859740.8986716,-924.8046875,-41.015625,-18.5546875,-151.3671875,0.0,0,0
1766859740.969782,1766859740.9025674,-334.47265625,-30.76171875,174.8046875,35.64453125,0.0,0,0
1766859740.969824,1766859740.906463,740.72265625,-29.78515625,97.65625,150.390625,0.0,0,0
1766859740.969863,1766859740.9103587,708.0078125,-41.015625,-143.06640625,-3.41796875,0.0,0,0
1766859740.9699001,1766859740.9142542,-220.21484375,-36.62109375,-236.81640625,-177.24609375,0.0,0,0
1766859740.9699378,1766859740.91815,-958.984375,-32.71484375,-38.0859375,-165.0390625,0.0,0,0
1766859740.969974,1766859740.9220457,-415.52734375,-26.85546875,156.25,20.99609375,0.0,0,0
1766859740.97001,1766859740.9259412,603.02734375,-20.99609375,128.41796875,158.69140625,0.0,0,0
1766859740.970046,1766859740.929837,731.4453125,-8.7890625,-104.00390625,25.390625,0.0,0,0
1766859740.970082,1766859740.9337325,-27.83203125,5.859375,-240.234375,-160.64453125,0.0,0,0
1766859740.9701178,1766859740.9376283,-920.41015625,-27.34375,-72.265625,-179.19921875,0.0,0,0
1766859740.970154,1766859740.9415238,-523.4375,-34.66796875,142.08984375,-13.671875,0.0,0,0
1766859741.015305,1766859740.945553,461.9140625,-23.92578125,139.6484375,128.41796875,0.0,0,0
1766859741.015441,1766859740.9494486,761.23046875,-26.3671875,-111.328125,32.71484375,0.0,0,0
1766859741.0154948,1766859740.9533443,108.88671875,-37.109375,-254.39453125,-158.69140625,0.0,0,0
1766859741.015536,1766859740.95724,-903.80859375,-45.8984375,-109.86328125,-195.80078125,0.0,0,0
1766859741.015574,1766859740.9611356,-604.98046875,-40.0390625,99.609375,-10.7421875,0.0,0,0
1766859741.015611,1766859740.9650314,397.94921875,-27.83203125,153.80859375,132.32421875,0.0,0,0
1766859741.015648,1766859740.9689271,812.98828125,-31.73828125,-63.96484375,28.80859375,0.0,0,0
1766859741.015685,1766859740.9728227,162.109375,-40.0390625,-236.81640625,-136.23046875,0.0,0,0
1766859741.015729,1766859740.9767184,-887.6953125,1.46484375,-132.8125,-219.23828125,0.0,0,0
1766859741.015765,1766859740.9806142,-654.296875,-0.48828125,84.9609375,-41.9921875,0.0,0,0
1766859741.015811,1766859740.9845097,319.82421875,-28.80859375,187.98828125,151.3671875,0.0,0,0
1766859741.015858,1766859740.9884055,871.09375,-12.6953125,-18.5546875,81.0546875,0.0,0,0
1766859741.060745,1766859740.9924207,287.59765625,-25.390625,-219.23828125,-106.4453125,0.0,0,0
1766859741.060846,1766859740.9963162,-786.1328125,-54.6875,-146.484375,-208.0078125,0.0,0,0
1766859741.060904,1766859741.000212,-773.92578125,-38.57421875,87.40234375,-53.7109375,0.0,0,0
1766859741.0609589,1766859741.0041077,94.23828125,-26.85546875,204.1015625,119.62890625,0.0,0,0
1766859741.061012,1766859741.0080035,878.90625,-36.1328125,9.27734375,89.84375,0.0,0,0
1766859741.0610628,1766859741.011899,396.484375,-39.0625,-186.03515625,-94.23828125,0.0,0,0
1766859741.0611148,1766859741.0157948,-651.3671875,-64.453125,-157.71484375,-235.3515625,0.0,0,0
1766859741.061166,1766859741.0196905,-873.53515625,-33.69140625,45.41015625,-119.140625,0.0,0,0
1766859741.061217,1766859741.0235863,-105.46875,24.4140625,184.5703125,95.21484375,0.0,0,0
1766859741.061267,1766859741.0274818,872.0703125,-20.01953125,40.52734375,130.37109375,0.0,0,0
1766859741.061323,1766859741.0313776,533.203125,-49.31640625,-174.8046875,-51.7578125,0.0,0,0
1766859741.061431,1766859741.0352733,-472.16796875,-56.640625,-188.4765625,-191.89453125,0.0,0,0
1766859741.104288,1766859741.0392766,-874.0234375,-61.03515625,17.578125,-113.76953125,0.0,0,0
1766859741.104455,1766859741.0431724,-240.234375,-47.36328125,172.36328125,73.73046875,0.0,0,0
1766859741.104498,1766859741.047068,800.29296875,-15.625,43.45703125,110.83984375,0.0,0,0
1766859741.104537,1766859741.0509636,572.75390625,-20.5078125,-186.5234375,-75.68359375,0.0,0,0
1766859741.104575,1766859741.0548594,-406.73828125,-71.77734375,-218.75,-204.58984375,0.0,0,0
1766859741.104623,1766859741.0587552,-880.37109375,-66.40625,1.953125,-150.390625,0.0,0,0
1766859741.104661,1766859741.062651,-288.57421875,-25.87890625,177.24609375,40.52734375,0.0,0,0
1766859741.1046982,1766859741.0665467,766.11328125,-11.23046875,101.5625,168.45703125,0.0,0,0
1766859741.1047528,1766859741.0704422,687.5,-17.08984375,-136.23046875,7.32421875,0.0,0,0
1766859741.104809,1766859741.074338,-237.3046875,-44.43359375,-218.26171875,-162.109375,0.0,0,0
1766859741.104866,1766859741.0782337,-905.2734375,-37.109375,-2.44140625,-131.8359375,0.0,0,0
1766859741.104903,1766859741.0821295,-406.73828125,-30.2734375,178.7109375,29.296875,0.0,0,0
1766859741.149188,1766859741.0861204,639.6484375,-28.3203125,127.44140625,160.15625,0.0,0,0
1766859741.149336,1766859741.0900161,693.359375,-37.109375,-117.67578125,15.13671875,0.0,0,0
1766859741.149395,1766859741.0939116,-124.0234375,-57.12890625,-230.95703125,-176.7578125,0.0,0,0
1766859741.1494489,1766859741.0978074,-928.22265625,-42.48046875,-30.76171875,-167.48046875,0.0,0,0
1766859741.149555,1766859741.1017032,-511.71875,-27.83203125,164.55078125,23.4375,0.0,0,0
1766859741.149628,1766859741.105599,498.53515625,-22.4609375,145.01953125,145.01953125,0.0,0,0
1766859741.1496809,1766859741.1094947,765.13671875,-27.34375,-78.125,29.78515625,0.0,0,0
1766859741.149719,1766859741.1133904,2.44140625,-53.22265625,-239.74609375,-147.4609375,0.0,0,0
1766859741.149766,1766859741.1172862,-971.6796875,-64.94140625,-96.6796875,-204.58984375,0.0,0,0
1766859741.149821,1766859741.121182,-561.5234375,-38.0859375,144.04296875,-18.06640625,0.0,0,0
1766859741.149858,1766859741.1250775,448.73046875,-22.4609375,180.6640625,159.1796875,0.0,0,0
1766859741.1498969,1766859741.1289732,826.66015625,-22.94921875,-62.98828125,48.828125,0.0,0,0
1766859741.2247648,1766859741.1331196,193.84765625,-35.64453125,-243.65234375,-133.7890625,0.0,0,0
1766859741.224908,1766859741.1370153,-859.86328125,-51.26953125,-120.60546875,-197.265625,0.0,0,0
1766859741.22495,1766859741.140911,-653.80859375,-36.62109375,114.74609375,-48.828125,0.0,0,0
1766859741.224998,1766859741.1448069,305.6640625,-20.99609375,176.26953125,123.046875,0.0,0,0
1766859741.225034,1766859741.1487026,857.91015625,-14.16015625,-47.36328125,72.75390625,0.0,0,0
1766859741.225075,1766859741.1525984,338.37890625,-9.27734375,-218.26171875,-91.796875,0.0,0,0
1766859741.225112,1766859741.1564941,-757.32421875,-24.4140625,-159.1796875,-206.0546875,0.0,0,0
1766859741.2251499,1766859741.16039,-770.01953125,-41.015625,62.01171875,-83.984375,0.0,0,0
1766859741.225206,1766859741.1642857,104.00390625,-34.66796875,171.38671875,115.72265625,0.0,0,0
1766859741.225263,1766859741.1681817,855.95703125,-20.99609375,-30.76171875,104.00390625,0.0,0,0
1766859741.2253,1766859741.1720774,419.921875,-40.0390625,-225.5859375,-90.8203125,0.0,0,0
1766859741.225336,1766859741.1759732,-643.06640625,-47.36328125,-195.3125,-222.16796875,0.0,0,0
1766859741.2540941,1766859741.1799483,-802.24609375,-20.5078125,46.875,-90.33203125,0.0,0,0
1766859741.254238,1766859741.183844,2.44140625,-0.9765625,191.89453125,107.421875,0.0,0,0
1766859741.2542982,1766859741.1877398,890.625,-12.6953125,8.30078125,108.88671875,0.0,0,0
1766859741.2543528,1766859741.1916356,490.234375,-20.5078125,-204.1015625,-73.73046875,0.0,0,0
1766859741.254406,1766859741.1955316,-580.078125,-32.71484375,-210.9375,-220.703125,0.0,0,0
1766859741.2544692,1766859741.1994274,-857.421875,-37.59765625,31.73828125,-122.0703125,0.0,0,0
1766859741.2545202,1766859741.2033231,-163.57421875,-22.94921875,194.3359375,72.75390625,0.0,0,0
1766859741.254584,1766859741.207219,792.48046875,-20.5078125,31.25,101.5625,0.0,0,0
1766859741.254646,1766859741.2111146,584.47265625,-32.71484375,-190.4296875,-62.01171875,0.0,0,0
1766859741.254696,1766859741.2150104,-448.2421875,-51.7578125,-230.46875,-216.30859375,0.0,0,0
1766859741.25475,1766859741.2189062,-921.38671875,-36.1328125,-1.953125,-139.16015625,0.0,0,0
1766859741.2547998,1766859741.222802,-277.34375,-11.23046875,188.96484375,50.78125,0.0,0,0
1766859741.299959,1766859741.2268445,752.44140625,-17.578125,74.21875,109.86328125,0.0,0,0
1766859741.300098,1766859741.2307403,642.578125,4.39453125,-165.0390625,-30.76171875,0.0,0,0
1766859741.3001401,1766859741.234636,-323.2421875,-10.25390625,-233.3984375,-206.0546875,0.0,0,0
1766859741.3001778,1766859741.2385318,-927.24609375,-47.36328125,-12.6953125,-151.85546875,0.0,0,0
1766859741.3002172,1766859741.2424276,-388.671875,-17.578125,168.9453125,38.57421875,0.0,0,0
1766859741.300255,1766859741.2463236,658.203125,-6.8359375,105.95703125,135.7421875,0.0,0,0
1766859741.3002932,1766859741.2502193,736.81640625,-21.97265625,-130.859375,9.27734375,0.0,0,0
1766859741.30033,1766859741.254115,-174.8046875,-48.828125,-250.0,-177.734375,0.0,0,0
1766859741.3003662,1766859741.2580109,-978.02734375,-56.640625,-66.40625,-183.59375,0.0,0,0
1766859741.300402,1766859741.2619066,-458.0078125,0.9765625,144.04296875,1.953125,0.0,0,0
1766859741.3004391,1766859741.2658026,571.77734375,13.18359375,145.5078125,140.13671875,0.0,0,0
1766859741.3004858,1766859741.2696984,772.94921875,-27.83203125,-102.05078125,8.30078125,0.0,0,0
1766859741.344198,1766859741.2737308,-16.6015625,-38.57421875,-256.8359375,-187.5,0.0,0,0
1766859741.344346,1766859741.2776265,-966.30859375,-40.52734375,-88.37890625,-202.1484375,0.0,0,0
1766859741.3443892,1766859741.2815225,-547.36328125,-27.34375,136.71875,-8.7890625,0.0,0,0
1766859741.344428,1766859741.2854183,462.890625,-26.3671875,153.80859375,149.4140625,0.0,0,0
1766859741.344466,1766859741.289314,776.3671875,-36.62109375,-86.42578125,43.45703125,0.0,0,0
1766859741.344508,1766859741.2932098,136.71875,-41.50390625,-230.95703125,-134.27734375,0.0,0,0
1766859741.3445451,1766859741.2971058,-858.3984375,-41.9921875,-104.00390625,-199.70703125,0.0,0,0
1766859741.3446,1766859741.3010015,-646.97265625,-39.55078125,108.88671875,-34.66796875,0.0,0,0
1766859741.344636,1766859741.3048973,313.96484375,-28.3203125,164.0625,129.39453125,0.0,0,0
1766859741.344673,1766859741.3087933,834.9609375,-15.625,-51.7578125,63.96484375,0.0,0,0
1766859741.3447092,1766859741.312689,288.0859375,-27.34375,-229.00390625,-107.421875,0.0,0,0
1766859741.3447459,1766859741.3165848,-781.73828125,-52.734375,-147.4609375,-219.7265625,0.0,0,0
1766859741.389065,1766859741.3206067,-714.84375,-40.0390625,82.03125,-66.89453125,0.0,0,0
1766859741.389219,1766859741.3245027,202.63671875,-9.27734375,170.8984375,129.39453125,0.0,0,0
1766859741.389261,1766859741.3283985,871.09375,-12.6953125,-30.2734375,91.796875,0.0,0,0
1766859741.389688,1766859741.3322945,367.1875,-37.109375,-214.84375,-97.65625,0.0,0,0
1766859741.38973,1766859741.3361902,-677.24609375,-34.1796875,-161.1328125,-211.42578125,0.0,0,0
1766859741.389775,1766859741.340086,-741.69921875,-21.97265625,82.03125,-63.96484375,0.0,0,0
1766859741.389814,1766859741.343982,55.6640625,-26.3671875,189.94140625,110.83984375,0.0,0,0
1766859741.3898509,1766859741.3478777,871.58203125,-34.1796875,-4.8828125,118.1640625,0.0,0,0
1766859741.389888,1766859741.3517735,444.82421875,-16.11328125,-203.61328125,-50.78125,0.0,0,0
1766859741.389925,1766859741.3556695,-605.95703125,-24.4140625,-207.51953125,-212.40234375,0.0,0,0
1766859741.389962,1766859741.3595653,-863.76953125,-48.33984375,27.34375,-93.26171875,0.0,0,0
1766859741.389996,1766859741.363461,-107.91015625,-19.04296875,191.89453125,109.375,0.0,0,0
1766859741.434572,1766859741.367472,886.71875,-6.8359375,38.57421875,135.25390625,0.0,0,0
1766859741.43474,1766859741.371368,544.921875,-34.1796875,-188.96484375,-46.875,0.0,0,0
1766859741.434796,1766859741.3752637,-471.6796875,-54.6875,-208.0078125,-192.87109375,0.0,0,0
1766859741.434848,1766859741.3791597,-902.83203125,-42.48046875,11.71875,-133.7890625,0.0,0,0
1766859741.4348989,1766859741.3830554,-207.51953125,-27.83203125,190.4296875,61.03515625,0.0,0,0
1766859741.434945,1766859741.3869514,861.328125,-18.5546875,94.23828125,153.80859375,0.0,0,0
1766859741.4349818,1766859741.3908472,643.06640625,-28.3203125,-142.578125,-4.39453125,0.0,0,0
1766859741.43502,1766859741.394743,-364.74609375,-34.1796875,-226.5625,-179.19921875,0.0,0,0
1766859741.4350588,1766859741.398639,-960.44921875,-22.4609375,-29.78515625,-138.671875,0.0,0,0
1766859741.435096,1766859741.4025347,-386.71875,-15.13671875,165.0390625,36.1328125,0.0,0,0
1766859741.4351318,1766859741.4064307,709.47265625,-14.16015625,106.93359375,160.15625,0.0,0,0
1766859741.435169,1766859741.4103265,745.60546875,-21.97265625,-135.25390625,18.06640625,0.0,0,0
1766859741.478822,1766859741.4143271,-191.40625,-48.33984375,-242.67578125,-176.26953125,0.0,0,0
1766859741.478961,1766859741.418223,-951.66015625,-60.546875,-51.7578125,-154.78515625,0.0,0,0
1766859741.479004,1766859741.422119,-461.9140625,-37.109375,145.5078125,22.94921875,0.0,0,0
1766859741.479043,1766859741.4260147,573.2421875,-25.390625,138.671875,142.08984375,0.0,0,0
1766859741.479083,1766859741.4299107,741.69921875,-30.2734375,-97.65625,18.5546875,0.0,0,0
1766859741.479121,1766859741.4338064,-65.91796875,-40.0390625,-241.2109375,-175.78125,0.0,0,0
1766859741.47916,1766859741.4377024,-958.0078125,-36.62109375,-78.61328125,-205.078125,0.0,0,0
1766859741.479198,1766859741.4415982,-545.41015625,-22.94921875,119.140625,-14.6484375,0.0,0,0
1766859741.4792352,1766859741.4454942,457.03125,-12.20703125,133.30078125,151.3671875,0.0,0,0
1766859741.479272,1766859741.44939,797.36328125,-15.625,-91.30859375,52.24609375,0.0,0,0
1766859741.479309,1766859741.453286,118.65234375,-36.62109375,-236.328125,-130.37109375,0.0,0,0
1766859741.479352,1766859741.4571817,-918.45703125,-48.828125,-112.79296875,-213.8671875,0.0,0,0
1766859741.5255308,1766859741.4611785,-619.140625,-37.59765625,105.95703125,-41.50390625,0.0,0,0
1766859741.525679,1766859741.4650745,402.83203125,-17.578125,164.55078125,136.71875,0.0,0,0
1766859741.525722,1766859741.4689705,875.0,-14.6484375,-47.36328125,67.3828125,0.0,0,0
1766859741.525764,1766859741.4728663,246.58203125,-32.71484375,-222.16796875,-114.2578125,0.0,0,0
1766859741.525803,1766859741.4767623,-854.00390625,-54.19921875,-161.62109375,-231.93359375,0.0,0,0
1766859741.525842,1766859741.480658,-696.2890625,-40.0390625,82.51953125,-64.94140625,0.0,0,0
1766859741.52588,1766859741.484554,262.6953125,-12.6953125,177.24609375,124.51171875,0.0,0,0
1766859741.5259159,1766859741.4884498,836.42578125,-23.4375,-61.03515625,69.3359375,0.0,0,0
1766859741.525985,1766859741.4923458,321.77734375,-44.43359375,-229.00390625,-99.609375,0.0,0,0
1766859741.526022,1766859741.4962418,-720.703125,-52.24609375,-167.48046875,-206.54296875,0.0,0,0
1766859741.526079,1766859741.5001376,-785.64453125,-40.52734375,49.31640625,-65.91796875,0.0,0,0
1766859741.52612,1766859741.5040336,89.84375,-16.6015625,174.31640625,122.0703125,0.0,0,0
1766859741.569356,1766859741.508015,910.15625,-16.11328125,2.44140625,110.83984375,0.0,0,0
1766859741.56949,1766859741.5119107,452.1484375,-27.34375,-181.15234375,-60.05859375,0.0,0,0
1766859741.569529,1766859741.5158067,-602.05078125,-41.015625,-175.78125,-196.77734375,0.0,0,0
1766859741.569567,1766859741.5197024,-870.60546875,-45.8984375,31.73828125,-99.609375,0.0,0,0
1766859741.569608,1766859741.5235984,-67.87109375,-21.484375,192.3828125,105.95703125,0.0,0,0
1766859741.5696452,1766859741.5274944,914.55078125,-5.37109375,47.8515625,143.5546875,0.0,0,0
1766859741.569682,1766859741.5313902,532.2265625,0.0,-181.15234375,-48.33984375,0.0,0,0
1766859741.569717,1766859741.5352862,-488.76953125,-20.5078125,-208.984375,-206.54296875,0.0,0,0
1766859741.5698318,1766859741.5391822,-870.60546875,-49.31640625,13.671875,-103.02734375,0.0,0,0
1766859741.5698812,1766859741.543078,-199.21875,-27.34375,176.7578125,91.796875,0.0,0,0
1766859741.56992,1766859741.546974,824.21875,-5.859375,65.4296875,134.765625,0.0,0,0
1766859741.569958,1766859741.5508697,598.14453125,-18.5546875,-166.015625,-42.96875,0.0,0,0
1766859741.6296241,1766859741.554842,-365.72265625,-31.25,-215.8203125,-205.078125,0.0,0,0
1766859741.629802,1766859741.5587378,-908.203125,-29.78515625,9.765625,-135.7421875,0.0,0,0
1766859741.6299038,1766859741.5626338,-328.61328125,-16.11328125,178.7109375,40.52734375,0.0,0,0
1766859741.629997,1766859741.5665298,738.28125,-1.953125,74.21875,132.8125,0.0,0,0
1766859741.63006,1766859741.5704255,667.48046875,-11.71875,-167.96875,-18.5546875,0.0,0,0
1766859741.630122,1766859741.5743215,-238.28125,-26.3671875,-249.0234375,-203.61328125,0.0,0,0
1766859741.630184,1766859741.5782175,-920.8984375,-21.484375,-50.29296875,-170.41015625,0.0,0,0
1766859741.630316,1766859741.5821133,-428.22265625,-13.18359375,133.7890625,11.23046875,0.0,0,0
1766859741.630382,1766859741.5860093,614.74609375,-6.8359375,105.95703125,127.9296875,0.0,0,0
1766859741.63043,1766859741.5899053,720.703125,-22.4609375,-125.0,-25.390625,0.0,0,0
1766859741.630474,1766859741.593801,-96.6796875,-49.31640625,-256.34765625,-201.66015625,0.0,0,0
1766859741.630543,1766859741.597697,-939.94140625,-44.921875,-73.2421875,-189.453125,0.0,0,0
1766859741.6733608,1766859741.6017373,-495.60546875,-24.90234375,131.8359375,-12.6953125,0.0,0,0
1766859741.673516,1766859741.6056333,541.9921875,-17.08984375,124.51171875,134.765625,0.0,0,0
1766859741.673543,1766859741.6095293,809.5703125,-22.94921875,-111.81640625,32.71484375,0.0,0,0
1766859741.673568,1766859741.613425,59.08203125,-32.71484375,-264.6484375,-160.64453125,0.0,0,0
1766859741.673592,1766859741.617321,-950.1953125,-39.0625,-124.0234375,-210.9375,0.0,0,0
1766859741.673616,1766859741.621217,-571.77734375,-20.01953125,121.09375,-15.13671875,0.0,0,0
1766859741.67364,1766859741.625113,415.0390625,-9.765625,152.83203125,142.578125,0.0,0,0
1766859741.673663,1766859741.629009,815.91796875,-12.20703125,-88.37890625,42.96875,0.0,0,0
1766859741.67369,1766859741.6329048,226.07421875,-15.625,-232.421875,-126.46484375,0.0,0,0
1766859741.673714,1766859741.6368008,-831.0546875,-17.578125,-125.9765625,-214.84375,0.0,0,0
1766859741.673737,1766859741.6406968,-699.21875,-28.80859375,82.51953125,-73.73046875,0.0,0,0
1766859741.6737611,1766859741.6445928,240.72265625,-18.06640625,158.203125,116.2109375,0.0,0,0
1766859741.718792,1766859741.648623,853.515625,-10.7421875,-41.50390625,68.84765625,0.0,0,0
1766859741.7189782,1766859741.652519,306.15234375,-33.69140625,-219.7265625,-122.55859375,0.0,0,0
1766859741.7190368,1766859741.656415,-783.69140625,-45.8984375,-167.96875,-235.83984375,0.0,0,0
1766859741.719102,1766859741.660311,-773.92578125,-34.1796875,58.59375,-84.9609375,0.0,0,0
1766859741.7191548,1766859741.664207,135.25390625,-6.34765625,176.26953125,126.46484375,0.0,0,0
1766859741.7192059,1766859741.668103,889.6484375,-0.48828125,-9.765625,107.91015625,0.0,0,0
1766859741.719579,1766859741.6719987,410.15625,-27.83203125,-203.125,-89.84375,0.0,0,0
1766859741.719635,1766859741.6758947,-659.1796875,-58.59375,-193.359375,-234.86328125,0.0,0,0
1766859741.719687,1766859741.6797907,-849.12109375,-23.92578125,16.11328125,-119.62890625,0.0,0,0
1766859741.7197518,1766859741.6836867,-10.7421875,42.48046875,167.96875,96.6796875,0.0,0,0
1766859741.7198021,1766859741.6875827,927.734375,29.296875,32.2265625,105.46875,0.0,0,0
1766859741.719851,1766859741.6914787,481.4453125,-20.99609375,-176.7578125,-86.9140625,0.0,0,0
1766859741.763885,1766859741.6954992,-572.75390625,-32.2265625,-190.91796875,-230.95703125,0.0,0,0
1766859741.7640378,1766859741.6993952,-914.55078125,-21.484375,54.6875,-153.3203125,0.0,0,0
1766859741.764081,1766859741.7032912,-240.234375,-18.5546875,229.00390625,21.484375,0.0,0,0
1766859741.7641191,1766859741.7071872,799.8046875,-11.23046875,98.14453125,79.58984375,0.0,0,0
1766859741.764161,1766859741.7110832,506.8359375,-26.3671875,-121.58203125,-106.4453125,0.0,0,0
1766859741.7641978,1766859741.714979,-487.3046875,-33.203125,-139.6484375,-272.94921875,0.0,0,0
1766859741.764235,1766859741.718875,-936.03515625,-30.2734375,71.77734375,-206.54296875,0.0,0,0
1766859741.7642722,1766859741.722771,-432.6171875,-24.4140625,230.46875,-42.48046875,0.0,0,0
1766859741.764308,1766859741.726667,635.25390625,8.7890625,149.90234375,56.640625,0.0,0,0
1766859741.7643452,1766859741.730563,568.84765625,0.9765625,-75.68359375,-85.9375,0.0,0,0
1766859741.764383,1766859741.734459,-462.40234375,-53.22265625,-164.55078125,-295.8984375,0.0,0,0
1766859741.76442,1766859741.738355,-1000.0,-65.91796875,39.55078125,-266.6015625,0.0,0,0
1766859741.824332,1766859741.7424467,-496.58203125,-39.0625,231.93359375,-81.0546875,0.0,0,0
1766859741.824481,1766859741.7463427,501.46484375,-21.484375,184.5703125,41.015625,0.0,0,0
1766859741.824523,1766859741.7502387,633.30078125,-40.52734375,-37.109375,-60.05859375,0.0,0,0
1766859741.8245609,1766859741.7541347,-266.6015625,-67.3828125,-145.99609375,-234.375,0.0,0,0
1766859741.824599,1766859741.7580307,-1000.0,-66.89453125,26.85546875,-237.3046875,0.0,0,0
1766859741.824636,1766859741.7619267,-513.671875,-43.45703125,216.796875,-40.52734375,0.0,0,0
1766859741.824672,1766859741.7658226,488.76953125,-38.57421875,195.3125,126.46484375,0.0,0,0
1766859741.82471,1766859741.7697186,729.4921875,-10.7421875,-55.6640625,18.06640625,0.0,0,0
1766859741.824745,1766859741.7736146,-83.0078125,1.46484375,-204.58984375,-187.5,0.0,0,0
1766859741.824783,1766859741.7775106,-1000.0,-58.10546875,-43.9453125,-215.33203125,0.0,0,0
1766859741.8248188,1766859741.7814066,-562.5,-61.5234375,172.8515625,-1.953125,0.0,0,0
1766859741.824855,1766859741.7853026,432.12890625,-39.0625,189.94140625,159.66796875,0.0,0,0
1766859741.854539,1766859741.7893016,819.82421875,-55.17578125,-59.5703125,75.1953125,0.0,0,0
1766859741.854687,1766859741.7931976,223.14453125,-79.1015625,-229.98046875,-85.9375,0.0,0,0
1766859741.854757,1766859741.7970936,-842.7734375,-85.9375,-114.2578125,-169.921875,0.0,0,0
1766859741.85482,1766859741.8009896,-612.3046875,-72.265625,118.1640625,21.484375,0.0,0,0
1766859741.854862,1766859741.8048856,433.59375,-46.38671875,192.3828125,233.3984375,0.0,0,0
1766859741.8549,1766859741.8087816,920.41015625,-48.828125,-27.34375,151.85546875,0.0,0,0
1766859741.854937,1766859741.8126779,323.73046875,-65.91796875,-216.796875,-39.0625,0.0,0,0
1766859741.854974,1766859741.8165739,-742.67578125,-73.73046875,-149.4140625,-141.11328125,0.0,0,0
1766859741.855039,1766859741.8204699,-694.3359375,-70.3125,77.1484375,2.44140625,0.0,0,0
1766859741.855148,1766859741.8243659,281.25,-43.45703125,182.12890625,207.51953125,0.0,0,0
1766859741.855295,1766859741.8282619,952.1484375,-36.62109375,-6.8359375,189.94140625,0.0,0,0
1766859741.8554611,1766859741.8321579,420.41015625,-41.015625,-208.0078125,0.0,0.0,0,0
1766859741.898988,1766859741.8361459,-617.67578125,-62.01171875,-178.22265625,-135.25390625,0.0,0,0
1766859741.8991349,1766859741.8400419,-759.765625,-82.03125,54.19921875,-15.625,0.0,0,0
1766859741.89918,1766859741.8439379,77.1484375,-53.7109375,183.10546875,175.78125,0.0,0,0
1766859741.899219,1766859741.8478339,919.43359375,-38.0859375,-3.41796875,178.7109375,0.0,0,0
1766859741.899256,1766859741.8517299,499.0234375,-53.22265625,-209.9609375,-5.37109375,0.0,0,0
1766859741.899294,1766859741.855626,-504.39453125,-69.3359375,-194.3359375,-150.87890625,0.0,0,0
1766859741.899331,1766859741.859522,-816.40625,-47.8515625,27.83203125,-51.7578125,0.0,0,0
1766859741.899368,1766859741.863418,-72.265625,-8.7890625,171.38671875,147.4609375,0.0,0,0
1766859741.899404,1766859741.867314,898.4375,-29.78515625,29.296875,200.68359375,0.0,0,0
1766859741.899468,1766859741.87121,603.02734375,-57.6171875,-180.6640625,26.85546875,0.0,0,0
1766859741.899509,1766859741.8751063,-368.65234375,-65.4296875,-216.796875,-140.13671875,0.0,0,0
1766859741.8995478,1766859741.8790023,-845.21484375,-47.8515625,-4.39453125,-62.5,0.0,0,0
1766859741.943794,1766859741.8829803,-221.19140625,-30.2734375,175.78125,128.41796875,0.0,0,0
1766859741.943915,1766859741.8868763,806.640625,-41.015625,77.63671875,191.40625,0.0,0,0
1766859741.9439418,1766859741.8907723,658.203125,-64.453125,-151.85546875,29.296875,0.0,0,0
1766859741.943968,1766859741.8946683,-288.57421875,-63.4765625,-222.16796875,-139.6484375,0.0,0,0
1766859741.943994,1766859741.8985646,-916.50390625,-57.6171875,-27.83203125,-96.6796875,0.0,0,0
1766859741.9440188,1766859741.9024606,-342.7734375,-49.31640625,164.0625,67.87109375,0.0,0,0
1766859741.944043,1766859741.9063566,726.07421875,-17.578125,96.6796875,166.015625,0.0,0,0
1766859741.944066,1766859741.9102526,738.28125,-16.11328125,-143.5546875,45.8984375,0.0,0,0
1766859741.9440901,1766859741.9141488,-119.140625,-45.41015625,-230.46875,-141.6015625,0.0,0,0
1766859741.944114,1766859741.9180448,-926.26953125,-58.10546875,-44.921875,-147.94921875,0.0,0,0
1766859741.944138,1766859741.9219408,-415.52734375,-49.31640625,157.71484375,43.45703125,0.0,0,0
1766859741.944163,1766859741.9258368,641.6015625,-33.69140625,134.765625,202.1484375,0.0,0,0
1766859742.003078,1766859741.9298043,798.828125,-38.57421875,-114.2578125,64.94140625,0.0,0,0
1766859742.003204,1766859741.9337006,-8.30078125,-49.31640625,-264.16015625,-144.53125,0.0,0,0
1766859742.0032718,1766859741.9375966,-968.26171875,-49.31640625,-93.26171875,-168.45703125,0.0,0,0
1766859742.003318,1766859741.9414926,-524.4140625,-24.90234375,141.11328125,9.27734375,0.0,0,0
1766859742.003356,1766859741.9453888,466.30859375,-19.04296875,143.5546875,150.390625,0.0,0,0
1766859742.0033941,1766859741.9492848,805.17578125,-16.6015625,-84.47265625,42.96875,0.0,0,0
1766859742.0034308,1766859741.9531808,153.80859375,-15.625,-229.4921875,-135.7421875,0.0,0,0
1766859742.003468,1766859741.9570768,-903.80859375,-54.19921875,-113.76953125,-202.63671875,0.0,0,0
1766859742.003505,1766859741.960973,-627.9296875,-42.96875,106.93359375,-33.203125,0.0,0,0
1766859742.003541,1766859741.964869,373.046875,-15.625,170.8984375,150.87890625,0.0,0,0
1766859742.0035782,1766859741.968765,879.8828125,-26.85546875,-46.875,78.125,0.0,0,0
1766859742.003617,1766859741.9726613,277.34375,-43.9453125,-225.09765625,-111.81640625,0.0,0,0
1766859742.048398,1766859741.9766994,-821.2890625,-50.78125,-143.06640625,-214.35546875,0.0,0,0
1766859742.048509,1766859741.9805954,-715.8203125,-39.0625,86.9140625,-59.08203125,0.0,0,0
1766859742.048537,1766859741.9844913,244.62890625,-25.87890625,172.8515625,144.53125,0.0,0,0
1766859742.048563,1766859741.9883876,887.20703125,-34.66796875,-46.38671875,106.93359375,0.0,0,0
1766859742.048587,1766859741.9922836,376.46484375,-45.8984375,-229.98046875,-91.30859375,0.0,0,0
1766859742.048612,1766859741.9961796,-679.19921875,-29.296875,-188.4765625,-212.890625,0.0,0,0
1766859742.048636,1766859742.0000758,-792.48046875,-20.99609375,37.109375,-69.3359375,0.0,0,0
1766859742.04866,1766859742.0039718,64.94140625,-14.16015625,172.8515625,133.7890625,0.0,0,0
1766859742.0486841,1766859742.007868,900.390625,-8.7890625,-22.94921875,130.37109375,0.0,0,0
1766859742.0487082,1766859742.011764,426.26953125,-30.2734375,-230.46875,-66.89453125,0.0,0,0
1766859742.049006,1766859742.01566,-579.1015625,-42.96875,-196.2890625,-205.078125,0.0,0,0
1766859742.049032,1766859742.0195563,-820.3125,-33.203125,51.26953125,-102.5390625,0.0,0,0
1766859742.123578,1766859742.0237448,-94.23828125,-8.7890625,196.2890625,85.9375,0.0,0,0
1766859742.123696,1766859742.0276408,861.81640625,-12.20703125,37.59765625,126.46484375,0.0,0,0
1766859742.12373,1766859742.031537,572.75390625,-32.2265625,-170.8984375,-41.50390625,0.0,0,0
1766859742.1237602,1766859742.035433,-444.3359375,-41.9921875,-202.63671875,-189.453125,0.0,0,0
1766859742.1237912,1766859742.0393293,-913.0859375,-51.7578125,4.8828125,-125.9765625,0.0,0,0
1766859742.12382,1766859742.0432253,-219.7265625,-34.1796875,179.6875,59.08203125,0.0,0,0
1766859742.1238668,1766859742.0471215,842.28515625,-9.27734375,68.84765625,150.87890625,0.0,0,0
1766859742.123932,1766859742.0510175,625.48828125,-35.64453125,-176.26953125,-20.5078125,0.0,0,0
1766859742.123976,1766859742.0549138,-330.078125,-23.92578125,-234.86328125,-196.2890625,0.0,0,0
1766859742.124015,1766859742.05881,-885.7421875,19.53125,-10.7421875,-138.671875,0.0,0,0
1766859742.124052,1766859742.062706,-338.8671875,-18.06640625,180.17578125,47.36328125,0.0,0,0
1766859742.124089,1766859742.0666022,725.09765625,-21.97265625,114.2578125,142.08984375,0.0,0,0
1766859742.138633,1766859742.070624,722.16796875,-25.390625,-118.65234375,2.44140625,0.0,0,0
1766859742.138719,1766859742.07452,-196.2890625,-49.8046875,-216.30859375,-187.01171875,0.0,0,0
1766859742.1387541,1766859742.0784163,-946.77734375,-56.15234375,-26.85546875,-172.36328125,0.0,0,0
1766859742.138786,1766859742.0823126,-432.6171875,-41.50390625,166.50390625,29.296875,0.0,0,0
1766859742.138816,1766859742.0862086,620.60546875,-15.625,137.6953125,148.92578125,0.0,0,0
1766859742.138845,1766859742.0901048,770.01953125,-18.5546875,-86.42578125,20.5078125,0.0,0,0
1766859742.1388748,1766859742.0940008,-54.19921875,-48.33984375,-213.8671875,-155.76171875,0.0,0,0
1766859742.138905,1766859742.097897,-956.54296875,-59.08203125,-61.5234375,-181.640625,0.0,0,0
1766859742.138934,1766859742.1017933,-529.296875,-35.15625,134.27734375,-3.41796875,0.0,0,0
1766859742.138963,1766859742.1056893,464.35546875,-19.04296875,138.671875,153.3203125,0.0,0,0
1766859742.138992,1766859742.1095855,797.8515625,-26.85546875,-70.3125,46.38671875,0.0,0,0
1766859742.1390212,1766859742.1134818,120.60546875,-37.59765625,-222.65625,-144.53125,0.0,0,0
1766859742.18359,1766859742.1174884,-915.0390625,-48.828125,-103.515625,-202.63671875,0.0,0,0
1766859742.183717,1766859742.1213846,-627.44140625,-43.9453125,117.67578125,-27.83203125,0.0,0,0
1766859742.183746,1766859742.1252806,375.48828125,-34.1796875,166.9921875,156.25,0.0,0,0
1766859742.183771,1766859742.1291769,852.05078125,-4.39453125,-59.08203125,78.61328125,0.0,0,0
1766859742.183938,1766859742.133073,217.7734375,24.90234375,-240.234375,-115.72265625,0.0,0,0
1766859742.1839712,1766859742.136969,-855.46875,-15.13671875,-137.20703125,-206.54296875,0.0,0,0
1766859742.183997,1766859742.1408653,-679.19921875,-44.43359375,103.02734375,-33.69140625,0.0,0,0
1766859742.1840231,1766859742.1447616,265.625,-6.8359375,172.8515625,138.671875,0.0,0,0
1766859742.1840472,1766859742.1486578,850.5859375,30.76171875,-55.6640625,85.44921875,0.0,0,0
1766859742.1840708,1766859742.1525538,333.0078125,-33.203125,-218.26171875,-75.1953125,0.0,0,0
1766859742.184095,1766859742.15645,-758.7890625,-75.1953125,-163.0859375,-208.0078125,0.0,0,0
1766859742.184128,1766859742.1603463,-801.26953125,-51.7578125,50.29296875,-83.984375,0.0,0,0
1766859742.228724,1766859742.1643424,107.421875,-26.85546875,177.24609375,119.140625,0.0,0,0
1766859742.228818,1766859742.1682386,898.92578125,-20.99609375,-2.9296875,108.88671875,0.0,0,0
1766859742.2288451,1766859742.1721349,402.83203125,-36.1328125,-204.1015625,-75.1953125,0.0,0,0
1766859742.2288709,1766859742.1760309,-647.4609375,-55.6640625,-186.03515625,-205.56640625,0.0,0,0
1766859742.228896,1766859742.179927,-851.07421875,-51.7578125,44.921875,-97.65625,0.0,0,0
1766859742.2289212,1766859742.1838233,-50.78125,-28.3203125,203.61328125,107.421875,0.0,0,0
1766859742.2289448,1766859742.1877196,895.99609375,-26.85546875,29.296875,141.11328125,0.0,0,0
1766859742.2289689,1766859742.1916156,497.0703125,-18.5546875,-195.80078125,-47.36328125,0.0,0,0
1766859742.228993,1766859742.1955118,-505.859375,-22.94921875,-197.265625,-197.265625,0.0,0,0
1766859742.229017,1766859742.199408,-842.7734375,-40.52734375,36.62109375,-98.14453125,0.0,0,0
1766859742.2290401,1766859742.2033043,-188.96484375,-23.92578125,187.01171875,89.84375,0.0,0,0
1766859742.229064,1766859742.2072003,824.21875,-19.04296875,58.10546875,153.3203125,0.0,0,0
1766859742.274215,1766859742.2111862,594.7265625,-38.57421875,-168.45703125,-19.53125,0.0,0,0
1766859742.2743301,1766859742.2150824,-389.6484375,-52.734375,-221.19140625,-192.3828125,0.0,0,0
1766859742.274357,1766859742.2189786,-930.17578125,-58.10546875,-2.9296875,-128.90625,0.0,0,0
1766859742.274383,1766859742.2228749,-325.68359375,-36.1328125,174.31640625,64.94140625,0.0,0,0
1766859742.2744079,1766859742.2267709,768.06640625,-17.578125,76.66015625,166.9921875,0.0,0,0
1766859742.274432,1766859742.230667,697.265625,-34.1796875,-141.6015625,20.5078125,0.0,0,0
1766859742.274456,1766859742.2345634,-221.6796875,-19.04296875,-202.63671875,-163.57421875,0.0,0,0
1766859742.27448,1766859742.2384596,-928.7109375,2.9296875,-23.92578125,-139.16015625,0.0,0,0
1766859742.274503,1766859742.2423558,-413.0859375,-25.390625,159.66796875,57.12890625,0.0,0,0
1766859742.274527,1766859742.246252,661.1328125,-34.66796875,133.30078125,187.01171875,0.0,0,0
1766859742.2745512,1766859742.250148,781.73828125,-34.1796875,-101.5625,45.8984375,0.0,0,0
1766859742.274574,1766859742.2540443,-65.91796875,-45.41015625,-230.95703125,-122.55859375,0.0,0,0
1766859742.319135,1766859742.2580209,-950.68359375,-49.8046875,-54.6875,-130.859375,0.0,0,0
1766859742.3192818,1766859742.2619169,-469.7265625,-25.390625,154.296875,44.921875,0.0,0,0
1766859742.319322,1766859742.265813,583.0078125,-2.9296875,154.78515625,190.4296875,0.0,0,0
1766859742.3193622,1766859742.2697093,815.91796875,-10.7421875,-77.63671875,74.70703125,0.0,0,0
1766859742.319401,1766859742.2736056,90.33203125,-37.59765625,-232.91015625,-116.2109375,0.0,0,0
1766859742.319438,1766859742.2775018,-904.296875,-55.17578125,-90.8203125,-166.015625,0.0,0,0
1766859742.319475,1766859742.281398,-574.21875,-13.671875,123.53515625,9.765625,0.0,0,0
1766859742.319511,1766859742.2852943,450.68359375,-0.48828125,157.71484375,167.96875,0.0,0,0
1766859742.31955,1766859742.2891905,846.6796875,-41.015625,-63.96484375,77.63671875,0.0,0,0
1766859742.319596,1766859742.2930865,215.8203125,-44.43359375,-228.02734375,-115.72265625,0.0,0,0
1766859742.319644,1766859742.2969828,-827.1484375,-41.015625,-122.55859375,-194.82421875,0.0,0,0
1766859742.31969,1766859742.300879,-659.66796875,-41.015625,101.07421875,-19.53125,0.0,0,0
1766859742.3792572,1766859742.3048491,318.84765625,-22.94921875,180.17578125,175.78125,0.0,0,0
1766859742.379406,1766859742.3087454,877.44140625,-20.5078125,-39.0625,104.4921875,0.0,0,0
1766859742.3794491,1766859742.3126414,331.0546875,-38.0859375,-226.07421875,-84.47265625,0.0,0,0
1766859742.3794932,1766859742.3165376,-752.44140625,-49.8046875,-167.48046875,-183.10546875,0.0,0,0
1766859742.379532,1766859742.3204339,-752.9296875,-48.33984375,65.91796875,-47.8515625,0.0,0,0
1766859742.37957,1766859742.32433,166.015625,-7.8125,184.08203125,141.6015625,0.0,0,0
1766859742.379607,1766859742.3282263,897.94921875,28.3203125,-13.18359375,117.1875,0.0,0,0
1766859742.379644,1766859742.3321226,421.38671875,-18.5546875,-205.078125,-59.5703125,0.0,0,0
1766859742.37968,1766859742.3360188,-636.71875,-57.6171875,-190.91796875,-191.40625,0.0,0,0
1766859742.3797162,1766859742.339915,-821.77734375,-47.8515625,39.0625,-79.58984375,0.0,0,0
1766859742.379752,1766859742.3438113,-19.53125,-38.0859375,187.5,122.0703125,0.0,0,0
1766859742.379788,1766859742.3477075,889.16015625,-38.0859375,14.6484375,135.7421875,0.0,0,0
1766859742.424004,1766859742.3517501,519.04296875,-42.96875,-192.3828125,-37.109375,0.0,0,0
1766859742.4246132,1766859742.3556464,-504.8828125,-47.8515625,-195.80078125,-181.15234375,0.0,0,0
1766859742.4246452,1766859742.3595426,-829.58984375,-41.015625,35.15625,-90.8203125,0.0,0,0
1766859742.424671,1766859742.3634388,-125.0,-33.69140625,194.3359375,94.23828125,0.0,0,0
1766859742.424696,1766859742.367335,858.3984375,-19.04296875,55.17578125,141.11328125,0.0,0,0
1766859742.4247198,1766859742.3712313,583.49609375,-10.7421875,-154.78515625,-18.5546875,0.0,0,0
1766859742.424744,1766859742.3751276,-421.875,-41.015625,-212.40234375,-192.3828125,0.0,0,0
1766859742.424768,1766859742.3790238,-872.55859375,-38.57421875,-8.30078125,-115.234375,0.0,0,0
1766859742.424792,1766859742.38292,-259.765625,-13.671875,183.59375,102.05078125,0.0,0,0
1766859742.4248152,1766859742.3868163,777.83203125,20.99609375,98.14453125,179.19921875,0.0,0,0
1766859742.4248378,1766859742.3907125,644.04296875,-10.7421875,-141.6015625,-3.41796875,0.0,0,0
1766859742.424862,1766859742.3946087,-325.68359375,-67.3828125,-229.4921875,-191.40625,0.0,0,0
1766859742.468995,1766859742.3986368,-937.5,-50.78125,-14.16015625,-144.04296875,0.0,0,0
1766859742.469145,1766859742.402533,-404.296875,-37.59765625,179.6875,43.45703125,0.0,0,0
1766859742.469186,1766859742.4064293,661.62109375,-24.90234375,123.53515625,154.78515625,0.0,0,0
1766859742.469226,1766859742.4103255,737.3046875,-19.53125,-112.79296875,15.13671875,0.0,0,0
1766859742.4692638,1766859742.414222,-124.0234375,-41.50390625,-215.8203125,-169.921875,0.0,0,0
1766859742.469301,1766859742.4181182,-937.98828125,-49.8046875,-32.2265625,-172.8515625,0.0,0,0
1766859742.469339,1766859742.4220145,-473.6328125,-18.06640625,149.90234375,1.46484375,0.0,0,0
1766859742.469376,1766859742.4259107,539.55078125,-11.71875,127.9296875,139.16015625,0.0,0,0
1766859742.469413,1766859742.429807,750.48828125,12.6953125,-114.74609375,25.87890625,0.0,0,0
1766859742.46945,1766859742.4337032,19.53125,30.2734375,-250.0,-149.4140625,0.0,0,0
1766859742.469486,1766859742.4375994,-922.36328125,-40.52734375,-70.80078125,-156.73828125,0.0,0,0
1766859742.469523,1766859742.4414957,-536.1328125,-42.48046875,152.34375,33.69140625,0.0,0,0
1766859742.514157,1766859742.4455135,458.0078125,-14.6484375,162.59765625,161.62109375,0.0,0,0
1766859742.514306,1766859742.4494097,776.85546875,-18.5546875,-72.75390625,21.97265625,0.0,0,0
1766859742.5143502,1766859742.453306,80.078125,-38.0859375,-236.81640625,-182.6171875,0.0,0,0
1766859742.514388,1766859742.4572024,-924.31640625,-45.8984375,-127.44140625,-264.16015625,0.0,0,0
1766859742.514427,1766859742.4610987,-663.57421875,-28.80859375,102.5390625,-87.40234375,0.0,0,0
1766859742.514464,1766859742.464995,291.50390625,-1.953125,170.41015625,94.7265625,0.0,0,0
1766859742.5145018,1766859742.4688911,784.1796875,-6.34765625,-70.3125,10.25390625,0.0,0,0
1766859742.514538,1766859742.4727874,179.19921875,-40.0390625,-250.9765625,-168.45703125,0.0,0,0
1766859742.514594,1766859742.4766836,-863.76953125,-13.671875,-178.22265625,-271.97265625,0.0,0,0
1766859742.51465,1766859742.48058,-752.9296875,4.39453125,63.96484375,-101.07421875,0.0,0,0
1766859742.514698,1766859742.4844763,165.52734375,-17.578125,177.734375,105.95703125,0.0,0,0
1766859742.5147352,1766859742.4883726,823.2421875,-22.94921875,-53.22265625,43.9453125,0.0,0,0
1766859742.5591848,1766859742.4923794,343.26171875,-30.76171875,-241.2109375,-130.859375,0.0,0,0
1766859742.5593548,1766859742.4962757,-692.3828125,-43.9453125,-187.98828125,-237.79296875,0.0,0,0
1766859742.5594082,1766859742.500172,-797.36328125,-45.41015625,49.31640625,-105.95703125,0.0,0,0
1766859742.559457,1766859742.5040681,21.484375,-28.3203125,186.03515625,85.44921875,0.0,0,0
1766859742.559503,1766859742.5079646,847.65625,-24.90234375,-13.18359375,70.3125,0.0,0,0
1766859742.559547,1766859742.5118608,453.61328125,-49.31640625,-209.9609375,-99.609375,0.0,0,0
1766859742.559592,1766859742.515757,-564.94140625,-62.01171875,-192.3828125,-218.26171875,0.0,0,0
1766859742.559635,1766859742.5196533,-862.79296875,-22.4609375,8.7890625,-124.0234375,0.0,0,0
1766859742.559687,1766859742.5235498,-155.2734375,22.4609375,156.25,70.80078125,0.0,0,0
1766859742.5597289,1766859742.527446,839.35546875,-4.8828125,32.2265625,123.046875,0.0,0,0
1766859742.559783,1766859742.5313423,560.05859375,-31.25,-177.24609375,-56.640625,0.0,0,0
1766859742.559824,1766859742.5352385,-439.453125,-32.2265625,-210.44921875,-212.40234375,0.0,0,0
1766859742.604126,1766859742.5392358,-887.20703125,-30.2734375,9.765625,-136.23046875,0.0,0,0
1766859742.604288,1766859742.5431323,-248.53515625,-25.87890625,194.3359375,56.15234375,0.0,0,0
1766859742.6043441,1766859742.5470285,798.828125,-17.578125,78.61328125,125.48828125,0.0,0,0
1766859742.604395,1766859742.5509248,650.87890625,-19.04296875,-167.96875,-41.015625,0.0,0,0
1766859742.604446,1766859742.5548213,-310.05859375,-42.96875,-236.328125,-187.5,0.0,0,0
1766859742.604497,1766859742.5587175,-892.08984375,-41.015625,-17.08984375,-132.32421875,0.0,0,0
1766859742.604535,1766859742.5626137,-325.1953125,-20.5078125,174.8046875,44.43359375,0.0,0,0
1766859742.604573,1766859742.5665102,718.26171875,41.50390625,108.3984375,155.76171875,0.0,0,0
1766859742.60461,1766859742.5704064,696.2890625,28.3203125,-140.13671875,13.18359375,0.0,0,0
1766859742.604647,1766859742.5743027,-229.00390625,-55.17578125,-248.046875,-176.7578125,0.0,0,0
1766859742.604695,1766859742.578199,-958.984375,-54.6875,-53.22265625,-159.1796875,0.0,0,0
1766859742.6047401,1766859742.5820954,-458.0078125,-40.52734375,142.08984375,19.53125,0.0,0,0
1766859742.648915,1766859742.5860832,583.49609375,-29.296875,125.9765625,151.85546875,0.0,0,0
1766859742.649058,1766859742.5899794,734.86328125,-38.57421875,-106.93359375,35.64453125,0.0,0,0
1766859742.649102,1766859742.5938756,-41.015625,-52.734375,-239.74609375,-154.78515625,0.0,0,0
1766859742.649143,1766859742.5977721,-931.15234375,-52.734375,-69.82421875,-176.7578125,0.0,0,0
1766859742.649181,1766859742.6016684,-531.73828125,-30.2734375,139.16015625,15.625,0.0,0,0
1766859742.649219,1766859742.6055646,476.07421875,-29.296875,136.23046875,157.2265625,0.0,0,0
1766859742.649259,1766859742.609461,775.390625,-24.90234375,-105.95703125,36.62109375,0.0,0,0
1766859742.6492958,1766859742.6133573,110.83984375,2.44140625,-250.9765625,-138.18359375,0.0,0,0
1766859742.649334,1766859742.6172535,-885.25390625,-43.45703125,-120.60546875,-197.265625,0.0,0,0
1766859742.649375,1766859742.62115,-603.515625,-45.8984375,106.4453125,-24.4140625,0.0,0,0
1766859742.64942,1766859742.6250463,387.20703125,-11.23046875,161.1328125,155.2734375,0.0,0,0
1766859742.649477,1766859742.6289425,803.22265625,-16.11328125,-85.44921875,62.5,0.0,0,0
1766859742.724077,1766859742.633077,214.35546875,-46.875,-255.859375,-120.60546875,0.0,0,0
1766859742.724277,1766859742.6369734,-824.21875,-67.87109375,-143.5546875,-207.51953125,0.0,0,0
1766859742.724323,1766859742.6408696,-683.59375,-41.9921875,107.421875,-37.109375,0.0,0,0
1766859742.724365,1766859742.644766,253.90625,-17.08984375,182.6171875,151.3671875,0.0,0,0
1766859742.7244039,1766859742.6486623,827.1484375,-25.87890625,-53.22265625,66.89453125,0.0,0,0
1766859742.724442,1766859742.6525588,332.51953125,-38.0859375,-228.02734375,-123.53515625,0.0,0,0
1766859742.724504,1766859742.656455,-711.42578125,-22.4609375,-172.36328125,-221.19140625,0.0,0,0
1766859742.724543,1766859742.6603515,-808.59375,-16.6015625,53.22265625,-87.40234375,0.0,0,0
1766859742.724593,1766859742.6642478,50.29296875,-19.04296875,177.24609375,117.1875,0.0,0,0
1766859742.724649,1766859742.6681442,873.046875,-11.71875,-7.8125,102.5390625,0.0,0,0
1766859742.7247071,1766859742.6720405,442.87109375,-30.76171875,-207.03125,-82.03125,0.0,0,0
1766859742.724743,1766859742.675937,-595.21484375,-46.875,-203.61328125,-203.125,0.0,0,0
1766859742.753411,1766859742.6799068,-816.89453125,-35.15625,28.80859375,-85.44921875,0.0,0,0
1766859742.75354,1766859742.6838033,-60.05859375,-18.06640625,176.7578125,106.4453125,0.0,0,0
1766859742.753601,1766859742.6876996,881.8359375,-25.87890625,7.32421875,125.0,0.0,0,0
1766859742.753653,1766859742.691596,531.73828125,-47.36328125,-208.49609375,-47.8515625,0.0,0,0
1766859742.754205,1766859742.6954925,-489.74609375,-47.36328125,-226.5625,-189.94140625,0.0,0,0
1766859742.754263,1766859742.6993887,-844.23828125,-38.57421875,8.7890625,-101.5625,0.0,0,0
1766859742.754314,1766859742.7032852,-189.94140625,-29.78515625,179.19921875,87.40234375,0.0,0,0
1766859742.754366,1766859742.7071815,783.69140625,-34.66796875,40.0390625,141.6015625,0.0,0,0
1766859742.754417,1766859742.711078,534.66796875,-53.7109375,-199.21875,-48.33984375,0.0,0,0
1766859742.754466,1766859742.7149742,-422.8515625,-57.12890625,-239.2578125,-208.49609375,0.0,0,0
1766859742.754516,1766859742.7188706,-878.90625,-38.0859375,-5.859375,-125.48828125,0.0,0,0
1766859742.754566,1766859742.7227669,-316.40625,-17.08984375,176.7578125,49.8046875,0.0,0,0
1766859742.798843,1766859742.7268019,740.72265625,-7.8125,113.28125,154.296875,0.0,0,0
1766859742.798985,1766859742.730698,674.31640625,8.30078125,-133.30078125,-2.9296875,0.0,0,0
1766859742.799045,1766859742.7345946,-243.65234375,4.39453125,-231.4453125,-194.82421875,0.0,0,0
1766859742.799104,1766859742.7384908,-919.43359375,-39.55078125,-28.3203125,-156.25,0.0,0,0
1766859742.799156,1766859742.7423873,-434.5703125,-40.0390625,154.296875,25.390625,0.0,0,0
1766859742.7992058,1766859742.7462838,646.97265625,5.37109375,128.90625,153.80859375,0.0,0,0
1766859742.799257,1766859742.75018,759.27734375,5.37109375,-117.1875,32.2265625,0.0,0,0
1766859742.799307,1766859742.7540765,-88.8671875,-51.26953125,-254.8828125,-170.41015625,0.0,0,0
1766859742.799358,1766859742.757973,-951.66015625,-66.40625,-81.54296875,-193.84765625,0.0,0,0
1766859742.799428,1766859742.7618692,-508.7890625,-14.6484375,125.0,-7.8125,0.0,0,0
1766859742.799485,1766859742.7657657,527.83203125,2.9296875,135.25390625,137.6953125,0.0,0,0
1766859742.799535,1766859742.7696621,784.1796875,-36.1328125,-85.9375,28.80859375,0.0,0,0
1766859742.8438542,1766859742.7736871,48.828125,-50.78125,-234.86328125,-160.64453125,0.0,0,0
1766859742.8439791,1766859742.7775834,-931.640625,-36.62109375,-91.30859375,-201.171875,0.0,0,0
1766859742.844008,1766859742.7814798,-592.28515625,-18.5546875,134.765625,-11.23046875,0.0,0,0
1766859742.844034,1766859742.7853763,396.97265625,-11.71875,168.45703125,145.5078125,0.0,0,0
1766859742.844058,1766859742.7892725,812.01171875,-10.25390625,-62.98828125,50.78125,0.0,0,0
1766859742.844084,1766859742.793169,220.21484375,-24.4140625,-227.5390625,-124.51171875,0.0,0,0
1766859742.844107,1766859742.7970655,-833.49609375,-43.45703125,-137.6953125,-216.796875,0.0,0,0
1766859742.844131,1766859742.800962,-683.10546875,-49.31640625,86.42578125,-60.546875,0.0,0,0
1766859742.8441548,1766859742.8048582,266.11328125,9.765625,162.109375,127.44140625,0.0,0,0
1766859742.844178,1766859742.8087547,821.77734375,61.5234375,-57.12890625,67.3828125,0.0,0,0
1766859742.844202,1766859742.8126512,288.0859375,-27.34375,-223.6328125,-117.1875,0.0,0,0
1766859742.8442261,1766859742.8165474,-732.91015625,-60.546875,-147.94921875,-208.49609375,0.0,0,0
1766859742.888603,1766859742.8205633,-714.84375,-35.64453125,91.30859375,-51.7578125,0.0,0,0
1766859742.88878,1766859742.8244598,165.0390625,-25.390625,199.21875,128.90625,0.0,0,0
1766859742.888839,1766859742.8283563,881.8359375,-13.671875,-7.32421875,98.14453125,0.0,0,0
1766859742.888892,1766859742.8322525,355.95703125,-26.3671875,-208.984375,-87.40234375,0.0,0,0
1766859742.8889441,1766859742.836149,-703.125,-44.921875,-198.2421875,-219.7265625,0.0,0,0
1766859742.8889961,1766859742.8400455,-738.76953125,-27.83203125,57.12890625,-75.68359375,0.0,0,0
1766859742.889048,1766859742.843942,95.703125,-27.34375,203.125,118.1640625,0.0,0,0
1766859742.8890991,1766859742.8478384,864.74609375,-46.38671875,-12.6953125,104.98046875,0.0,0,0
1766859742.88915,1766859742.8517346,406.73828125,18.06640625,-220.703125,-84.9609375,0.0,0,0
1766859742.8892028,1766859742.855631,-578.61328125,20.5078125,-196.2890625,-223.6328125,0.0,0,0
1766859742.8892539,1766859742.8595276,-797.36328125,-53.7109375,48.33984375,-105.46875,0.0,0,0
1766859742.889306,1766859742.863424,-49.31640625,-39.55078125,216.30859375,101.5625,0.0,0,0
1766859742.9336529,1766859742.8674293,852.05078125,-12.6953125,58.10546875,136.71875,0.0,0,0
1766859742.933789,1766859742.8713257,482.91015625,-35.15625,-194.82421875,-57.6171875,0.0,0,0
1766859742.9338229,1766859742.8752222,-494.140625,-56.640625,-229.98046875,-216.30859375,0.0,0,0
1766859742.9338539,1766859742.8791187,-849.609375,-49.31640625,5.37109375,-120.1171875,0.0,0,0
1766859742.933884,1766859742.883015,-145.99609375,-29.78515625,192.3828125,89.84375,0.0,0,0
1766859742.933913,1766859742.8869114,811.03515625,-12.6953125,87.890625,171.38671875,0.0,0,0
1766859742.933942,1766859742.8908079,565.4296875,-33.203125,-166.50390625,-20.5078125,0.0,0,0
1766859742.933972,1766859742.8947043,-379.39453125,-17.578125,-253.41796875,-212.890625,0.0,0,0
1766859742.934001,1766859742.8986008,-909.1796875,17.08984375,-30.2734375,-160.64453125,0.0,0,0
1766859742.934031,1766859742.9024973,-282.71484375,-27.34375,180.17578125,36.62109375,0.0,0,0
1766859742.934059,1766859742.9063938,661.1328125,-55.17578125,104.00390625,129.8828125,0.0,0,0
1766859742.934088,1766859742.91029,595.21484375,-48.33984375,-141.11328125,-27.83203125,0.0,0,0
1766859742.979075,1766859742.9142845,-225.09765625,-49.8046875,-239.2578125,-204.1015625,0.0,0,0
1766859742.979193,1766859742.918181,-921.38671875,-47.36328125,-39.55078125,-165.0390625,0.0,0,0
1766859742.979221,1766859742.9220774,-384.27734375,-33.203125,169.43359375,37.109375,0.0,0,0
1766859742.979248,1766859742.925974,598.6328125,-11.71875,141.6015625,163.0859375,0.0,0,0
1766859742.9792728,1766859742.9298704,667.96875,-12.20703125,-120.60546875,21.484375,0.0,0,0
1766859742.979298,1766859742.9337668,-90.33203125,-41.50390625,-254.39453125,-172.8515625,0.0,0,0
1766859742.979323,1766859742.9376633,-923.828125,-60.05859375,-77.1484375,-182.6171875,0.0,0,0
1766859742.979347,1766859742.9415598,-474.609375,14.6484375,145.01953125,20.01953125,0.0,0,0
1766859742.979371,1766859742.9454563,497.0703125,31.25,170.8984375,167.48046875,0.0,0,0
1766859742.979396,1766859742.9493525,687.5,-42.48046875,-85.9375,30.76171875,0.0,0,0
1766859742.979445,1766859742.953249,52.24609375,-53.7109375,-257.32421875,-159.66796875,0.0,0,0
1766859742.979489,1766859742.9571455,-854.98046875,-54.19921875,-115.234375,-206.0546875,0.0,0,0
1766859743.0242078,1766859742.961137,-587.890625,-39.55078125,123.046875,-19.04296875,0.0,0,0
1766859743.024328,1766859742.9650335,404.296875,-20.99609375,175.78125,155.76171875,0.0,0,0
1766859743.024357,1766859742.96893,781.25,-28.80859375,-75.68359375,45.41015625,0.0,0,0
1766859743.0243819,1766859742.9728265,201.171875,-38.0859375,-236.81640625,-132.8125,0.0,0,0
1766859743.0244071,1766859742.976723,-783.69140625,-40.52734375,-137.20703125,-212.890625,0.0,0,0
1766859743.0244322,1766859742.9806194,-679.19921875,-40.52734375,104.00390625,-54.19921875,0.0,0,0
1766859743.024456,1766859742.984516,274.4140625,9.765625,199.21875,143.06640625,0.0,0,0
1766859743.02448,1766859742.9884124,815.91796875,41.50390625,-53.7109375,68.84765625,0.0,0,0
1766859743.024504,1766859742.9923089,273.92578125,-28.80859375,-254.39453125,-113.28125,0.0,0,0
1766859743.024532,1766859742.9962053,-690.4296875,-67.87109375,-197.265625,-207.51953125,0.0,0,0
1766859743.024556,1766859743.0001018,-774.90234375,-61.5234375,43.45703125,-84.47265625,0.0,0,0
1766859743.0245812,1766859743.0039983,64.94140625,-43.9453125,194.82421875,108.88671875,0.0,0,0
1766859743.0695832,1766859743.007976,903.3203125,-32.2265625,12.6953125,105.46875,0.0,0,0
1766859743.069751,1766859743.0118725,489.2578125,-44.43359375,-197.265625,-77.63671875,0.0,0,0
1766859743.069798,1766859743.015769,-544.921875,-59.5703125,-198.2421875,-208.0078125,0.0,0,0
1766859743.069843,1766859743.0196655,-829.58984375,-42.48046875,21.484375,-103.515625,0.0,0,0
1766859743.069886,1766859743.023562,-70.80078125,-8.30078125,186.5234375,105.95703125,0.0,0,0
1766859743.06993,1766859743.0274584,887.20703125,-3.41796875,60.546875,154.296875,0.0,0,0
1766859743.0699708,1766859743.031355,555.6640625,-3.90625,-164.0625,-44.921875,0.0,0,0
1766859743.070427,1766859743.0352514,-455.078125,-28.3203125,-212.40234375,-202.63671875,0.0,0,0
1766859743.0704691,1766859743.0391479,-909.1796875,-62.01171875,9.765625,-124.0234375,0.0,0,0
1766859743.070507,1766859743.0430443,-307.6171875,-50.29296875,182.12890625,44.921875,0.0,0,0
1766859743.0705469,1766859743.0469408,760.25390625,-29.296875,73.73046875,127.44140625,0.0,0,0
1766859743.070584,1766859743.0508373,648.92578125,-32.71484375,-155.2734375,-16.6015625,0.0,0,0
1766859743.129226,1766859743.0548048,-312.98828125,-51.26953125,-222.65625,-187.5,0.0,0,0
1766859743.129406,1766859743.0587013,-920.41015625,-49.8046875,-12.6953125,-138.671875,0.0,0,0
1766859743.129466,1766859743.0625978,-356.93359375,-29.78515625,174.31640625,57.6171875,0.0,0,0
1766859743.129521,1766859743.0664942,713.37890625,-9.27734375,119.62890625,172.36328125,0.0,0,0
1766859743.129575,1766859743.070391,697.265625,-34.1796875,-134.27734375,9.765625,0.0,0,0
1766859743.129627,1766859743.0742874,-169.921875,-43.45703125,-238.76953125,-177.734375,0.0,0,0
1766859743.129677,1766859743.078184,-920.8984375,-18.5546875,-35.64453125,-164.55078125,0.0,0,0
1766859743.129728,1766859743.0820804,-459.47265625,-34.1796875,158.203125,21.484375,0.0,0,0
1766859743.129787,1766859743.0859768,576.66015625,-34.66796875,138.18359375,167.96875,0.0,0,0
1766859743.129846,1766859743.0898733,781.73828125,-36.62109375,-110.83984375,43.9453125,0.0,0,0
1766859743.1298969,1766859743.0937698,-1.953125,-51.7578125,-257.8125,-165.0390625,0.0,0,0
1766859743.1299598,1766859743.0976663,-953.125,-52.734375,-89.84375,-207.51953125,0.0,0,0
1766859743.17424,1766859743.1017008,-541.9921875,-36.1328125,140.13671875,-11.23046875,0.0,0,0
1766859743.1743722,1766859743.1055973,479.00390625,-15.13671875,164.0625,151.3671875,0.0,0,0
1766859743.1744158,1766859743.1094937,794.921875,-18.5546875,-83.49609375,33.69140625,0.0,0,0
1766859743.174454,1766859743.1133904,116.2109375,-51.26953125,-250.0,-155.2734375,0.0,0,0
1766859743.174508,1766859743.117287,-909.1796875,-75.1953125,-127.9296875,-210.9375,0.0,0,0
1766859743.174546,1766859743.1211834,-624.51171875,-44.43359375,113.28125,-28.80859375,0.0,0,0
1766859743.1745842,1766859743.1250799,351.5625,-17.578125,169.921875,146.97265625,0.0,0,0
1766859743.17462,1766859743.1289763,811.03515625,-24.90234375,-70.3125,55.6640625,0.0,0,0
1766859743.174676,1766859743.1328728,249.0234375,-36.62109375,-245.60546875,-123.53515625,0.0,0,0
1766859743.1747131,1766859743.1367693,-804.6875,-25.390625,-149.4140625,-224.12109375,0.0,0,0
1766859743.174787,1766859743.140666,-705.56640625,-19.53125,105.95703125,-66.40625,0.0,0,0
1766859743.174824,1766859743.1445625,249.51171875,-29.78515625,205.078125,142.578125,0.0,0,0
1766859743.2185512,1766859743.1485858,877.44140625,-28.80859375,-23.4375,93.75,0.0,0,0
1766859743.218699,1766859743.1524823,361.328125,-41.9921875,-220.21484375,-91.30859375,0.0,0,0
1766859743.218733,1766859743.1563787,-667.96875,-46.875,-159.66796875,-207.03125,0.0,0,0
1766859743.218765,1766859743.1602755,-775.390625,-35.64453125,73.73046875,-74.70703125,0.0,0,0
1766859743.218795,1766859743.164172,58.10546875,-11.23046875,188.96484375,122.55859375,0.0,0,0
1766859743.2188249,1766859743.1680684,908.203125,-8.30078125,10.25390625,116.69921875,0.0,0,0
1766859743.218854,1766859743.171965,471.19140625,-39.0625,-192.3828125,-66.40625,0.0,0,0
1766859743.218882,1766859743.1758616,-588.37890625,-73.2421875,-202.1484375,-209.9609375,0.0,0,0
1766859743.218911,1766859743.179758,-866.69921875,-32.2265625,20.01953125,-109.375,0.0,0,0
1766859743.21894,1766859743.1836545,-89.84375,35.64453125,187.01171875,88.37890625,0.0,0,0
1766859743.218969,1766859743.187551,891.6015625,-4.39453125,41.50390625,142.08984375,0.0,0,0
1766859743.218997,1766859743.1914475,550.29296875,-46.38671875,-192.3828125,-41.50390625,0.0,0,0
1766859743.264489,1766859743.1954627,-481.93359375,-61.5234375,-232.91015625,-216.796875,0.0,0,0
1766859743.2646441,1766859743.1993594,-908.203125,-56.15234375,-0.48828125,-122.55859375,0.0,0,0
1766859743.264688,1766859743.203256,-240.234375,-21.484375,180.17578125,80.078125,0.0,0,0
1766859743.264728,1766859743.2071524,823.2421875,3.41796875,74.21875,154.296875,0.0,0,0
1766859743.264766,1766859743.211049,614.74609375,-16.11328125,-165.0390625,-30.2734375,0.0,0,0
1766859743.264811,1766859743.2149456,-359.86328125,-35.15625,-220.21484375,-205.56640625,0.0,0,0
1766859743.2648478,1766859743.218842,-908.69140625,-41.50390625,-4.39453125,-141.6015625,0.0,0,0
1766859743.264889,1766859743.2227385,-352.5390625,-36.1328125,172.36328125,41.50390625,0.0,0,0
1766859743.264936,1766859743.2266352,726.5625,27.83203125,112.79296875,151.3671875,0.0,0,0
1766859743.2649999,1766859743.2305317,696.77734375,15.13671875,-133.30078125,5.37109375,0.0,0,0
1766859743.265059,1766859743.2344282,-232.91015625,-49.8046875,-242.67578125,-187.01171875,0.0,0,0
1766859743.265109,1766859743.2383249,-928.7109375,-40.52734375,-35.64453125,-148.4375,0.0,0,0
1766859743.324275,1766859743.2424061,-476.07421875,-29.296875,145.5078125,19.53125,0.0,0,0
1766859743.324424,1766859743.2463026,552.734375,-18.5546875,112.79296875,135.7421875,0.0,0,0
1766859743.324466,1766859743.2501993,774.90234375,-27.83203125,-116.2109375,28.80859375,0.0,0,0
1766859743.324505,1766859743.2540958,-29.78515625,-48.828125,-246.09375,-148.92578125,0.0,0,0
1766859743.324543,1766859743.2579923,-933.10546875,-45.8984375,-54.19921875,-164.55078125,0.0,0,0
1766859743.3245811,1766859743.261889,-505.859375,-20.99609375,163.57421875,0.0,0.0,0,0
1766859743.32463,1766859743.2657855,512.6953125,-17.578125,167.96875,146.484375,0.0,0,0
1766859743.324679,1766859743.2696822,819.82421875,-10.25390625,-70.80078125,52.24609375,0.0,0,0
1766859743.3247192,1766859743.2735786,95.21484375,-11.71875,-250.9765625,-141.11328125,0.0,0,0
1766859743.324765,1766859743.2774754,-938.4765625,-55.6640625,-122.0703125,-218.26171875,0.0,0,0
1766859743.324822,1766859743.2813718,-611.328125,-43.45703125,123.53515625,-21.97265625,0.0,0,0
1766859743.324862,1766859743.2852683,401.85546875,-15.13671875,186.5234375,164.55078125,0.0,0,0
1766859743.35407,1766859743.2892628,835.44921875,-18.5546875,-53.7109375,62.98828125,0.0,0,0
1766859743.35428,1766859743.2931592,204.58984375,-37.109375,-238.28125,-121.09375,0.0,0,0
1766859743.354341,1766859743.297056,-841.796875,-53.7109375,-142.08984375,-197.265625,0.0,0,0
1766859743.354384,1766859743.3009524,-720.703125,-47.36328125,79.58984375,-48.828125,0.0,0,0
1766859743.354423,1766859743.3048491,253.41796875,-25.390625,179.19921875,131.8359375,0.0,0,0
1766859743.3545191,1766859743.3087456,886.23046875,-31.25,-33.69140625,69.3359375,0.0,0,0
1766859743.354642,1766859743.3126423,334.47265625,-42.48046875,-226.5625,-108.88671875,0.0,0,0
1766859743.354694,1766859743.3165388,-735.3515625,-43.9453125,-179.19921875,-224.12109375,0.0,0,0
1766859743.354759,1766859743.3204355,-792.96875,-44.43359375,41.015625,-90.8203125,0.0,0,0
1766859743.3547971,1766859743.324332,116.69921875,-23.4375,182.6171875,130.859375,0.0,0,0
1766859743.3548281,1766859743.3282287,924.31640625,-12.20703125,-11.71875,120.60546875,0.0,0,0
1766859743.354859,1766859743.3321252,427.24609375,-5.37109375,-224.609375,-62.5,0.0,0,0
1766859743.398601,1766859743.3361099,-618.1640625,-22.94921875,-193.359375,-194.3359375,0.0,0,0
1766859743.39874,1766859743.3400066,-814.453125,-40.0390625,48.33984375,-85.44921875,0.0,0,0
1766859743.3988092,1766859743.343903,-7.32421875,-10.25390625,208.984375,123.53515625,0.0,0,0
1766859743.398858,1766859743.3477998,922.36328125,-11.71875,41.50390625,165.0390625,0.0,0,0
1766859743.398891,1766859743.3516963,533.69140625,-33.203125,-194.3359375,-35.15625,0.0,0,0
1766859743.398921,1766859743.355593,-497.55859375,-41.9921875,-209.9609375,-208.0078125,0.0,0,0
1766859743.3989499,1766859743.3594894,-882.32421875,-30.2734375,11.23046875,-111.328125,0.0,0,0
1766859743.3989792,1766859743.3633862,-211.42578125,-2.9296875,164.55078125,81.0546875,0.0,0,0
1766859743.399008,1766859743.3672826,828.61328125,-11.23046875,46.38671875,148.4375,0.0,0,0
1766859743.399037,1766859743.3711793,595.703125,-34.1796875,-186.03515625,-32.71484375,0.0,0,0
1766859743.3992782,1766859743.3750758,-397.94921875,-49.31640625,-245.60546875,-208.0078125,0.0,0,0
1766859743.399311,1766859743.3789725,-874.0234375,-40.0390625,-4.8828125,-131.8359375,0.0,0,0
1766859743.443472,1766859743.3829472,-264.6484375,-30.2734375,181.640625,50.78125,0.0,0,0
1766859743.4435542,1766859743.3868437,741.69921875,-18.5546875,80.56640625,138.18359375,0.0,0,0
1766859743.4436522,1766859743.3907404,672.36328125,-20.5078125,-155.76171875,-1.953125,0.0,0,0
1766859743.4437,1766859743.394637,-210.44921875,-38.57421875,-234.86328125,-181.15234375,0.0,0,0
1766859743.443728,1766859743.3985336,-907.2265625,-40.0390625,-35.64453125,-160.15625,0.0,0,0
1766859743.443794,1766859743.4024303,-399.90234375,-26.85546875,162.109375,37.59765625,0.0,0,0
1766859743.44384,1766859743.4063268,662.59765625,22.4609375,119.140625,155.2734375,0.0,0,0
1766859743.443867,1766859743.4102235,705.078125,2.44140625,-140.625,4.8828125,0.0,0,0
1766859743.443912,1766859743.41412,-131.8359375,-59.5703125,-260.25390625,-180.17578125,0.0,0,0
1766859743.44397,1766859743.4180167,-957.03125,-59.5703125,-72.265625,-186.03515625,0.0,0,0
1766859743.4439979,1766859743.4219134,-465.33203125,-26.3671875,147.4609375,6.8359375,0.0,0,0
1766859743.444022,1766859743.4258099,558.59375,-8.7890625,145.99609375,148.92578125,0.0,0,0
1766859743.5045052,1766859743.4297776,767.578125,-22.4609375,-89.84375,25.87890625,0.0,0,0
1766859743.5046,1766859743.433674,48.828125,-34.1796875,-233.3984375,-146.97265625,0.0,0,0
1766859743.504627,1766859743.4375708,-921.875,-29.78515625,-86.9140625,-198.2421875,0.0,0,0
1766859743.504653,1766859743.4414673,-583.49609375,-13.671875,136.71875,-24.4140625,0.0,0,0
1766859743.504677,1766859743.445364,388.671875,-16.6015625,160.15625,143.06640625,0.0,0,0
1766859743.5047019,1766859743.4492607,784.1796875,-23.92578125,-73.2421875,50.78125,0.0,0,0
1766859743.504725,1766859743.4531572,179.6875,-16.6015625,-228.515625,-123.53515625,0.0,0,0
1766859743.504749,1766859743.457054,-853.515625,-34.1796875,-118.1640625,-199.70703125,0.0,0,0
1766859743.5047739,1766859743.4609504,-653.80859375,-38.0859375,108.88671875,-38.57421875,0.0,0,0
1766859743.504798,1766859743.464847,325.68359375,-16.11328125,178.7109375,148.4375,0.0,0,0
1766859743.504822,1766859743.4687438,867.1875,-6.8359375,-53.7109375,83.49609375,0.0,0,0
1766859743.504853,1766859743.4726403,328.61328125,-23.92578125,-239.2578125,-109.86328125,0.0,0,0
1766859743.5496142,1766859743.476675,-746.09375,-50.29296875,-170.41015625,-219.23828125,0.0,0,0
1766859743.549738,1766859743.4805717,-744.140625,-34.66796875,73.73046875,-62.5,0.0,0,0
1766859743.5497768,1766859743.4844682,165.0390625,-10.25390625,190.91796875,127.44140625,0.0,0,0
1766859743.549815,1766859743.488365,866.2109375,-24.90234375,-19.53125,90.33203125,0.0,0,0
1766859743.549852,1766859743.4922616,396.97265625,-36.62109375,-209.9609375,-86.42578125,0.0,0,0
1766859743.54989,1766859743.4961581,-634.27734375,-40.52734375,-173.828125,-216.796875,0.0,0,0
1766859743.549927,1766859743.5000548,-782.2265625,-34.1796875,50.29296875,-99.609375,0.0,0,0
1766859743.549966,1766859743.5039515,14.16015625,-16.6015625,169.43359375,99.609375,0.0,0,0
1766859743.550003,1766859743.507848,904.296875,-20.01953125,-1.953125,123.046875,0.0,0,0
1766859743.550049,1766859743.5117447,493.65234375,-35.64453125,-204.1015625,-63.4765625,0.0,0,0
1766859743.550095,1766859743.5156415,-549.31640625,-49.31640625,-209.47265625,-208.49609375,0.0,0,0
1766859743.55015,1766859743.519538,-874.51171875,-59.5703125,22.4609375,-104.00390625,0.0,0,0
1766859743.62429,1766859743.523712,-145.5078125,-42.48046875,194.82421875,80.078125,0.0,0,0
1766859743.624437,1766859743.5276086,869.62890625,-13.671875,68.84765625,130.859375,0.0,0,0
1766859743.62448,1766859743.531505,577.1484375,-17.578125,-162.109375,-45.41015625,0.0,0,0
1766859743.6245198,1766859743.5354018,-426.26953125,-36.62109375,-224.12109375,-208.984375,0.0,0,0
1766859743.6245592,1766859743.5392985,-886.71875,-32.2265625,4.39453125,-123.53515625,0.0,0,0
1766859743.624597,1766859743.5431952,-230.95703125,-20.01953125,193.359375,67.3828125,0.0,0,0
1766859743.624634,1766859743.547092,822.75390625,-23.92578125,90.8203125,157.2265625,0.0,0,0
1766859743.624672,1766859743.5509887,637.20703125,-41.50390625,-163.0859375,-10.7421875,0.0,0,0
1766859743.6247091,1766859743.5548854,-311.5234375,-49.31640625,-265.625,-196.77734375,0.0,0,0
1766859743.624746,1766859743.5587819,-924.31640625,-35.15625,-42.48046875,-149.90234375,0.0,0,0
1766859743.624782,1766859743.5626786,-368.1640625,-25.390625,170.8984375,37.59765625,0.0,0,0
1766859743.624819,1766859743.5665753,698.2421875,-15.625,112.79296875,145.5078125,0.0,0,0
1766859743.638742,1766859743.5705912,710.9375,-23.92578125,-141.11328125,7.32421875,0.0,0,0
1766859743.638857,1766859743.574488,-158.203125,-44.43359375,-245.60546875,-164.0625,0.0,0,0
1766859743.638906,1766859743.5783846,-950.68359375,-40.0390625,-46.38671875,-159.66796875,0.0,0,0
1766859743.6389408,1766859743.5822814,-458.49609375,-19.53125,146.97265625,12.6953125,0.0,0,0
1766859743.638973,1766859743.586178,564.94140625,-13.671875,126.46484375,147.94921875,0.0,0,0
1766859743.6390028,1766859743.5900748,763.671875,-33.69140625,-123.53515625,36.62109375,0.0,0,0
1766859743.639033,1766859743.5939715,21.97265625,-47.8515625,-265.625,-147.94921875,0.0,0,0
1766859743.639062,1766859743.5978682,-940.4296875,-51.26953125,-100.09765625,-194.82421875,0.0,0,0
1766859743.639092,1766859743.601765,-568.84765625,-41.9921875,131.8359375,-13.671875,0.0,0,0
1766859743.6391208,1766859743.6056616,454.58984375,-21.97265625,174.31640625,152.34375,0.0,0,0
1766859743.6391501,1766859743.6095583,770.01953125,-31.25,-75.1953125,46.38671875,0.0,0,0
1766859743.639179,1766859743.613455,139.6484375,-51.7578125,-229.00390625,-128.41796875,0.0,0,0
1766859743.684397,1766859743.6174603,-845.21484375,-45.41015625,-113.28125,-199.21875,0.0,0,0
1766859743.6844952,1766859743.621357,-640.625,-25.87890625,101.07421875,-45.41015625,0.0,0,0
1766859743.6845498,1766859743.6252537,351.5625,-6.8359375,188.96484375,144.04296875,0.0,0,0
1766859743.684603,1766859743.6291504,848.6328125,-7.32421875,-53.7109375,64.453125,0.0,0,0
1766859743.684654,1766859743.633047,238.28125,-39.55078125,-263.18359375,-124.51171875,0.0,0,0
1766859743.684705,1766859743.6369438,-799.8046875,-56.640625,-171.38671875,-207.51953125,0.0,0,0
1766859743.684769,1766859743.6408405,-710.9375,-41.015625,80.56640625,-52.24609375,0.0,0,0
1766859743.6848252,1766859743.6447372,179.19921875,-19.53125,172.36328125,120.60546875,0.0,0,0
1766859743.684875,1766859743.648634,861.328125,-5.859375,-38.0859375,80.078125,0.0,0,0
1766859743.6849349,1766859743.6525307,383.30078125,-31.73828125,-215.8203125,-89.84375,0.0,0,0
1766859743.6849852,1766859743.6564274,-651.85546875,-46.875,-171.38671875,-194.3359375,0.0,0,0
1766859743.685035,1766859743.660324,-784.1796875,-35.15625,60.05859375,-63.4765625,0.0,0,0
1766859743.728804,1766859743.6643152,-6.8359375,-23.4375,193.359375,113.28125,0.0,0,0
1766859743.728909,1766859743.668212,857.421875,-28.3203125,12.6953125,111.81640625,0.0,0,0
1766859743.728971,1766859743.6721087,449.21875,-54.19921875,-200.1953125,-68.359375,0.0,0,0
1766859743.7290292,1766859743.6760054,-554.19921875,-62.98828125,-200.68359375,-190.91796875,0.0,0,0
1766859743.7290828,1766859743.679902,-835.9375,-51.7578125,20.99609375,-97.65625,0.0,0,0
1766859743.729134,1766859743.6837988,-109.375,-24.4140625,200.68359375,95.21484375,0.0,0,0
1766859743.729185,1766859743.6876955,879.8828125,-25.390625,61.5234375,150.87890625,0.0,0,0
1766859743.729236,1766859743.6915922,531.25,-5.859375,-181.640625,-36.62109375,0.0,0,0
1766859743.729285,1766859743.695489,-485.3515625,-15.625,-207.51953125,-193.84765625,0.0,0,0
1766859743.729336,1766859743.6993856,-877.9296875,-50.29296875,31.73828125,-100.5859375,0.0,0,0
1766859743.729385,1766859743.7032824,-221.19140625,-28.80859375,200.1953125,81.0546875,0.0,0,0
1766859743.729436,1766859743.707179,810.546875,-18.5546875,78.125,146.97265625,0.0,0,0
1766859743.774102,1766859743.7111647,630.37109375,-27.83203125,-169.43359375,-6.34765625,0.0,0,0
1766859743.774584,1766859743.7150614,-321.2890625,-42.96875,-232.421875,-165.52734375,0.0,0,0
1766859743.774631,1766859743.7189581,-876.953125,-34.1796875,-10.25390625,-117.67578125,0.0,0,0
1766859743.7746701,1766859743.7228549,-309.08203125,-16.6015625,177.24609375,67.87109375,0.0,0,0
1766859743.774715,1766859743.7267516,699.21875,-12.6953125,114.74609375,171.875,0.0,0,0
1766859743.774751,1766859743.7306483,691.40625,-24.90234375,-117.67578125,23.4375,0.0,0,0
1766859743.7747998,1766859743.7345452,-186.03515625,-40.0390625,-222.16796875,-163.57421875,0.0,0,0
1766859743.774836,1766859743.738442,-942.3828125,-37.109375,-30.76171875,-146.97265625,0.0,0,0
1766859743.774873,1766859743.7423387,-416.015625,-28.3203125,171.38671875,39.55078125,0.0,0,0
1766859743.77491,1766859743.7462354,610.83984375,-16.6015625,147.4609375,154.78515625,0.0,0,0
1766859743.774946,1766859743.750132,682.6171875,-20.99609375,-107.91015625,15.13671875,0.0,0,0
1766859743.774983,1766859743.7540288,-127.9296875,-45.41015625,-250.9765625,-171.875,0.0,0,0
1766859743.8193762,1766859743.7580059,-964.84375,-53.22265625,-65.91796875,-183.10546875,0.0,0,0
1766859743.819516,1766859743.7619026,-463.37890625,-37.109375,162.59765625,33.203125,0.0,0,0
1766859743.819561,1766859743.7657993,527.34375,-28.3203125,165.52734375,169.921875,0.0,0,0
1766859743.819629,1766859743.769696,690.4296875,-33.69140625,-97.16796875,12.6953125,0.0,0,0
1766859743.8196712,1766859743.7735927,-5.859375,-50.78125,-269.53125,-183.10546875,0.0,0,0
1766859743.819742,1766859743.7774894,-911.62109375,-59.08203125,-117.67578125,-203.61328125,0.0,0,0
1766859743.819799,1766859743.7813864,-556.15234375,-32.71484375,127.44140625,-13.18359375,0.0,0,0
1766859743.819839,1766859743.785283,388.18359375,-26.85546875,158.69140625,144.04296875,0.0,0,0
1766859743.819919,1766859743.7891798,687.01171875,-44.921875,-87.40234375,35.15625,0.0,0,0
1766859743.819962,1766859743.7930765,111.328125,-44.921875,-255.859375,-150.87890625,0.0,0,0
1766859743.819999,1766859743.7969732,-824.70703125,-41.015625,-156.73828125,-217.28515625,0.0,0,0
1766859743.8200371,1766859743.80087,-651.85546875,-41.50390625,92.7734375,-34.1796875,0.0,0,0
1766859743.907905,1766859743.8048353,309.08203125,-40.52734375,174.31640625,150.390625,0.0,0,0
1766859743.908072,1766859743.8087323,825.1953125,-22.94921875,-66.89453125,68.84765625,0.0,0,0
1766859743.90813,1766859743.812629,220.21484375,-24.90234375,-248.046875,-118.1640625,0.0,0,0
1766859743.908183,1766859743.8165257,-743.65234375,-41.50390625,-163.0859375,-211.42578125,0.0,0,0
1766859743.908236,1766859743.8204224,-682.6171875,-31.73828125,86.42578125,-52.734375,0.0,0,0
1766859743.908288,1766859743.8243191,181.640625,-12.6953125,201.66015625,137.6953125,0.0,0,0
1766859743.908347,1766859743.828216,878.41796875,-1.953125,-2.9296875,90.33203125,0.0,0,0
1766859743.9083982,1766859743.8321128,330.078125,-29.296875,-238.28125,-119.62890625,0.0,0,0
1766859743.908448,1766859743.8360095,-678.7109375,-63.4765625,-231.4453125,-226.07421875,0.0,0,0
1766859743.908519,1766859743.8399062,-764.6484375,-45.8984375,44.921875,-75.1953125,0.0,0,0
1766859743.9085708,1766859743.843803,20.01953125,-9.765625,219.7265625,99.609375,0.0,0,0
1766859743.908622,1766859743.8476999,809.08203125,-20.5078125,25.87890625,93.26171875,0.0,0,0
1766859743.924224,1766859743.851734,395.01953125,-49.8046875,-222.16796875,-90.8203125,0.0,0,0
1766859743.924316,1766859743.8556306,-565.4296875,-55.17578125,-230.95703125,-227.5390625,0.0,0,0
1766859743.924358,1766859743.8595276,-820.80078125,-44.43359375,27.83203125,-116.69921875,0.0,0,0
1766859743.9243982,1766859743.8634243,-117.67578125,-27.83203125,197.75390625,64.453125,0.0,0,0
1766859743.9244359,1766859743.867321,810.05859375,-20.5078125,56.15234375,114.2578125,0.0,0,0
1766859743.924473,1766859743.8712177,557.6171875,-31.25,-175.29296875,-34.1796875,0.0,0,0
1766859743.924513,1766859743.8751147,-420.8984375,-36.62109375,-229.00390625,-210.44921875,0.0,0,0
1766859743.924551,1766859743.8790114,-877.9296875,-32.2265625,-5.859375,-136.71875,0.0,0,0
1766859743.924593,1766859743.882908,-223.6328125,-23.92578125,176.7578125,83.49609375,0.0,0,0
1766859743.92463,1766859743.886805,735.83984375,-20.01953125,81.0546875,143.06640625,0.0,0,0
1766859743.9246762,1766859743.8907018,607.421875,-27.83203125,-145.5078125,-18.5546875,0.0,0,0
1766859743.924722,1766859743.8945985,-304.6875,-42.96875,-232.421875,-178.7109375,0.0,0,0
1766859743.982978,1766859743.8986192,-950.1953125,-45.41015625,-39.55078125,-151.3671875,0.0,0,0
1766859743.983156,1766859743.9025161,-363.76953125,-24.90234375,167.96875,34.1796875,0.0,0,0
1766859743.983213,1766859743.9064128,666.50390625,-2.9296875,139.6484375,148.4375,0.0,0,0
1766859743.983266,1766859743.9103096,702.1484375,-11.23046875,-111.328125,15.13671875,0.0,0,0
1766859743.983318,1766859743.9142065,-122.55859375,-29.78515625,-242.1875,-174.31640625,0.0,0,0
1766859743.98337,1766859743.9181032,-946.2890625,-30.2734375,-56.15234375,-181.15234375,0.0,0,0
1766859743.983436,1766859743.922,-458.0078125,-19.53125,155.2734375,20.99609375,0.0,0,0
1766859743.983486,1766859743.925897,556.15234375,-16.11328125,145.5078125,162.109375,0.0,0,0
1766859743.9835362,1766859743.9297936,705.078125,-33.203125,-118.65234375,32.71484375,0.0,0,0
1766859743.983597,1766859743.9336903,20.01953125,-51.7578125,-253.90625,-128.41796875,0.0,0,0
1766859743.983666,1766859743.9375873,-867.1875,-44.43359375,-80.56640625,-167.96875,0.0,0,0
1766859743.983732,1766859743.941484,-617.1875,-22.4609375,129.39453125,-32.71484375,0.0,0,0
1766859744.014125,1766859743.9454954,349.609375,-6.8359375,158.203125,103.515625,0.0,0,0
1766859744.014286,1766859743.9493923,773.92578125,-3.41796875,-63.96484375,19.04296875,0.0,0,0
1766859744.0143301,1766859743.953289,149.90234375,-20.01953125,-234.375,-152.83203125,0.0,0,0
1766859744.01437,1766859743.957186,-873.046875,-40.52734375,-141.11328125,-243.1640625,0.0,0,0
1766859744.0144079,1766859743.9610827,-710.9375,-25.390625,98.6328125,-78.61328125,0.0,0,0
1766859744.014445,1766859743.9649796,231.93359375,-13.671875,177.24609375,114.2578125,0.0,0,0
1766859744.014483,1766859743.9688764,826.171875,-22.4609375,-50.29296875,55.6640625,0.0,0,0
1766859744.0145202,1766859743.972773,304.6875,-45.41015625,-233.88671875,-119.140625,0.0,0,0
1766859744.0145862,1766859743.97667,-722.65625,-55.6640625,-172.36328125,-218.26171875,0.0,0,0
1766859744.0146859,1766859743.9805667,-757.8125,-33.69140625,71.77734375,-69.3359375,0.0,0,0
1766859744.014762,1766859743.9844637,99.12109375,-16.6015625,195.3125,123.046875,0.0,0,0
1766859744.014822,1766859743.9883604,877.44140625,-15.625,-10.25390625,105.95703125,0.0,0,0
1766859744.058817,1766859743.9923627,429.6875,-36.1328125,-208.49609375,-69.3359375,0.0,0,0
1766859744.058976,1766859743.9962595,-609.86328125,-48.828125,-183.59375,-193.84765625,0.0,0,0
1766859744.05902,1766859744.0001564,-799.8046875,-25.87890625,55.6640625,-67.87109375,0.0,0,0
1766859744.059066,1766859744.004053,-32.71484375,-8.7890625,209.47265625,123.046875,0.0,0,0
1766859744.059103,1766859744.00795,852.05078125,-25.87890625,22.94921875,123.53515625,0.0,0,0
1766859744.0591412,1766859744.0118468,488.76953125,-49.31640625,-197.75390625,-63.4765625,0.0,0,0
1766859744.059181,1766859744.0157437,-473.14453125,-36.1328125,-185.546875,-197.75390625,0.0,0,0
1766859744.059219,1766859744.0196404,-857.91015625,-29.296875,33.203125,-107.91015625,0.0,0,0
1766859744.059256,1766859744.0235374,-230.46875,-21.97265625,174.31640625,71.77734375,0.0,0,0
1766859744.0592918,1766859744.027434,821.77734375,-12.6953125,53.7109375,146.484375,0.0,0,0
1766859744.059329,1766859744.031331,585.9375,-41.9921875,-176.7578125,-33.69140625,0.0,0,0
1766859744.059371,1766859744.0352278,-411.62109375,-57.12890625,-228.02734375,-214.84375,0.0,0,0
1766859744.104382,1766859744.0392206,-913.0859375,-36.62109375,-5.37109375,-148.92578125,0.0,0,0
1766859744.104568,1766859744.0431175,-336.9140625,-24.4140625,157.71484375,33.203125,0.0,0,0
1766859744.104631,1766859744.0470142,716.30859375,-33.203125,69.82421875,131.8359375,0.0,0,0
1766859744.104674,1766859744.0509112,668.45703125,-42.96875,-148.92578125,-12.6953125,0.0,0,0
1766859744.1050491,1766859744.054808,-241.69921875,-57.6171875,-237.79296875,-187.98828125,0.0,0,0
1766859744.105084,1766859744.0587049,-914.55078125,-45.41015625,-21.97265625,-150.390625,0.0,0,0
1766859744.1051142,1766859744.0626018,-398.92578125,-4.39453125,176.26953125,43.9453125,0.0,0,0
1766859744.105144,1766859744.0664985,654.296875,2.44140625,127.9296875,171.38671875,0.0,0,0
1766859744.105173,1766859744.0703955,731.4453125,-27.34375,-114.2578125,19.04296875,0.0,0,0
1766859744.105202,1766859744.0742922,-113.76953125,-48.33984375,-251.46484375,-165.52734375,0.0,0,0
1766859744.10523,1766859744.0781891,-939.453125,-52.24609375,-60.05859375,-161.62109375,0.0,0,0
1766859744.105259,1766859744.0820858,-470.703125,-28.3203125,159.1796875,18.06640625,0.0,0,0
1766859744.1502929,1766859744.0860686,531.73828125,-17.08984375,135.25390625,146.97265625,0.0,0,0
1766859744.150464,1766859744.0899656,761.23046875,-29.78515625,-107.421875,18.06640625,0.0,0,0
1766859744.1505249,1766859744.0938625,67.3828125,-35.64453125,-242.1875,-159.66796875,0.0,0,0
1766859744.150579,1766859744.0977592,-904.296875,-33.203125,-82.51953125,-204.58984375,0.0,0,0
1766859744.15063,1766859744.1016562,-562.01171875,-15.625,135.7421875,-39.55078125,0.0,0,0
1766859744.150681,1766859744.105553,453.61328125,7.8125,176.7578125,142.578125,0.0,0,0
1766859744.150732,1766859744.1094499,841.796875,-5.37109375,-61.03515625,73.73046875,0.0,0,0
1766859744.150783,1766859744.1133468,153.80859375,-55.17578125,-269.53125,-130.859375,0.0,0,0
1766859744.150833,1766859744.1172435,-888.671875,-67.3828125,-155.76171875,-211.42578125,0.0,0,0
1766859744.150913,1766859744.1211405,-687.5,-42.96875,102.5390625,-52.734375,0.0,0,0
1766859744.1509628,1766859744.1250372,263.671875,-22.4609375,186.5234375,129.8828125,0.0,0,0
1766859744.1510139,1766859744.1289341,828.61328125,-20.01953125,-40.52734375,64.453125,0.0,0,0
1766859744.224115,1766859744.1330554,291.9921875,-30.76171875,-220.21484375,-116.69921875,0.0,0,0
1766859744.2242649,1766859744.1369522,-746.58203125,-40.52734375,-138.18359375,-205.078125,0.0,0,0
1766859744.224307,1766859744.140849,-750.0,-19.53125,90.33203125,-63.4765625,0.0,0,0
1766859744.2243478,1766859744.144746,95.21484375,-2.9296875,179.19921875,118.1640625,0.0,0,0
1766859744.224386,1766859744.148643,851.5625,-13.18359375,-27.83203125,86.42578125,0.0,0,0
1766859744.224425,1766859744.1525397,402.83203125,-34.1796875,-210.44921875,-84.9609375,0.0,0,0
1766859744.224462,1766859744.1564367,-670.8984375,-60.546875,-185.546875,-208.984375,0.0,0,0
1766859744.224499,1766859744.1603336,-791.50390625,-46.875,60.546875,-77.1484375,0.0,0,0
1766859744.2245471,1766859744.1642303,23.4375,-24.90234375,213.37890625,128.90625,0.0,0,0
1766859744.2245839,1766859744.1681273,888.18359375,-30.2734375,20.01953125,133.7890625,0.0,0,0
1766859744.224633,1766859744.1720243,509.765625,-34.66796875,-197.75390625,-43.9453125,0.0,0,0
1766859744.22469,1766859744.1759212,-500.9765625,-34.66796875,-200.68359375,-187.01171875,0.0,0,0
1766859744.2538629,1766859744.17989,-861.328125,-28.3203125,19.53125,-104.98046875,0.0,0,0
1766859744.254045,1766859744.1837869,-171.38671875,-10.25390625,185.546875,91.30859375,0.0,0,0
1766859744.254105,1766859744.1876838,857.421875,1.46484375,64.453125,162.59765625,0.0,0,0
1766859744.254158,1766859744.1915808,593.75,-16.11328125,-150.87890625,-14.6484375,0.0,0,0
1766859744.254209,1766859744.1954775,-411.1328125,-37.59765625,-195.3125,-189.94140625,0.0,0,0
1766859744.2542589,1766859744.1993744,-909.1796875,-40.52734375,15.13671875,-119.62890625,0.0,0,0
1766859744.25431,1766859744.2032714,-297.8515625,-20.99609375,183.10546875,69.3359375,0.0,0,0
1766859744.254362,1766859744.2071683,768.06640625,-9.765625,76.171875,173.828125,0.0,0,0
1766859744.254411,1766859744.211065,634.27734375,-21.484375,-166.9921875,-1.46484375,0.0,0,0
1766859744.254462,1766859744.214962,-331.54296875,-39.55078125,-246.58203125,-211.42578125,0.0,0,0
1766859744.254512,1766859744.218859,-939.94140625,-31.73828125,-27.83203125,-158.69140625,0.0,0,0
1766859744.2545621,1766859744.222756,-369.140625,-8.30078125,169.921875,28.3203125,0.0,0,0
1766859744.31313,1766859744.226783,682.12890625,-9.765625,106.4453125,144.04296875,0.0,0,0
1766859744.313283,1766859744.23068,690.91796875,-22.94921875,-148.4375,-3.90625,0.0,0,0
1766859744.31332,1766859744.234577,-133.30078125,-36.1328125,-244.62890625,-193.359375,0.0,0,0
1766859744.313351,1766859744.238474,-901.85546875,-27.34375,-30.76171875,-171.38671875,0.0,0,0
1766859744.31338,1766859744.2423708,-488.76953125,-11.71875,156.25,11.23046875,0.0,0,0
1766859744.31341,1766859744.2462678,565.91796875,-18.06640625,142.08984375,147.94921875,0.0,0,0
1766859744.31344,1766859744.2501645,771.97265625,-28.80859375,-93.26171875,38.0859375,0.0,0,0
1766859744.313469,1766859744.2540615,-29.78515625,-40.52734375,-250.9765625,-149.90234375,0.0,0,0
1766859744.313498,1766859744.2579584,-947.75390625,-48.33984375,-93.26171875,-194.82421875,0.0,0,0
1766859744.313529,1766859744.2618554,-558.59375,-39.0625,125.48828125,-14.6484375,0.0,0,0
1766859744.313558,1766859744.2657523,451.171875,-12.6953125,155.76171875,154.78515625,0.0,0,0
1766859744.313587,1766859744.2696493,805.17578125,-5.859375,-66.89453125,62.5,0.0,0,0
1766859744.3435452,1766859744.2736673,157.71484375,-30.76171875,-220.703125,-125.48828125,0.0,0,0
1766859744.343669,1766859744.2775643,-857.91015625,-40.0390625,-104.4921875,-190.4296875,0.0,0,0
1766859744.3437078,1766859744.2814612,-645.5078125,-23.4375,113.28125,-13.18359375,0.0,0,0
1766859744.343735,1766859744.2853582,295.41015625,-12.6953125,166.50390625,129.39453125,0.0,0,0
1766859744.3437598,1766859744.2892551,775.87890625,-24.90234375,-68.359375,35.64453125,0.0,0,0
1766859744.3437839,1766859744.293152,228.515625,-36.62109375,-225.09765625,-126.953125,0.0,0,0
1766859744.343808,1766859744.297049,-811.03515625,-44.921875,-145.01953125,-212.890625,0.0,0,0
1766859744.343832,1766859744.300946,-741.2109375,-31.73828125,77.1484375,-64.94140625,0.0,0,0
1766859744.343856,1766859744.304843,168.45703125,-20.99609375,176.26953125,116.2109375,0.0,0,0
1766859744.343881,1766859744.30874,854.00390625,-33.203125,-26.85546875,83.984375,0.0,0,0
1766859744.343905,1766859744.3126366,387.20703125,-34.66796875,-206.54296875,-95.703125,0.0,0,0
1766859744.343929,1766859744.3165336,-666.50390625,-32.2265625,-172.8515625,-222.65625,0.0,0,0
1766859744.3896399,1766859744.3205416,-797.8515625,-26.85546875,44.43359375,-84.47265625,0.0,0,0
1766859744.38978,1766859744.3244386,19.04296875,-18.5546875,181.15234375,116.2109375,0.0,0,0
1766859744.389822,1766859744.3283355,868.1640625,-16.6015625,-5.859375,100.09765625,0.0,0,0
1766859744.3898602,1766859744.3322325,446.2890625,-24.4140625,-222.16796875,-62.98828125,0.0,0,0
1766859744.3898969,1766859744.3361294,-600.09765625,-43.45703125,-212.40234375,-198.73046875,0.0,0,0
1766859744.389935,1766859744.3400264,-806.15234375,-31.73828125,31.73828125,-99.609375,0.0,0,0
1766859744.389972,1766859744.3439233,-63.96484375,-4.39453125,191.89453125,92.7734375,0.0,0,0
1766859744.3900092,1766859744.3478203,859.86328125,-9.27734375,30.2734375,136.23046875,0.0,0,0
1766859744.390045,1766859744.3517172,521.97265625,-21.97265625,-197.265625,-41.9921875,0.0,0,0
1766859744.3900878,1766859744.3556142,-479.00390625,-45.41015625,-223.6328125,-214.84375,0.0,0,0
1766859744.390124,1766859744.3595111,-859.375,-45.41015625,5.859375,-113.76953125,0.0,0,0
1766859744.3901598,1766859744.363408,-219.23828125,-8.30078125,187.01171875,104.4921875,0.0,0,0
1766859744.435424,1766859744.3674085,770.01953125,-4.8828125,74.70703125,149.90234375,0.0,0,0
1766859744.435532,1766859744.3713055,659.66796875,-22.4609375,-145.5078125,5.859375,0.0,0,0
1766859744.435573,1766859744.3752024,-237.79296875,-27.34375,-195.80078125,-142.08984375,0.0,0,0
1766859744.435612,1766859744.3790994,-901.85546875,-35.64453125,-17.08984375,-127.9296875,0.0,0,0
1766859744.43565,1766859744.3829963,-359.86328125,-23.92578125,154.296875,70.3125,0.0,0,0
1766859744.4356868,1766859744.3868933,735.3515625,-7.32421875,110.3515625,200.68359375,0.0,0,0
1766859744.4357278,1766859744.3907902,703.125,-32.2265625,-131.34765625,43.45703125,0.0,0,0
1766859744.437109,1766859744.3946872,-186.03515625,-13.18359375,-239.2578125,-147.94921875,0.0,0,0
1766859744.437172,1766859744.3985841,-920.8984375,24.90234375,-36.1328125,-127.9296875,0.0,0,0
1766859744.437224,1766859744.402481,-437.01171875,-12.20703125,167.48046875,53.7109375,0.0,0,0
1766859744.4372768,1766859744.406378,598.14453125,-16.6015625,147.94921875,185.546875,0.0,0,0
1766859744.4373271,1766859744.4102752,741.2109375,-16.6015625,-94.7265625,50.29296875,0.0,0,0
1766859744.5093389,1766859744.4144132,-74.21875,-45.41015625,-246.58203125,-143.06640625,0.0,0,0
1766859744.509501,1766859744.4183102,-977.5390625,-64.453125,-86.9140625,-182.6171875,0.0,0,0
1766859744.509535,1766859744.422207,-497.0703125,-44.43359375,144.04296875,20.5078125,0.0,0,0
1766859744.509569,1766859744.426104,537.109375,-13.18359375,167.96875,186.5234375,0.0,0,0
1766859744.509633,1766859744.430001,711.42578125,-30.76171875,-94.7265625,62.01171875,0.0,0,0
1766859744.509686,1766859744.4338982,-3.41796875,-46.875,-250.48828125,-124.51171875,0.0,0,0
1766859744.50972,1766859744.4377952,-891.11328125,-48.33984375,-88.8671875,-158.203125,0.0,0,0
1766859744.509752,1766859744.441692,-529.78515625,-28.80859375,135.7421875,4.8828125,0.0,0,0
1766859744.509781,1766859744.445589,451.66015625,-9.27734375,176.26953125,167.96875,0.0,0,0
1766859744.509811,1766859744.449486,740.72265625,-24.90234375,-72.75390625,72.75390625,0.0,0,0
1766859744.509841,1766859744.453383,103.515625,-25.390625,-255.859375,-148.92578125,0.0,0,0
1766859744.5098848,1766859744.4572802,-840.33203125,-36.62109375,-151.85546875,-216.796875,0.0,0,0
1766859744.524364,1766859744.4612653,-639.16015625,-45.8984375,98.14453125,-10.7421875,0.0,0,0
1766859744.5244942,1766859744.4651623,326.66015625,-23.92578125,197.265625,183.59375,0.0,0,0
1766859744.5245361,1766859744.4690592,797.8515625,-15.13671875,-49.8046875,86.9140625,0.0,0,0
1766859744.524587,1766859744.4729562,197.75390625,-27.34375,-254.39453125,-99.609375,0.0,0,0
1766859744.5246248,1766859744.4768534,-758.30078125,-34.1796875,-167.48046875,-205.078125,0.0,0,0
1766859744.524663,1766859744.4807503,-646.97265625,-32.2265625,107.421875,-41.9921875,0.0,0,0
1766859744.5247,1766859744.4846473,225.09765625,-25.390625,224.12109375,156.73828125,0.0,0,0
1766859744.5247371,1766859744.4885442,815.4296875,-15.13671875,-20.99609375,95.21484375,0.0,0,0
1766859744.524786,1766859744.4924412,281.25,-23.92578125,-243.1640625,-115.234375,0.0,0,0
1766859744.524823,1766859744.4963384,-708.984375,-42.48046875,-208.49609375,-232.421875,0.0,0,0
1766859744.524876,1766859744.5002353,-737.3046875,-35.64453125,47.8515625,-73.73046875,0.0,0,0
1766859744.5249128,1766859744.5041323,124.51171875,-15.625,210.44921875,140.13671875,0.0,0,0
1766859744.5693371,1766859744.5081048,834.9609375,-13.671875,15.13671875,121.09375,0.0,0,0
1766859744.5694752,1766859744.5120018,320.3125,-44.921875,-222.16796875,-105.46875,0.0,0,0
1766859744.569516,1766859744.5158987,-600.5859375,-44.43359375,-219.23828125,-222.65625,0.0,0,0
1766859744.569555,1766859744.5197957,-721.19140625,-15.13671875,43.9453125,-62.98828125,0.0,0,0
1766859744.5695932,1766859744.5236928,18.5546875,-12.20703125,221.19140625,138.18359375,0.0,0,0
1766859744.56963,1766859744.5275898,811.03515625,-8.7890625,54.19921875,142.578125,0.0,0,0
1766859744.5697238,1766859744.5314867,369.62890625,-33.69140625,-214.35546875,-123.046875,0.0,0,0
1766859744.569771,1766859744.5353837,-546.38671875,-65.91796875,-248.53515625,-278.3203125,0.0,0,0
1766859744.569806,1766859744.539281,-760.25390625,-56.640625,17.578125,-80.078125,0.0,0,0
1766859744.569848,1766859744.5431778,-71.77734375,-35.15625,211.9140625,134.765625,0.0,0,0
1766859744.569877,1766859744.5470748,766.6015625,-19.53125,105.46875,166.015625,0.0,0,0
1766859744.569906,1766859744.550972,462.890625,-25.87890625,-177.734375,-52.734375,0.0,0,0
1766859744.6288471,1766859744.5550058,-446.2890625,-41.015625,-256.8359375,-216.30859375,0.0,0,0
1766859744.628962,1766859744.5589027,-871.58203125,-40.0390625,-10.25390625,-132.32421875,0.0,0,0
1766859744.629005,1766859744.5628,-191.89453125,-27.83203125,185.05859375,82.03125,0.0,0,0
1766859744.629045,1766859744.566697,726.07421875,-20.01953125,129.39453125,184.5703125,0.0,0,0
1766859744.629083,1766859744.5705938,508.30078125,-28.80859375,-170.41015625,-30.76171875,0.0,0,0
1766859744.629121,1766859744.574491,-333.0078125,-44.43359375,-287.59765625,-218.26171875,0.0,0,0
1766859744.6291578,1766859744.578388,-876.953125,-43.9453125,-40.52734375,-176.26953125,0.0,0,0
