timestamp,lsl_timestamp,TP9,AF7,AF8,TP10,Right AUX,keypress_A,keypress_B
1766859279.9565482,1766859279.8725526,-917.48046875,-28.80859375,-167.48046875,-282.2265625,0.0,0,0
1766859279.956778,1766859279.876448,174.31640625,-33.203125,174.8046875,258.7890625,0.0,0,0
1766859279.956815,1766859279.880343,-950.1953125,-33.69140625,254.8828125,465.33203125,0.0,0,0
1766859279.95684,1766859279.8842382,327.1484375,-10.7421875,-96.6796875,-58.10546875,0.0,0,0
1766859279.956864,1766859279.8881335,-823.73046875,-25.390625,-309.08203125,-471.19140625,0.0,0,0
1766859279.9568892,1766859279.8920286,-983.3984375,-32.71484375,-172.8515625,-330.078125,0.0,0,0
1766859279.956913,1766859279.8959239,74.70703125,-11.71875,140.13671875,206.54296875,0.0,0,0
1766859279.956937,1766859279.8998191,-954.58984375,8.7890625,251.46484375,484.86328125,0.0,0,0
1766859279.956962,1766859279.9037142,548.33984375,-2.44140625,-46.38671875,33.69140625,0.0,0,0
1766859279.9569862,1766859279.9076095,-634.765625,-33.69140625,-296.875,-444.3359375,0.0,0,0
1766859279.95701,1766859279.9115047,-1000.0,-42.48046875,-227.5390625,-405.76171875,0.0,0,0
1766859279.9570339,1766859279.9153998,-98.14453125,-20.5078125,109.86328125,142.578125,0.0,0,0
1766859280.001825,1766859279.9194279,-973.6328125,-10.25390625,278.80859375,465.33203125,0.0,0,0
1766859280.0018828,1766859279.9233232,714.35546875,-17.578125,3.90625,90.33203125,0.0,0,0
1766859280.001904,1766859279.9272184,-479.98046875,-32.71484375,-291.50390625,-407.2265625,0.0,0,0
1766859280.001921,1766859279.9311135,-1000.0,-36.1328125,-250.48828125,-442.87109375,0.0,0,0
1766859280.001939,1766859279.9350088,-123.046875,-10.25390625,118.1640625,121.58203125,0.0,0,0
1766859280.0019572,1766859279.938904,952.1484375,4.8828125,299.8046875,471.6796875,0.0,0,0
1766859280.001974,1766859279.9427993,778.3203125,-6.8359375,52.734375,159.1796875,0.0,0,0
1766859280.0019898,1766859279.9466944,-315.91796875,-28.3203125,-268.5546875,-367.1875,0.0,0,0
1766859280.002007,1766859279.9505897,-1000.0,-56.15234375,-294.43359375,-494.140625,0.0,0,0
1766859280.002023,1766859279.954485,-320.3125,-49.31640625,64.453125,50.29296875,0.0,0,0
1766859280.002039,1766859279.9583802,858.3984375,-19.04296875,264.6484375,433.10546875,0.0,0,0
1766859280.002056,1766859279.9622753,927.734375,-24.4140625,97.65625,237.79296875,0.0,0,0
1766859280.033634,1766859279.9662938,-146.97265625,-36.62109375,-217.7734375,-286.62109375,0.0,0,0
1766859280.033725,1766859279.970189,-1000.0,-40.0390625,-302.734375,-506.8359375,0.0,0,0
1766859280.0337532,1766859279.9740844,-494.62890625,-28.3203125,34.66796875,-18.5546875,0.0,0,0
1766859280.0337799,1766859279.9779797,717.7734375,-9.765625,264.16015625,406.25,0.0,0,0
1766859280.0338051,1766859279.9818747,975.09765625,-6.8359375,144.53125,302.734375,0.0,0,0
1766859280.0338318,1766859279.98577,-75.68359375,-19.04296875,-191.40625,-227.05078125,0.0,0,0
1766859280.033856,1766859279.9896653,-1000.0,-31.25,-333.49609375,-500.9765625,0.0,0,0
1766859280.033879,1766859279.9935606,-639.16015625,-30.76171875,-32.2265625,-81.0546875,0.0,0,0
1766859280.033916,1766859279.9974558,570.3125,-23.4375,254.8828125,380.37109375,0.0,0,0
1766859280.033946,1766859280.001351,-967.7734375,-20.01953125,195.80078125,344.7265625,0.0,0,0
1766859280.0339699,1766859280.0052462,-5.859375,-40.52734375,-161.1328125,-212.890625,0.0,0,0
1766859280.0339992,1766859280.0091414,-1000.0,-55.6640625,-321.77734375,-533.69140625,0.0,0,0
1766859280.077607,1766859280.0131493,-776.85546875,-43.9453125,-51.7578125,-185.05859375,0.0,0,0
1766859280.077719,1766859280.0170445,337.890625,-28.3203125,227.05078125,314.94140625,0.0,0,0
1766859280.07775,1766859280.0209398,-922.8515625,-17.578125,221.19140625,403.80859375,0.0,0,0
1766859280.077777,1766859280.0248349,137.20703125,-29.296875,-129.39453125,-138.671875,0.0,0,0
1766859280.0778182,1766859280.0287302,-998.53515625,-41.50390625,-324.70703125,-503.90625,0.0,0,0
1766859280.077846,1766859280.0326254,-907.71484375,-41.015625,-110.83984375,-242.1875,0.0,0,0
1766859280.0778902,1766859280.0365207,218.75,-21.484375,202.63671875,283.69140625,0.0,0,0
1766859280.077913,1766859280.040416,-968.26171875,-18.06640625,235.83984375,432.12890625,0.0,0,0
1766859280.077937,1766859280.0443113,233.3984375,-36.62109375,-117.67578125,-109.86328125,0.0,0,0
1766859280.07796,1766859280.0482066,-870.60546875,-43.45703125,-310.05859375,-488.28125,0.0,0,0
1766859280.077984,1766859280.0521019,-978.02734375,-46.38671875,-160.15625,-307.12890625,0.0,0,0
1766859280.078007,1766859280.0559971,100.09765625,-28.3203125,159.66796875,231.4453125,0.0,0,0
1766859280.122891,1766859280.059993,-916.9921875,-12.20703125,269.53125,473.6328125,0.0,0,0
1766859280.122977,1766859280.0638883,442.87109375,-23.4375,-61.03515625,-25.87890625,0.0,0,0
1766859280.123005,1766859280.0677836,-766.6015625,-45.8984375,-313.4765625,-482.421875,0.0,0,0
1766859280.1230311,1766859280.0716789,-1000.0,-45.41015625,-204.58984375,-377.9296875,0.0,0,0
1766859280.123091,1766859280.0755742,-23.4375,-20.01953125,124.51171875,160.15625,0.0,0,0
1766859280.123119,1766859280.0794694,-951.66015625,-4.8828125,280.76171875,459.47265625,0.0,0,0
1766859280.123143,1766859280.0833647,627.9296875,-18.06640625,-0.9765625,54.6875,0.0,0,0
1766859280.123167,1766859280.08726,-586.42578125,-47.36328125,-304.19921875,-437.01171875,0.0,0,0
1766859280.12319,1766859280.0911553,-1000.0,-54.19921875,-252.44140625,-426.7578125,0.0,0,0
1766859280.123213,1766859280.0950506,-81.0546875,-31.25,107.421875,125.48828125,0.0,0,0
1766859280.1232362,1766859280.0989459,994.140625,-11.23046875,279.296875,460.44921875,0.0,0,0
1766859280.12326,1766859280.1028411,739.2578125,-14.6484375,27.34375,134.765625,0.0,0,0
1766859280.16889,1766859280.1068332,-389.6484375,-33.69140625,-271.484375,-377.9296875,0.0,0,0
1766859280.1690419,1766859280.1107285,-1000.0,-45.41015625,-269.53125,-478.515625,0.0,0,0
1766859280.169085,1766859280.1146238,-243.65234375,-34.1796875,92.7734375,67.3828125,0.0,0,0
1766859280.1691241,1766859280.118519,919.43359375,-19.53125,286.62109375,441.40625,0.0,0,0
1766859280.169162,1766859280.1224144,907.2265625,-22.4609375,81.0546875,210.9375,0.0,0,0
1766859280.1692002,1766859280.1263096,-198.2421875,-29.296875,-240.234375,-324.70703125,0.0,0,0
1766859280.16925,1766859280.130205,-1000.0,-35.15625,-298.33984375,-509.27734375,0.0,0,0
1766859280.169299,1766859280.1341002,-364.2578125,-40.0390625,45.8984375,25.87890625,0.0,0,0
1766859280.16941,1766859280.1379955,806.640625,-21.97265625,264.16015625,421.38671875,0.0,0,0
1766859280.1694562,1766859280.1418908,979.98046875,-13.671875,121.58203125,280.2734375,0.0,0,0
1766859280.169495,1766859280.145786,-106.93359375,-39.0625,-229.4921875,-264.16015625,0.0,0,0
1766859280.169533,1766859280.1496813,-1000.0,-51.7578125,-328.61328125,-535.64453125,0.0,0,0
1766859280.212737,1766859280.1536567,-523.4375,-42.48046875,5.859375,-59.5703125,0.0,0,0
1766859280.21283,1766859280.157552,641.11328125,-14.16015625,246.09375,390.13671875,0.0,0,0
1766859280.212862,1766859280.1614473,-998.53515625,-6.34765625,154.296875,324.21875,0.0,0,0
1766859280.2128918,1766859280.1653428,-46.875,-35.64453125,-189.94140625,-229.4921875,0.0,0,0
1766859280.212924,1766859280.169238,-1000.0,-41.015625,-324.21875,-527.34375,0.0,0,0
1766859280.2129521,1766859280.1731334,-650.390625,-22.4609375,-22.94921875,-132.8125,0.0,0,0
1766859280.21298,1766859280.1770287,471.19140625,-31.73828125,231.93359375,339.35546875,0.0,0,0
1766859280.2130089,1766859280.180924,-934.5703125,-30.2734375,176.26953125,375.48828125,0.0,0,0
1766859280.213037,1766859280.1848192,65.4296875,-23.92578125,-179.19921875,-167.96875,0.0,0,0
1766859280.213066,1766859280.1887145,-1000.0,-46.38671875,-358.88671875,-523.92578125,0.0,0,0
1766859280.213093,1766859280.1926098,-808.10546875,-45.8984375,-110.3515625,-209.47265625,0.0,0,0
1766859280.2131221,1766859280.196505,291.9921875,-17.08984375,210.44921875,317.3828125,0.0,0,0
1766859280.275496,1766859280.2005713,-955.56640625,-4.39453125,233.3984375,406.25,0.0,0,0
1766859280.275635,1766859280.2044666,192.3828125,-26.3671875,-131.8359375,-149.4140625,0.0,0,0
1766859280.2762082,1766859280.2083619,-901.3671875,-44.43359375,-320.3125,-488.76953125,0.0,0,0
1766859280.2762408,1766859280.2122574,-964.35546875,-52.734375,-144.04296875,-273.92578125,0.0,0,0
1766859280.276273,1766859280.2161527,118.65234375,-25.390625,160.15625,234.86328125,0.0,0,0
1766859280.2763038,1766859280.220048,-922.8515625,-7.8125,251.953125,443.84765625,0.0,0,0
1766859280.2763321,1766859280.2239432,346.19140625,-35.15625,-97.16796875,-69.3359375,0.0,0,0
1766859280.276361,1766859280.2278388,-840.33203125,-56.640625,-343.26171875,-491.2109375,0.0,0,0
1766859280.2763891,1766859280.231734,-1000.0,-62.5,-202.1484375,-350.09765625,0.0,0,0
1766859280.276434,1766859280.2356293,43.45703125,-39.0625,143.06640625,205.078125,0.0,0,0
1766859280.276462,1766859280.2395246,-944.3359375,-5.859375,271.97265625,482.91015625,0.0,0,0
1766859280.27649,1766859280.24342,522.94921875,-17.08984375,-43.9453125,17.08984375,0.0,0,0
1766859280.319283,1766859280.2474623,-672.36328125,-41.9921875,-297.36328125,-429.19921875,0.0,0,0
1766859280.319416,1766859280.2513576,-1000.0,-37.59765625,-210.44921875,-374.0234375,0.0,0,0
1766859280.319457,1766859280.255253,-40.52734375,-16.6015625,132.8125,145.5078125,0.0,0,0
1766859280.319495,1766859280.2591484,988.28125,-10.25390625,270.01953125,459.9609375,0.0,0,0
1766859280.319533,1766859280.2630436,628.41796875,-23.92578125,-20.99609375,93.75,0.0,0,0
1766859280.3195689,1766859280.266939,-495.1171875,-39.55078125,-288.0859375,-391.6015625,0.0,0,0
1766859280.319606,1766859280.2708344,-1000.0,-44.43359375,-250.0,-432.12890625,0.0,0,0
1766859280.319648,1766859280.2747297,-129.8828125,-26.85546875,86.42578125,91.30859375,0.0,0,0
1766859280.319684,1766859280.278625,919.43359375,-19.04296875,250.0,431.640625,0.0,0,0
1766859280.319747,1766859280.2825205,777.34375,-32.2265625,35.15625,164.55078125,0.0,0,0
1766859280.319792,1766859280.2864158,-268.5546875,-50.78125,-249.51171875,-328.61328125,0.0,0,0
1766859280.319829,1766859280.290311,-1000.0,-63.4765625,-282.71484375,-476.5625,0.0,0,0
1766859280.3628328,1766859280.294341,-300.78125,-26.85546875,70.80078125,38.57421875,0.0,0,0
1766859280.362953,1766859280.2982364,842.28515625,3.90625,278.3203125,426.7578125,0.0,0,0
1766859280.362986,1766859280.302132,927.734375,-6.8359375,107.421875,257.32421875,0.0,0,0
1766859280.3630168,1766859280.3060272,-148.92578125,-32.2265625,-215.33203125,-266.6015625,0.0,0,0
1766859280.363071,1766859280.3099227,-1000.0,-54.19921875,-296.875,-487.3046875,0.0,0,0
1766859280.363133,1766859280.313818,-430.6640625,-29.296875,33.203125,-6.8359375,0.0,0,0
1766859280.3631659,1766859280.3177133,729.00390625,10.25390625,250.48828125,387.6953125,0.0,0,0
1766859280.363198,1766859280.3216088,-997.55859375,9.765625,129.39453125,282.71484375,0.0,0,0
1766859280.3632278,1766859280.325504,-81.0546875,-37.59765625,-227.5390625,-249.0234375,0.0,0,0
1766859280.363252,1766859280.3293996,-1000.0,-55.6640625,-342.28515625,-507.8125,0.0,0,0
1766859280.363275,1766859280.3332949,-532.2265625,-26.85546875,-12.20703125,-63.96484375,0.0,0,0
1766859280.3633,1766859280.3371902,565.91796875,-4.8828125,240.72265625,386.23046875,0.0,0,0
1766859280.408177,1766859280.3412097,-941.40625,0.0,168.9453125,373.53515625,0.0,0,0
1766859280.408312,1766859280.345105,83.49609375,-23.4375,-174.8046875,-141.11328125,0.0,0,0
1766859280.408354,1766859280.3490005,-1000.0,-39.0625,-334.47265625,-470.21484375,0.0,0,0
1766859280.408394,1766859280.3528957,-715.8203125,-32.71484375,-74.21875,-134.27734375,0.0,0,0
1766859280.408433,1766859280.3567913,399.4140625,-12.6953125,216.30859375,374.0234375,0.0,0,0
1766859280.408472,1766859280.3606865,-890.13671875,0.9765625,219.7265625,436.03515625,0.0,0,0
1766859280.408511,1766859280.364582,181.640625,-17.08984375,-152.34375,-122.0703125,0.0,0,0
1766859280.408549,1766859280.3684773,-977.5390625,-44.921875,-350.09765625,-489.2578125,0.0,0,0
1766859280.408586,1766859280.3723726,-862.3046875,-71.2890625,-123.046875,-242.67578125,0.0,0,0
1766859280.4086242,1766859280.3762681,226.5625,-44.43359375,179.19921875,268.06640625,0.0,0,0
1766859280.408662,1766859280.3801634,-931.640625,-13.671875,221.6796875,430.6640625,0.0,0,0
1766859280.408698,1766859280.384059,294.921875,-40.52734375,-124.0234375,-96.19140625,0.0,0,0
1766859280.469582,1766859280.3881598,-868.65234375,-51.7578125,-326.66015625,-480.46875,0.0,0,0
1766859280.469734,1766859280.3920553,-993.65234375,-39.0625,-175.78125,-307.6171875,0.0,0,0
1766859280.4697769,1766859280.3959506,87.890625,-11.71875,157.71484375,219.7265625,0.0,0,0
1766859280.4698172,1766859280.399846,-911.1328125,1.953125,271.97265625,470.21484375,0.0,0,0
1766859280.469855,1766859280.4037416,489.74609375,-14.16015625,-74.70703125,-20.01953125,0.0,0,0
1766859280.4698932,1766859280.407637,-718.26171875,-29.78515625,-312.5,-450.68359375,0.0,0,0
1766859280.469929,1766859280.4115324,-1000.0,-25.390625,-200.1953125,-356.93359375,0.0,0,0
1766859280.4699671,1766859280.415428,8.30078125,-41.015625,132.8125,167.48046875,0.0,0,0
1766859280.470015,1766859280.4193232,-958.984375,-60.05859375,274.90234375,479.98046875,0.0,0,0
1766859280.470062,1766859280.4232187,633.7890625,-30.76171875,-31.25,73.73046875,0.0,0,0
1766859280.4701068,1766859280.427114,-551.7578125,-41.015625,-303.22265625,-399.90234375,0.0,0,0
1766859280.470164,1766859280.4310095,-1000.0,-47.36328125,-231.93359375,-374.0234375,0.0,0,0
1766859280.499681,1766859280.435014,-127.44140625,-22.4609375,105.46875,132.8125,0.0,0,0
1766859280.4998221,1766859280.4389095,965.33203125,-2.9296875,281.73828125,451.171875,0.0,0,0
1766859280.499864,1766859280.4428048,725.5859375,-6.34765625,30.76171875,129.8828125,0.0,0,0
1766859280.499902,1766859280.4467003,-406.25,-25.390625,-273.4375,-384.765625,0.0,0,0
1766859280.499939,1766859280.4505959,-1000.0,-45.41015625,-268.5546875,-475.5859375,0.0,0,0
1766859280.499976,1766859280.4544911,-240.234375,-25.87890625,82.51953125,62.01171875,0.0,0,0
1766859280.500013,1766859280.4583867,901.85546875,-6.8359375,262.6953125,422.36328125,0.0,0,0
1766859280.500052,1766859280.4622822,851.07421875,-9.765625,64.453125,195.80078125,0.0,0,0
1766859280.5000892,1766859280.4661775,-213.37890625,-25.87890625,-246.58203125,-321.2890625,0.0,0,0
1766859280.5001369,1766859280.470073,-1000.0,-44.43359375,-303.22265625,-505.859375,0.0,0,0
1766859280.500198,1766859280.4739685,-359.86328125,-34.66796875,47.36328125,16.11328125,0.0,0,0
1766859280.500235,1766859280.477864,799.8046875,-58.59375,253.41796875,408.69140625,0.0,0,0
1766859280.54319,1766859280.4818509,951.171875,-54.19921875,110.83984375,268.5546875,0.0,0,0
1766859280.5433338,1766859280.4857464,-105.46875,-32.2265625,-208.0078125,-246.09375,0.0,0,0
1766859280.543377,1766859280.489642,-1000.0,-51.26953125,-318.359375,-502.44140625,0.0,0,0
1766859280.543415,1766859280.4935372,-528.80859375,-44.921875,-3.90625,-54.6875,0.0,0,0
1766859280.543458,1766859280.4974327,633.7890625,-20.01953125,239.2578125,370.60546875,0.0,0,0
1766859280.5435379,1766859280.5013282,-972.16796875,2.44140625,156.25,325.1953125,0.0,0,0
1766859280.543595,1766859280.5052238,-15.13671875,-57.6171875,-187.5,-216.30859375,0.0,0,0
1766859280.543638,1766859280.509119,-1000.0,-127.44140625,-343.75,-531.73828125,0.0,0,0
1766859280.543675,1766859280.5130146,-663.57421875,-50.78125,-50.78125,-130.859375,0.0,0,0
1766859280.543711,1766859280.51691,473.14453125,-6.34765625,238.28125,352.5390625,0.0,0,0
1766859280.5437481,1766859280.5208056,-923.828125,-6.8359375,203.61328125,383.7890625,0.0,0,0
1766859280.543784,1766859280.5247009,87.40234375,-16.11328125,-158.69140625,-164.0625,0.0,0,0
1766859280.5893261,1766859280.5286777,-991.69921875,-39.0625,-333.49609375,-501.46484375,0.0,0,0
1766859280.589507,1766859280.5325732,-799.31640625,-33.203125,-91.30859375,-193.84765625,0.0,0,0
1766859280.589566,1766859280.5364687,287.59765625,-8.7890625,197.75390625,291.015625,0.0,0,0
1766859280.589613,1766859280.540364,-959.47265625,-6.8359375,211.42578125,395.99609375,0.0,0,0
1766859280.58965,1766859280.5442595,177.24609375,-31.25,-146.97265625,-135.25390625,0.0,0,0
1766859280.589687,1766859280.548155,-924.31640625,-22.4609375,-329.58984375,-493.1640625,0.0,0,0
1766859280.59023,1766859280.5520506,-953.125,-83.0078125,-139.6484375,-284.66796875,0.0,0,0
1766859280.59027,1766859280.555946,138.671875,-92.28515625,170.8984375,226.5625,0.0,0,0
1766859280.590307,1766859280.5598416,-952.1484375,-1.953125,236.328125,433.59375,0.0,0,0
1766859280.590357,1766859280.563737,333.984375,-7.32421875,-120.1171875,-82.03125,0.0,0,0
1766859280.590392,1766859280.5676324,-813.96484375,-35.64453125,-333.984375,-489.74609375,0.0,0,0
1766859280.5904279,1766859280.571528,-1000.0,-34.66796875,-187.01171875,-343.26171875,0.0,0,0
1766859280.648306,1766859280.5754955,37.109375,-15.625,149.4140625,180.6640625,0.0,0,0
1766859280.6484768,1766859280.579391,-969.23828125,-7.8125,273.4375,447.265625,0.0,0,0
1766859280.648536,1766859280.5832865,507.8125,-29.296875,-56.640625,0.48828125,0.0,0,0
1766859280.648591,1766859280.587182,-649.90234375,-51.7578125,-314.94140625,-448.2421875,0.0,0,0
1766859280.6486442,1766859280.5910776,-1000.0,-44.43359375,-236.81640625,-402.34375,0.0,0,0
1766859280.648708,1766859280.594973,-90.33203125,-40.52734375,110.3515625,134.27734375,0.0,0,0
1766859280.648767,1766859280.5988686,-993.65234375,-54.19921875,276.3671875,453.125,0.0,0,0
1766859280.6488261,1766859280.602764,650.87890625,-30.2734375,-13.671875,71.77734375,0.0,0,0
1766859280.6488829,1766859280.6066594,-483.3984375,-33.203125,-296.875,-421.38671875,0.0,0,0
1766859280.648968,1766859280.610555,-1000.0,-54.6875,-266.6015625,-447.75390625,0.0,0,0
1766859280.649024,1766859280.6144505,-162.109375,-36.1328125,95.703125,93.26171875,0.0,0,0
1766859280.649109,1766859280.618346,939.94140625,-9.765625,287.59765625,441.40625,0.0,0,0
1766859280.693026,1766859280.6223848,786.62109375,-19.53125,58.10546875,172.36328125,0.0,0,0
1766859280.693119,1766859280.6262803,-293.45703125,-35.64453125,-248.046875,-338.37890625,0.0,0,0
1766859280.6931589,1766859280.6301756,-1000.0,-34.66796875,-277.34375,-474.12109375,0.0,0,0
1766859280.693197,1766859280.634071,-292.48046875,-18.06640625,75.1953125,45.41015625,0.0,0,0
1766859280.693234,1766859280.6379666,855.95703125,-8.30078125,270.99609375,424.31640625,0.0,0,0
1766859280.693273,1766859280.6418622,942.87109375,-17.578125,109.375,250.9765625,0.0,0,0
1766859280.6933088,1766859280.6457577,-132.8125,-34.1796875,-219.23828125,-262.6953125,0.0,0,0
1766859280.6933482,1766859280.6496532,-1000.0,-44.921875,-319.82421875,-492.1875,0.0,0,0
1766859280.693384,1766859280.6535487,-451.66015625,-32.2265625,29.296875,-21.97265625,0.0,0,0
1766859280.693443,1766859280.6574442,743.65234375,-28.80859375,258.7890625,390.625,0.0,0,0
1766859280.6934779,1766859280.6613398,982.91015625,-15.625,134.27734375,283.69140625,0.0,0,0
1766859280.693515,1766859280.6652353,-79.1015625,-14.6484375,-206.0546875,-248.046875,0.0,0,0
1766859280.76937,1766859280.6694324,-1000.0,-42.96875,-339.84375,-517.578125,0.0,0,0
1766859280.7695081,1766859280.6733282,-588.37890625,-41.015625,-21.97265625,-89.35546875,0.0,0,0
1766859280.769551,1766859280.6772237,560.546875,-21.97265625,250.0,371.09375,0.0,0,0
1766859280.769589,1766859280.6811192,-949.21875,-9.765625,181.15234375,358.88671875,0.0,0,0
1766859280.7696269,1766859280.6850147,26.85546875,-28.3203125,-172.8515625,-174.8046875,0.0,0,0
1766859280.769665,1766859280.6889102,-1000.0,-41.50390625,-329.1015625,-493.1640625,0.0,0,0
1766859280.769702,1766859280.6928058,-739.2578125,-25.87890625,-64.94140625,-159.66796875,0.0,0,0
1766859280.769739,1766859280.6967015,375.0,7.8125,212.40234375,322.265625,0.0,0,0
1766859280.7697752,1766859280.700597,-937.01171875,-28.3203125,201.171875,393.5546875,0.0,0,0
1766859280.7698119,1766859280.7044926,136.23046875,-88.37890625,-138.18359375,-145.01953125,0.0,0,0
1766859280.769849,1766859280.708388,-970.21484375,-46.38671875,-317.87109375,-501.46484375,0.0,0,0
1766859280.769887,1766859280.7122836,-887.20703125,-20.01953125,-123.046875,-249.0234375,0.0,0,0
1766859280.783446,1766859280.716307,206.54296875,-14.16015625,172.8515625,257.8125,0.0,0,0
1766859280.783542,1766859280.7202024,-937.01171875,-3.90625,227.5390625,416.9921875,0.0,0,0
1766859280.783575,1766859280.7240982,276.85546875,-4.39453125,-118.1640625,-108.3984375,0.0,0,0
1766859280.783606,1766859280.7279937,-873.046875,-23.4375,-333.984375,-492.67578125,0.0,0,0
1766859280.7836359,1766859280.7318892,-990.234375,-33.69140625,-177.734375,-312.98828125,0.0,0,0
1766859280.783666,1766859280.7357848,92.7734375,-12.6953125,168.45703125,217.28515625,0.0,0,0
1766859280.783694,1766859280.7396805,-975.5859375,0.48828125,265.13671875,451.66015625,0.0,0,0
1766859280.783724,1766859280.743576,402.83203125,-14.6484375,-86.9140625,-21.484375,0.0,0,0
1766859280.783752,1766859280.7474716,-725.09765625,-38.57421875,-325.1953125,-450.1953125,0.0,0,0
1766859280.783781,1766859280.751367,-1000.0,-52.734375,-220.21484375,-380.37109375,0.0,0,0
1766859280.783809,1766859280.7552629,-27.83203125,-32.71484375,134.27734375,155.76171875,0.0,0,0
1766859280.783839,1766859280.7591584,-981.93359375,-11.23046875,290.52734375,467.28515625,0.0,0,0
1766859280.828011,1766859280.7631638,594.23828125,-19.04296875,-17.578125,64.94140625,0.0,0,0
1766859280.828129,1766859280.7670593,-548.33984375,-36.62109375,-288.0859375,-408.203125,0.0,0,0
1766859280.828162,1766859280.7709548,-1000.0,-31.25,-228.515625,-405.76171875,0.0,0,0
1766859280.828192,1766859280.7748506,-112.3046875,-20.5078125,111.328125,118.1640625,0.0,0,0
1766859280.8282208,1766859280.7787461,962.40234375,-36.1328125,277.34375,449.21875,0.0,0,0
1766859280.828251,1766859280.7826416,728.515625,-31.25,31.73828125,140.625,0.0,0,0
1766859280.828279,1766859280.7865374,-375.0,-25.390625,-278.3203125,-368.65234375,0.0,0,0
1766859280.828307,1766859280.790433,-1000.0,-63.4765625,-277.83203125,-467.28515625,0.0,0,0
1766859280.828335,1766859280.7943285,-253.90625,-81.0546875,74.21875,57.6171875,0.0,0,0
1766859280.828363,1766859280.7982242,881.8359375,-23.92578125,253.90625,416.015625,0.0,0,0
1766859280.8283908,1766859280.8021197,879.8828125,-9.765625,79.1015625,206.54296875,0.0,0,0
1766859280.8284202,1766859280.8060153,-215.8203125,-33.69140625,-235.3515625,-309.5703125,0.0,0,0
1766859280.8741498,1766859280.8100095,-1000.0,-42.48046875,-296.38671875,-493.1640625,0.0,0,0
1766859280.874263,1766859280.8139052,-363.28125,-27.83203125,63.4765625,15.625,0.0,0,0
1766859280.874291,1766859280.8178008,800.78125,-7.8125,276.85546875,405.2734375,0.0,0,0
1766859280.874316,1766859280.8216965,958.0078125,-4.8828125,124.51171875,268.06640625,0.0,0,0
1766859280.87434,1766859280.825592,-118.65234375,-20.99609375,-216.30859375,-258.7890625,0.0,0,0
1766859280.874364,1766859280.8294876,-1000.0,-25.87890625,-320.3125,-497.55859375,0.0,0,0
1766859280.874388,1766859280.8333833,-537.59765625,-17.08984375,8.7890625,-45.41015625,0.0,0,0
1766859280.874412,1766859280.8372788,648.4375,-30.2734375,268.06640625,378.90625,0.0,0,0
1766859280.8744361,1766859280.8411746,994.62890625,-35.15625,173.33984375,312.5,0.0,0,0
1766859280.8744588,1766859280.8450701,-51.26953125,-31.25,-179.19921875,-208.0078125,0.0,0,0
1766859280.8744829,1766859280.8489656,-1000.0,-47.36328125,-314.94140625,-514.16015625,0.0,0,0
1766859280.87451,1766859280.8528614,-741.2109375,-41.015625,-33.203125,-150.87890625,0.0,0,0
1766859280.92143,1766859280.8568587,443.359375,-19.04296875,244.140625,329.1015625,0.0,0,0
1766859280.921561,1766859280.8607543,-945.3125,-10.7421875,204.1015625,363.28125,0.0,0,0
1766859280.9216352,1766859280.86465,56.15234375,-22.94921875,-161.1328125,-166.015625,0.0,0,0
1766859280.9216902,1766859280.8685455,-1000.0,-41.015625,-341.796875,-515.13671875,0.0,0,0
1766859280.9217432,1766859280.8724413,-845.21484375,-38.0859375,-99.609375,-213.37890625,0.0,0,0
1766859280.921813,1766859280.8763368,284.1796875,-8.7890625,212.890625,288.57421875,0.0,0,0
1766859280.921843,1766859280.8802323,-929.6875,0.48828125,239.2578125,395.01953125,0.0,0,0
1766859280.921869,1766859280.884128,173.33984375,-34.1796875,-125.9765625,-132.8125,0.0,0,0
1766859280.9218931,1766859280.8880236,-957.03125,-61.03515625,-341.796875,-501.953125,0.0,0,0
1766859280.921917,1766859280.8919194,-948.73046875,-50.78125,-162.59765625,-291.9921875,0.0,0,0
1766859280.9221828,1766859280.895815,141.11328125,-16.6015625,169.43359375,226.5625,0.0,0,0
1766859280.9222112,1766859280.8997107,-925.78125,-4.39453125,255.37109375,433.59375,0.0,0,0
1766859280.963949,1766859280.903687,367.1875,-19.53125,-96.6796875,-57.6171875,0.0,0,0
1766859280.9640791,1766859280.9075828,-806.640625,-38.0859375,-313.96484375,-454.58984375,0.0,0,0
1766859280.964124,1766859280.9114783,-1000.0,-42.96875,-186.5234375,-341.30859375,0.0,0,0
1766859280.964162,1766859280.915374,17.08984375,-22.94921875,140.13671875,183.10546875,0.0,0,0
1766859280.9642,1766859280.9192696,-950.68359375,-6.8359375,264.6484375,454.1015625,0.0,0,0
1766859280.9642382,1766859280.9231653,538.0859375,-13.18359375,-62.5,0.48828125,0.0,0,0
1766859280.964275,1766859280.9270608,-649.90234375,-62.98828125,-325.1953125,-443.84765625,0.0,0,0
1766859280.964313,1766859280.9309566,-1000.0,-83.984375,-253.41796875,-402.34375,0.0,0,0
1766859280.964349,1766859280.9348521,-80.078125,-34.1796875,104.98046875,122.55859375,0.0,0,0
1766859280.964385,1766859280.938748,-977.05078125,-6.34765625,294.43359375,448.73046875,0.0,0,0
1766859280.964422,1766859280.9426434,705.56640625,-13.18359375,16.6015625,98.14453125,0.0,0,0
1766859280.964459,1766859280.9465392,-469.7265625,-37.59765625,-287.109375,-394.04296875,0.0,0,0
1766859281.0246148,1766859280.950587,-1000.0,-44.921875,-265.13671875,-442.3828125,0.0,0,0
1766859281.024786,1766859280.9544826,-135.25390625,-27.83203125,112.79296875,106.93359375,0.0,0,0
1766859281.024843,1766859280.9583783,962.890625,-8.7890625,301.7578125,463.37890625,0.0,0,0
1766859281.024894,1766859280.962274,788.57421875,-15.625,57.12890625,184.5703125,0.0,0,0
1766859281.024931,1766859280.9661696,-296.875,-35.64453125,-265.13671875,-336.9140625,0.0,0,0
1766859281.0249689,1766859280.9700654,-1000.0,-59.5703125,-289.55078125,-460.9375,0.0,0,0
1766859281.025005,1766859280.9739609,-294.43359375,-61.5234375,73.73046875,56.15234375,0.0,0,0
1766859281.0250409,1766859280.9778566,842.7734375,-9.27734375,261.71875,413.57421875,0.0,0,0
1766859281.025078,1766859280.9817524,887.20703125,7.8125,90.8203125,231.93359375,0.0,0,0
1766859281.025114,1766859280.985648,-190.4296875,-19.53125,-224.609375,-288.0859375,0.0,0,0
1766859281.025168,1766859280.9895437,-1000.0,-32.2265625,-292.96875,-489.74609375,0.0,0,0
1766859281.025244,1766859280.9934394,-465.8203125,-13.18359375,39.55078125,-16.6015625,0.0,0,0
1766859281.0698082,1766859280.997484,705.56640625,-5.859375,238.76953125,382.8125,0.0,0,0
1766859281.069964,1766859281.0013795,987.79296875,-14.6484375,131.34765625,299.31640625,0.0,0,0
1766859281.0700228,1766859281.0052752,-76.171875,-30.2734375,-197.75390625,-235.83984375,0.0,0,0
1766859281.0700748,1766859281.009171,-1000.0,-39.55078125,-309.08203125,-487.3046875,0.0,0,0
1766859281.070127,1766859281.0130668,-555.17578125,-28.3203125,2.44140625,-48.828125,0.0,0,0
1766859281.070177,1766859281.0169623,528.80859375,-5.37109375,238.28125,370.60546875,0.0,0,0
1766859281.0702279,1766859281.020858,-938.4765625,1.953125,182.12890625,358.3984375,0.0,0,0
1766859281.070279,1766859281.0247538,36.62109375,-18.5546875,-169.921875,-183.59375,0.0,0,0
1766859281.0703292,1766859281.0286493,-1000.0,-39.55078125,-334.47265625,-516.11328125,0.0,0,0
1766859281.070383,1766859281.032545,-812.98828125,-71.77734375,-93.26171875,-194.3359375,0.0,0,0
1766859281.070421,1766859281.0364408,348.6328125,-41.50390625,189.453125,295.8984375,0.0,0,0
1766859281.0704582,1766859281.0403366,-924.8046875,3.41796875,194.82421875,375.48828125,0.0,0,0
1766859281.112818,1766859281.044363,132.32421875,-23.4375,-153.3203125,-151.3671875,0.0,0,0
1766859281.1129432,1766859281.0482585,-984.86328125,-45.41015625,-333.0078125,-504.39453125,0.0,0,0
1766859281.112979,1766859281.0521543,-894.04296875,-43.9453125,-129.39453125,-265.13671875,0.0,0,0
1766859281.113012,1766859281.05605,201.66015625,-14.16015625,180.6640625,243.1640625,0.0,0,0
1766859281.1130419,1766859281.0599458,-927.24609375,0.0,248.046875,418.9453125,0.0,0,0
1766859281.1130722,1766859281.0638416,311.03515625,-13.18359375,-103.02734375,-90.33203125,0.0,0,0
1766859281.113101,1766859281.067737,-869.140625,-37.59765625,-321.2890625,-479.4921875,0.0,0,0
1766859281.11313,1766859281.0716329,-948.2421875,-32.2265625,-162.59765625,-294.921875,0.0,0,0
1766859281.113159,1766859281.0755286,142.08984375,-28.80859375,157.71484375,223.6328125,0.0,0,0
1766859281.113188,1766859281.0794244,-959.47265625,-49.31640625,245.1171875,443.359375,0.0,0,0
1766859281.1132329,1766859281.0833201,422.8515625,-32.71484375,-87.890625,-21.97265625,0.0,0,0
1766859281.1132631,1766859281.0872157,-738.28125,-43.9453125,-329.1015625,-459.47265625,0.0,0,0
1766859281.158967,1766859281.0912309,-1000.0,-53.7109375,-213.37890625,-374.0234375,0.0,0,0
1766859281.159112,1766859281.0951266,7.32421875,-24.90234375,143.06640625,160.64453125,0.0,0,0
1766859281.159154,1766859281.0990224,-966.30859375,1.953125,283.69140625,457.51953125,0.0,0,0
1766859281.159195,1766859281.102918,602.5390625,-13.18359375,-17.08984375,58.59375,0.0,0,0
1766859281.159232,1766859281.1068137,-569.82421875,-38.57421875,-293.45703125,-410.15625,0.0,0,0
1766859281.1592698,1766859281.1107094,-1000.0,-43.45703125,-232.421875,-400.390625,0.0,0,0
1766859281.159307,1766859281.1146052,-119.62890625,-32.2265625,108.88671875,111.81640625,0.0,0,0
1766859281.1593442,1766859281.118501,979.00390625,-6.34765625,273.92578125,443.359375,0.0,0,0
1766859281.15938,1766859281.1223967,758.7890625,-34.1796875,15.13671875,148.92578125,0.0,0,0
1766859281.1594172,1766859281.1262925,-394.53125,-61.5234375,-281.73828125,-343.75,0.0,0,0
1766859281.1594539,1766859281.1301882,-1000.0,-49.8046875,-248.53515625,-438.4765625,0.0,0,0
1766859281.159489,1766859281.1340837,-207.51953125,-39.0625,98.6328125,61.5234375,0.0,0,0
1766859281.203454,1766859281.1380951,902.34375,-9.27734375,277.34375,431.640625,0.0,0,0
1766859281.2035809,1766859281.141991,854.98046875,-7.32421875,79.1015625,206.0546875,0.0,0,0
1766859281.203685,1766859281.1458867,-238.76953125,-31.25,-254.39453125,-329.1015625,0.0,0,0
1766859281.203945,1766859281.1497824,-1000.0,-42.96875,-311.5234375,-498.046875,0.0,0,0
1766859281.204055,1766859281.1536782,-371.09375,-23.4375,44.921875,11.71875,0.0,0,0
1766859281.204155,1766859281.157574,797.8515625,1.953125,274.4140625,411.1328125,0.0,0,0
1766859281.2042902,1766859281.1614697,940.91796875,-0.48828125,139.16015625,263.18359375,0.0,0,0
1766859281.204395,1766859281.1653655,-118.65234375,-40.0390625,-205.078125,-268.5546875,0.0,0,0
1766859281.204501,1766859281.1692612,-1000.0,-73.2421875,-325.68359375,-521.97265625,0.0,0,0
1766859281.205842,1766859281.173157,-571.2890625,-49.31640625,-0.48828125,-71.2890625,0.0,0,0
1766859281.2078688,1766859281.1770527,649.90234375,-24.4140625,250.0,367.1875,0.0,0,0
1766859281.2079601,1766859281.1809485,-979.00390625,-14.6484375,169.43359375,316.40625,0.0,0,0
1766859281.247919,1766859281.1849415,-16.11328125,-20.01953125,-177.734375,-203.61328125,0.0,0,0
1766859281.248012,1766859281.1888373,-1000.0,-34.1796875,-337.890625,-519.04296875,0.0,0,0
1766859281.2480419,1766859281.192733,-684.5703125,-36.62109375,-48.828125,-150.87890625,0.0,0,0
1766859281.248068,1766859281.1966288,475.09765625,-22.94921875,224.609375,340.33203125,0.0,0,0
1766859281.248093,1766859281.2005246,-961.42578125,-16.6015625,186.5234375,379.39453125,0.0,0,0
1766859281.248123,1766859281.2044203,62.5,-29.78515625,-153.3203125,-170.8984375,0.0,0,0
1766859281.248147,1766859281.208316,-1000.0,-37.59765625,-324.21875,-519.04296875,0.0,0,0
1766859281.24817,1766859281.2122118,-809.08203125,-41.9921875,-97.16796875,-215.8203125,0.0,0,0
1766859281.248194,1766859281.2161076,316.40625,-22.94921875,213.8671875,291.9921875,0.0,0,0
1766859281.248265,1766859281.2200034,-928.22265625,3.41796875,239.2578125,419.921875,0.0,0,0
1766859281.248289,1766859281.2238991,196.77734375,-13.18359375,-136.23046875,-116.69921875,0.0,0,0
1766859281.2483158,1766859281.227795,-941.40625,-42.96875,-349.12109375,-493.65234375,0.0,0,0
1766859281.293529,1766859281.2317758,-972.16796875,-46.38671875,-161.1328125,-291.015625,0.0,0,0
1766859281.294378,1766859281.2356715,125.48828125,-13.671875,183.10546875,225.5859375,0.0,0,0
1766859281.2944279,1766859281.2395673,-949.70703125,-2.44140625,262.6953125,437.01171875,0.0,0,0
1766859281.294456,1766859281.243463,307.6171875,-28.80859375,-98.6328125,-69.3359375,0.0,0,0
1766859281.2944808,1766859281.2473588,-834.9609375,-42.48046875,-314.94140625,-468.75,0.0,0,0
1766859281.294505,1766859281.2512546,-1000.0,-45.41015625,-182.6171875,-348.6328125,0.0,0,0
1766859281.294529,1766859281.2551503,37.109375,-32.2265625,151.3671875,173.828125,0.0,0,0
1766859281.294553,1766859281.259046,-992.1875,-32.71484375,262.20703125,450.1953125,0.0,0,0
1766859281.2945762,1766859281.2629418,448.73046875,-37.59765625,-73.2421875,1.46484375,0.0,0,0
1766859281.2945988,1766859281.2668376,-662.59765625,-42.96875,-306.15234375,-434.08203125,0.0,0,0
1766859281.294622,1766859281.2707336,-1000.0,-47.8515625,-219.23828125,-390.625,0.0,0,0
1766859281.294645,1766859281.2746294,-88.8671875,-27.34375,113.28125,142.578125,0.0,0,0
1766859281.383337,1766859281.2787654,-997.0703125,-4.39453125,273.92578125,456.54296875,0.0,0,0
1766859281.38352,1766859281.2826614,668.45703125,-12.20703125,2.44140625,80.56640625,0.0,0,0
1766859281.383595,1766859281.2865572,-479.4921875,-20.5078125,-276.3671875,-400.390625,0.0,0,0
1766859281.3836942,1766859281.290453,-1000.0,-30.76171875,-241.69921875,-436.03515625,0.0,0,0
1766859281.3837729,1766859281.2943487,-164.55078125,-31.73828125,95.21484375,74.70703125,0.0,0,0
1766859281.3838642,1766859281.2982447,935.05859375,-3.90625,272.94921875,421.38671875,0.0,0,0
1766859281.3839512,1766859281.3021405,805.6640625,-4.39453125,47.36328125,165.52734375,0.0,0,0
1766859281.3839848,1766859281.3060362,-298.828125,-33.69140625,-265.625,-346.6796875,0.0,0,0
1766859281.3840299,1766859281.309932,-1000.0,-51.7578125,-296.38671875,-478.02734375,0.0,0,0
1766859281.3841548,1766859281.3138278,-273.92578125,-32.2265625,62.5,46.875,0.0,0,0
1766859281.3842402,1766859281.3177238,867.1875,2.44140625,275.87890625,418.45703125,0.0,0,0
1766859281.384289,1766859281.3216195,922.8515625,2.44140625,110.83984375,241.2109375,0.0,0,0
1766859281.397495,1766859281.325598,-163.0859375,-24.90234375,-220.703125,-268.06640625,0.0,0,0
1766859281.397587,1766859281.3294938,-1000.0,-44.921875,-313.96484375,-486.81640625,0.0,0,0
1766859281.3976161,1766859281.3333898,-456.54296875,-33.69140625,17.08984375,-13.671875,0.0,0,0
1766859281.397642,1766859281.3372855,705.56640625,-7.8125,253.41796875,402.34375,0.0,0,0
1766859281.397669,1766859281.3411813,971.19140625,-3.90625,148.4375,292.96875,0.0,0,0
1766859281.397693,1766859281.3450773,-101.5625,-35.15625,-205.078125,-238.76953125,0.0,0,0
1766859281.3977349,1766859281.348973,-1000.0,-58.59375,-341.30859375,-510.25390625,0.0,0,0
1766859281.3977962,1766859281.3528688,-606.93359375,-47.8515625,-27.83203125,-101.5625,0.0,0,0
1766859281.397845,1766859281.3567646,550.29296875,-16.6015625,235.83984375,350.5859375,0.0,0,0
1766859281.3978949,1766859281.3606606,-966.796875,-4.8828125,168.45703125,349.12109375,0.0,0,0
1766859281.3979251,1766859281.3645563,30.2734375,-26.85546875,-182.12890625,-173.828125,0.0,0,0
1766859281.398002,1766859281.368452,-1000.0,-63.96484375,-353.515625,-517.08984375,0.0,0,0
1766859281.444021,1766859281.3724847,-843.26171875,-63.96484375,-86.42578125,-197.75390625,0.0,0,0
1766859281.444142,1766859281.3763807,350.5859375,-66.89453125,237.3046875,297.8515625,0.0,0,0
1766859281.444169,1766859281.3802764,-962.40234375,-65.91796875,234.375,379.8828125,0.0,0,0
1766859281.444194,1766859281.3841722,85.44921875,-33.203125,-135.25390625,-152.34375,0.0,0,0
1766859281.4442182,1766859281.3880682,-973.6328125,-35.64453125,-315.4296875,-507.32421875,0.0,0,0
1766859281.444242,1766859281.391964,-891.6015625,-49.8046875,-105.95703125,-258.7890625,0.0,0,0
1766859281.444266,1766859281.3958597,197.75390625,-27.83203125,195.3125,245.60546875,0.0,0,0
1766859281.444289,1766859281.3997557,-932.6171875,5.37109375,251.46484375,414.0625,0.0,0,0
1766859281.444313,1766859281.4036515,260.25390625,-16.6015625,-113.76953125,-101.07421875,0.0,0,0
1766859281.444342,1766859281.4075475,-892.08984375,-54.6875,-338.37890625,-485.3515625,0.0,0,0
1766859281.4443672,1766859281.4114432,-971.19140625,-48.33984375,-168.9453125,-311.03515625,0.0,0,0
1766859281.444391,1766859281.415339,103.515625,-14.16015625,159.1796875,192.3828125,0.0,0,0
1766859281.488563,1766859281.4193642,-988.28125,0.0,251.953125,415.0390625,0.0,0,0
1766859281.488698,1766859281.4232602,377.44140625,-16.11328125,-77.1484375,-33.203125,0.0,0,0
1766859281.4887402,1766859281.427156,-730.95703125,-38.0859375,-318.84765625,-452.63671875,0.0,0,0
1766859281.488779,1766859281.431052,-1000.0,-48.828125,-215.33203125,-387.6953125,0.0,0,0
1766859281.488817,1766859281.4349477,-40.0390625,-18.5546875,127.9296875,133.7890625,0.0,0,0
1766859281.488854,1766859281.4388435,-999.51171875,5.859375,276.3671875,420.41015625,0.0,0,0
1766859281.488898,1766859281.4427395,526.85546875,-19.04296875,-18.5546875,25.390625,0.0,0,0
1766859281.4889338,1766859281.4466352,-575.1953125,-31.25,-282.2265625,-414.0625,0.0,0,0
1766859281.48897,1766859281.4505312,-1000.0,-37.59765625,-237.79296875,-418.9453125,0.0,0,0
1766859281.489007,1766859281.454427,-140.625,-30.2734375,90.8203125,84.47265625,0.0,0,0
1766859281.489053,1766859281.458323,973.14453125,0.9765625,266.6015625,421.875,0.0,0,0
1766859281.489116,1766859281.4622188,716.30859375,-4.8828125,21.97265625,122.55859375,0.0,0,0
1766859281.533341,1766859281.466232,-395.01953125,-37.109375,-274.4140625,-369.140625,0.0,0,0
1766859281.533491,1766859281.470128,-1000.0,-54.19921875,-276.3671875,-454.1015625,0.0,0,0
1766859281.533534,1766859281.474024,-249.51171875,-26.85546875,66.89453125,49.31640625,0.0,0,0
1766859281.5335732,1766859281.4779198,882.8125,-1.46484375,258.7890625,392.08984375,0.0,0,0
1766859281.5336099,1766859281.4818158,897.94921875,-6.8359375,83.49609375,193.84765625,0.0,0,0
1766859281.533649,1766859281.4857116,-216.796875,-29.296875,-222.65625,-298.33984375,0.0,0,0
1766859281.533688,1766859281.4896076,-1000.0,-48.33984375,-281.25,-471.6796875,0.0,0,0
1766859281.5337238,1766859281.4935033,-373.046875,-27.34375,51.7578125,3.41796875,0.0,0,0
1766859281.533761,1766859281.4973993,723.14453125,-35.15625,240.234375,360.3515625,0.0,0,0
1766859281.533796,1766859281.501295,932.12890625,-40.52734375,110.3515625,247.55859375,0.0,0,0
1766859281.533833,1766859281.505191,-110.3515625,-35.64453125,-202.63671875,-245.60546875,0.0,0,0
1766859281.533869,1766859281.5090868,-1000.0,-53.7109375,-308.59375,-499.51171875,0.0,0,0
1766859281.579402,1766859281.5130913,-576.171875,-41.50390625,-2.9296875,-86.42578125,0.0,0,0
1766859281.5795999,1766859281.516987,562.98828125,-13.671875,234.375,330.56640625,0.0,0,0
1766859281.5796611,1766859281.520883,-967.28515625,0.0,171.38671875,317.87109375,0.0,0,0
1766859281.579714,1766859281.5247788,20.99609375,-25.390625,-157.2265625,-172.36328125,0.0,0,0
1766859281.5797682,1766859281.5286748,-1000.0,-45.8984375,-314.94140625,-471.6796875,0.0,0,0
1766859281.579823,1766859281.5325708,-701.66015625,-26.85546875,-46.875,-139.16015625,0.0,0,0
1766859281.5798862,1766859281.5364666,424.31640625,3.41796875,214.84375,283.69140625,0.0,0,0
1766859281.579947,1766859281.5403626,986.81640625,-17.578125,161.62109375,311.03515625,0.0,0,0
1766859281.5800161,1766859281.5442584,44.921875,-73.2421875,-173.33984375,-164.0625,0.0,0,0
1766859281.580074,1766859281.5481544,-935.05859375,-51.7578125,-319.82421875,-463.8671875,0.0,0,0
1766859281.580124,1766859281.5520504,-825.1953125,-26.3671875,-107.421875,-219.23828125,0.0,0,0
1766859281.580174,1766859281.555946,244.140625,-14.6484375,172.8515625,236.328125,0.0,0,0
1766859281.6676621,1766859281.5599382,-982.91015625,3.90625,205.56640625,366.2109375,0.0,0,0
1766859281.667805,1766859281.5638342,243.1640625,-14.16015625,-113.76953125,-106.93359375,0.0,0,0
1766859281.6678379,1766859281.56773,-843.26171875,-39.55078125,-307.12890625,-456.54296875,0.0,0,0
1766859281.66787,1766859281.571626,-955.56640625,-40.52734375,-159.66796875,-286.62109375,0.0,0,0
1766859281.6682591,1766859281.575522,107.421875,-25.87890625,136.71875,189.453125,0.0,0,0
1766859281.6682959,1766859281.5794177,-918.9453125,2.44140625,234.86328125,403.3203125,0.0,0,0
1766859281.668326,1766859281.5833137,447.75390625,0.48828125,-79.1015625,-43.45703125,0.0,0,0
1766859281.6683562,1766859281.5872097,-753.41796875,-40.0390625,-308.59375,-420.41015625,0.0,0,0
1766859281.668385,1766859281.5911055,-994.140625,-45.8984375,-175.29296875,-311.03515625,0.0,0,0
1766859281.668413,1766859281.5950015,16.6015625,-17.08984375,137.20703125,140.13671875,0.0,0,0
1766859281.668442,1766859281.5988975,990.234375,2.44140625,254.8828125,395.99609375,0.0,0,0
1766859281.66847,1766859281.6027932,526.85546875,-8.30078125,-41.9921875,20.5078125,0.0,0,0
1766859281.684599,1766859281.6068645,-574.70703125,-30.2734375,-284.66796875,-375.48828125,0.0,0,0
1766859281.684727,1766859281.6107602,-1000.0,-45.41015625,-211.9140625,-355.95703125,0.0,0,0
1766859281.684769,1766859281.6146562,-172.36328125,-37.59765625,88.37890625,88.8671875,0.0,0,0
1766859281.6848059,1766859281.6185522,896.484375,-18.06640625,234.86328125,395.5078125,0.0,0,0
1766859281.684844,1766859281.6224482,689.453125,-20.99609375,-1.953125,99.12109375,0.0,0,0
1766859281.684881,1766859281.6263442,-391.6015625,-38.0859375,-246.09375,-337.40234375,0.0,0,0
1766859281.684919,1766859281.63024,-1000.0,-45.8984375,-229.4921875,-398.4375,0.0,0,0
1766859281.684955,1766859281.634136,-283.69140625,-35.64453125,52.24609375,50.29296875,0.0,0,0
1766859281.684992,1766859281.638032,768.06640625,-25.390625,228.02734375,385.7421875,0.0,0,0
1766859281.6850402,1766859281.641928,822.75390625,-21.484375,72.265625,179.19921875,0.0,0,0
1766859281.685076,1766859281.645824,-240.72265625,-34.66796875,-211.42578125,-278.80859375,0.0,0,0
1766859281.6851132,1766859281.6497197,-1000.0,-41.50390625,-262.20703125,-424.31640625,0.0,0,0
1766859281.714188,1766859281.6536922,-428.7109375,-33.203125,46.38671875,3.90625,0.0,0,0
1766859281.714311,1766859281.6575882,710.44921875,-9.27734375,252.44140625,360.83984375,0.0,0,0
1766859281.714368,1766859281.6614842,906.25,-0.48828125,111.328125,232.91015625,0.0,0,0
1766859281.714421,1766859281.6653802,-127.44140625,-26.85546875,-188.4765625,-226.5625,0.0,0,0
1766859281.7144718,1766859281.6692762,-1000.0,-45.41015625,-275.390625,-438.96484375,0.0,0,0
1766859281.7145238,1766859281.6731722,-511.71875,-24.90234375,16.11328125,-46.875,0.0,0,0
1766859281.714575,1766859281.677068,570.80078125,-6.8359375,227.5390625,328.61328125,0.0,0,0
1766859281.714626,1766859281.680964,923.33984375,-15.625,130.859375,268.5546875,0.0,0,0
1766859281.714676,1766859281.68486,-8.7890625,-28.3203125,-169.43359375,-184.5703125,0.0,0,0
1766859281.714726,1766859281.688756,-956.54296875,-41.9921875,-295.8984375,-451.171875,0.0,0,0
1766859281.714775,1766859281.692652,-670.41015625,-41.015625,-41.015625,-125.0,0.0,0,0
1766859281.714825,1766859281.696548,397.94921875,-23.92578125,198.2421875,290.52734375,0.0,0,0
1766859281.7729971,1766859281.7005095,979.98046875,-16.6015625,160.64453125,325.68359375,0.0,0,0
1766859281.77308,1766859281.7044055,124.51171875,-26.85546875,-149.4140625,-131.34765625,0.0,0,0
1766859281.773108,1766859281.7083015,-863.76953125,-40.52734375,-291.50390625,-439.94140625,0.0,0,0
1766859281.773132,1766859281.7121975,-801.7578125,-44.921875,-77.63671875,-204.1015625,0.0,0,0
1766859281.7731571,1766859281.7160935,253.41796875,-24.4140625,182.6171875,229.00390625,0.0,0,0
1766859281.773181,1766859281.7199893,998.53515625,-20.5078125,190.4296875,337.890625,0.0,0,0
1766859281.773244,1766859281.7238853,245.60546875,-44.43359375,-126.953125,-96.19140625,0.0,0,0
1766859281.773351,1766859281.7277813,-741.69921875,-51.7578125,-293.45703125,-404.78515625,0.0,0,0
1766859281.773382,1766859281.7316773,-854.4921875,-59.08203125,-140.625,-227.5390625,0.0,0,0
1766859281.773407,1766859281.7355733,130.859375,-31.25,145.5078125,212.890625,0.0,0,0
1766859281.773453,1766859281.7394693,-988.28125,-3.41796875,223.14453125,385.25390625,0.0,0,0
1766859281.773483,1766859281.7433653,405.76171875,-23.92578125,-87.890625,-38.57421875,0.0,0,0
1766859281.817926,1766859281.7473977,-687.5,-54.19921875,-290.0390625,-399.4140625,0.0,0,0
1766859281.818021,1766859281.7512937,-996.09375,-66.40625,-174.8046875,-301.7578125,0.0,0,0
1766859281.818048,1766859281.7551897,4.8828125,-40.0390625,115.234375,154.78515625,0.0,0,0
1766859281.818072,1766859281.7590857,947.75390625,-13.671875,209.47265625,388.671875,0.0,0,0
1766859281.8180962,1766859281.7629817,520.99609375,-14.16015625,-70.3125,20.01953125,0.0,0,0
1766859281.81812,1766859281.7668777,-487.3046875,-31.25,-264.6484375,-340.33203125,0.0,0,0
1766859281.818143,1766859281.7707736,-981.93359375,-49.8046875,-195.3125,-316.89453125,0.0,0,0
1766859281.818167,1766859281.7746696,-153.3203125,-33.203125,85.44921875,98.6328125,0.0,0,0
1766859281.81819,1766859281.7785656,836.42578125,-17.08984375,229.4921875,369.140625,0.0,0,0
1766859281.818214,1766859281.7824616,635.7421875,-56.15234375,-11.71875,77.1484375,0.0,0,0
1766859281.8182368,1766859281.7863576,-330.078125,-61.5234375,-246.58203125,-311.03515625,0.0,0,0
1766859281.818261,1766859281.7902536,-912.59765625,-35.15625,-206.0546875,-356.93359375,0.0,0,0
1766859281.863931,1766859281.7942753,-225.09765625,-24.90234375,85.9375,63.96484375,0.0,0,0
1766859281.864157,1766859281.7981713,772.94921875,-11.23046875,250.48828125,384.27734375,0.0,0,0
1766859281.864268,1766859281.8020673,762.20703125,-15.625,38.0859375,157.71484375,0.0,0,0
1766859281.864296,1766859281.8059633,-237.3046875,-35.15625,-231.4453125,-257.32421875,0.0,0,0
1766859281.86434,1766859281.8098593,-1000.0,-52.24609375,-248.046875,-373.046875,0.0,0,0
1766859281.864365,1766859281.8137553,-374.51171875,-42.48046875,54.6875,24.90234375,0.0,0,0
1766859281.8643892,1766859281.8176513,695.80078125,-22.94921875,239.2578125,363.76953125,0.0,0,0
1766859281.864413,1766859281.8215473,849.609375,-20.01953125,69.3359375,216.30859375,0.0,0,0
1766859281.864436,1766859281.8254435,-166.9921875,-49.31640625,-223.14453125,-249.51171875,0.0,0,0
1766859281.864461,1766859281.8293395,-994.140625,-65.91796875,-270.01953125,-421.875,0.0,0,0
1766859281.864485,1766859281.8332355,-480.46875,-29.296875,34.1796875,0.0,0.0,0,0
1766859281.864508,1766859281.8371315,508.30078125,-15.13671875,211.42578125,339.84375,0.0,0,0
1766859281.908086,1766859281.841144,848.6328125,-20.99609375,111.81640625,256.8359375,0.0,0,0
1766859281.9082088,1766859281.84504,-7.32421875,-36.62109375,-153.3203125,-178.22265625,0.0,0,0
1766859281.9082382,1766859281.848936,-934.5703125,-54.19921875,-268.06640625,-433.10546875,0.0,0,0
1766859281.908264,1766859281.852832,-605.95703125,-37.109375,-5.37109375,-85.44921875,0.0,0,0
1766859281.908288,1766859281.856728,421.38671875,-13.18359375,210.9375,300.29296875,0.0,0,0
1766859281.908312,1766859281.8606243,926.26953125,-11.71875,145.01953125,287.59765625,0.0,0,0
1766859281.9083352,1766859281.8645203,89.35546875,-31.25,-154.296875,-156.73828125,0.0,0,0
1766859281.9083588,1766859281.8684163,-888.671875,-42.48046875,-297.36328125,-442.87109375,0.0,0,0
1766859281.908383,1766859281.8723123,-728.515625,-70.80078125,-62.01171875,-150.390625,0.0,0,0
1766859281.908409,1766859281.8762083,330.56640625,-40.52734375,193.84765625,279.78515625,0.0,0,0
1766859281.9084318,1766859281.8801043,977.5390625,7.8125,168.9453125,336.9140625,0.0,0,0
1766859281.9084558,1766859281.8840003,195.3125,-26.85546875,-142.08984375,-106.93359375,0.0,0,0
1766859281.982367,1766859281.8880842,-757.8125,-39.55078125,-292.48046875,-410.64453125,0.0,0,0
1766859281.982466,1766859281.8919802,-828.125,-35.15625,-108.88671875,-208.49609375,0.0,0,0
1766859281.9824939,1766859281.8958762,187.98828125,-19.53125,164.0625,222.16796875,0.0,0,0
1766859281.9825191,1766859281.8997722,969.23828125,-10.7421875,194.3359375,354.98046875,0.0,0,0
1766859281.982543,1766859281.9036684,301.26953125,-35.64453125,-122.55859375,-78.61328125,0.0,0,0
1766859281.9825668,1766859281.9075644,-663.57421875,-58.59375,-288.0859375,-408.69140625,0.0,0,0
1766859281.982611,1766859281.9114604,-882.32421875,-29.296875,-136.71875,-280.76171875,0.0,0,0
1766859281.982923,1766859281.9153564,-2.44140625,-47.36328125,130.859375,151.3671875,0.0,0,0
1766859281.982951,1766859281.9192526,908.203125,-92.7734375,213.8671875,362.3046875,0.0,0,0
1766859281.982974,1766859281.9231486,458.0078125,-34.66796875,-75.68359375,-35.64453125,0.0,0,0
1766859281.982999,1766859281.9270446,-543.9453125,-20.01953125,-272.94921875,-384.27734375,0.0,0,0
1766859281.9830232,1766859281.9309406,-956.0546875,-31.25,-188.4765625,-313.96484375,0.0,0,0
1766859281.998585,1766859281.934938,-149.90234375,-22.94921875,88.8671875,110.83984375,0.0,0,0
1766859281.998676,1766859281.938834,858.88671875,-5.859375,234.375,377.9296875,0.0,0,0
1766859281.9987042,1766859281.9427302,607.91015625,-6.34765625,-22.4609375,46.38671875,0.0,0,0
1766859281.998733,1766859281.9466262,-428.7109375,-24.4140625,-252.44140625,-344.7265625,0.0,0,0
1766859281.9987578,1766859281.9505222,-981.4453125,-38.0859375,-198.2421875,-352.05078125,0.0,0,0
1766859281.9987829,1766859281.9544184,-221.6796875,-17.08984375,80.56640625,73.73046875,0.0,0,0
1766859281.9988081,1766859281.9583144,749.51171875,0.48828125,223.14453125,359.86328125,0.0,0,0
1766859281.998833,1766859281.9622104,729.98046875,-14.6484375,17.578125,104.98046875,0.0,0,0
1766859281.998857,1766859281.9661067,-267.578125,-41.9921875,-240.72265625,-305.6640625,0.0,0,0
1766859281.998903,1766859281.9700027,-974.609375,-41.9921875,-238.28125,-375.0,0.0,0,0
1766859281.998931,1766859281.9738986,-326.66015625,-30.2734375,59.5703125,33.69140625,0.0,0,0
1766859281.998955,1766859281.9777946,636.23046875,-54.6875,217.7734375,333.0078125,0.0,0,0
1766859282.043023,1766859281.9817748,818.359375,-41.9921875,42.96875,180.17578125,0.0,0,0
1766859282.043115,1766859281.9856708,-84.47265625,-23.4375,-225.09765625,-226.07421875,0.0,0,0
1766859282.043144,1766859281.989567,-897.94921875,-49.31640625,-257.32421875,-379.8828125,0.0,0,0
1766859282.043169,1766859281.993463,-475.09765625,-61.03515625,33.203125,-6.8359375,0.0,0,0
1766859282.043194,1766859281.997359,451.66015625,-17.08984375,213.37890625,308.59375,0.0,0,0
1766859282.043218,1766859282.0012553,901.85546875,12.20703125,120.60546875,237.79296875,0.0,0,0
1766859282.043242,1766859282.0051513,149.90234375,-30.76171875,-149.90234375,-165.0390625,0.0,0,0
1766859282.043266,1766859282.0090473,-801.26953125,-89.35546875,-265.13671875,-399.4140625,0.0,0,0
1766859282.0432909,1766859282.0129435,-663.0859375,-50.78125,-25.390625,-82.03125,0.0,0,0
1766859282.043314,1766859282.0168395,298.828125,-0.9765625,187.5,275.87890625,0.0,0,0
1766859282.043338,1766859282.0207355,875.0,13.671875,135.25390625,258.30078125,0.0,0,0
1766859282.043361,1766859282.0246317,235.83984375,4.8828125,-144.53125,-150.87890625,0.0,0,0
1766859282.088768,1766859282.0286052,-631.34765625,-9.27734375,-288.57421875,-410.64453125,0.0,0,0
1766859282.088913,1766859282.0325015,-787.59765625,-16.11328125,-86.42578125,-170.41015625,0.0,0,0
1766859282.088958,1766859282.0363975,11.71875,-13.18359375,145.5078125,175.78125,0.0,0,0
1766859282.0889988,1766859282.0402937,792.48046875,-2.44140625,132.32421875,234.375,0.0,0,0
1766859282.089039,1766859282.0441897,487.79296875,-6.8359375,-132.32421875,-102.5390625,0.0,0,0
1766859282.089077,1766859282.0480857,-301.26953125,-10.7421875,-261.23046875,-359.375,0.0,0,0
1766859282.0891142,1766859282.051982,-806.15234375,-67.3828125,-115.234375,-231.4453125,0.0,0,0
1766859282.089152,1766859282.055878,-233.88671875,-64.453125,89.35546875,116.69921875,0.0,0,0
1766859282.089207,1766859282.0597742,692.3828125,7.32421875,149.4140625,267.08984375,0.0,0,0
1766859282.089252,1766859282.0636702,661.62109375,2.44140625,-77.63671875,-29.296875,0.0,0,0
1766859282.0892968,1766859282.0675662,-123.53515625,-17.08984375,-243.65234375,-295.8984375,0.0,0,0
1766859282.089354,1766859282.0714624,-833.984375,-28.80859375,-157.2265625,-250.0,0.0,0,0
1766859282.1493142,1766859282.0754259,-428.22265625,-16.11328125,64.94140625,69.82421875,0.0,0,0
1766859282.1494882,1766859282.0793219,487.79296875,-6.8359375,139.16015625,267.08984375,0.0,0,0
1766859282.149533,1766859282.083218,773.92578125,-18.5546875,-70.80078125,28.3203125,0.0,0,0
1766859282.1495721,1766859282.087114,71.77734375,-35.64453125,-231.4453125,-245.1171875,0.0,0,0
1766859282.149611,1766859282.0910103,-723.6328125,-38.0859375,-169.921875,-237.3046875,0.0,0,0
1766859282.149649,1766859282.0949063,-497.0703125,-19.04296875,70.3125,58.10546875,0.0,0,0
1766859282.149686,1766859282.0988026,354.00390625,-16.11328125,184.08203125,274.90234375,0.0,0,0
1766859282.149725,1766859282.1026986,790.0390625,-15.13671875,-16.6015625,75.68359375,0.0,0,0
1766859282.149761,1766859282.1065948,170.8984375,-21.97265625,-200.68359375,-216.796875,0.0,0,0
1766859282.149798,1766859282.1104908,-671.875,-31.73828125,-174.8046875,-262.20703125,0.0,0,0
1766859282.149834,1766859282.1143868,-621.09375,-23.4375,31.25,15.625,0.0,0,0
1766859282.149871,1766859282.118283,200.68359375,-11.23046875,157.71484375,255.37109375,0.0,0,0
1766859282.193791,1766859282.122315,871.58203125,-8.30078125,29.296875,132.8125,0.0,0,0
1766859282.1939268,1766859282.126211,365.234375,-21.484375,-166.9921875,-166.9921875,0.0,0,0
1766859282.19397,1766859282.1301072,-595.703125,-49.8046875,-205.078125,-276.85546875,0.0,0,0
1766859282.194009,1766859282.1340032,-755.37109375,-61.03515625,-1.953125,-27.83203125,0.0,0,0
1766859282.194047,1766859282.1378994,24.90234375,-29.78515625,150.390625,231.93359375,0.0,0,0
1766859282.194092,1766859282.1417954,822.75390625,-10.7421875,59.08203125,162.109375,0.0,0,0
1766859282.1941319,1766859282.1456916,491.2109375,-21.484375,-147.4609375,-139.6484375,0.0,0,0
1766859282.194169,1766859282.1495879,-444.82421875,-34.66796875,-214.35546875,-285.15625,0.0,0,0
1766859282.194206,1766859282.1534839,-891.6015625,-40.0390625,-28.3203125,-78.125,0.0,0,0
1766859282.194243,1766859282.15738,-189.94140625,-44.43359375,130.37109375,176.7578125,0.0,0,0
1766859282.19428,1766859282.161276,784.1796875,-31.25,89.35546875,192.87109375,0.0,0,0
1766859282.1943161,1766859282.1651723,725.5859375,-17.08984375,-90.8203125,-67.3828125,0.0,0,0
1766859282.282397,1766859282.1693537,-155.76171875,-37.59765625,-188.4765625,-274.4140625,0.0,0,0
1766859282.282512,1766859282.17325,-979.00390625,-42.96875,-62.5,-151.3671875,0.0,0,0
1766859282.28254,1766859282.1771462,-432.6171875,-25.390625,97.65625,114.2578125,0.0,0,0
1766859282.282568,1766859282.1810424,665.52734375,-17.578125,105.46875,205.56640625,0.0,0,0
1766859282.282593,1766859282.1849384,885.25390625,-25.87890625,-79.58984375,-5.859375,0.0,0,0
1766859282.282617,1766859282.1888347,98.6328125,-39.55078125,-192.3828125,-218.26171875,0.0,0,0
1766859282.282642,1766859282.192731,-960.44921875,-40.52734375,-95.21484375,-195.3125,0.0,0,0
1766859282.282666,1766859282.196627,-644.04296875,-27.83203125,60.05859375,45.41015625,0.0,0,0
1766859282.28269,1766859282.2005231,422.8515625,-42.48046875,113.28125,204.58984375,0.0,0,0
1766859282.2827141,1766859282.2044194,942.3828125,-68.84765625,-31.25,50.78125,0.0,0,0
1766859282.2827368,1766859282.2083156,283.69140625,-45.8984375,-161.1328125,-174.31640625,0.0,0,0
1766859282.2827609,1766859282.2122116,-862.3046875,-49.31640625,-122.0703125,-229.00390625,0.0,0,0
1766859282.283993,1766859282.2162325,-770.99609375,-49.31640625,28.80859375,-19.04296875,0.0,0,0
1766859282.284043,1766859282.2201288,275.87890625,-23.92578125,119.62890625,185.05859375,0.0,0,0
1766859282.2840672,1766859282.2240248,965.33203125,-19.04296875,-7.32421875,76.171875,0.0,0,0
1766859282.284091,1766859282.227921,403.3203125,-35.64453125,-138.671875,-134.765625,0.0,0,0
1766859282.2841148,1766859282.2318172,-784.1796875,-49.8046875,-148.4375,-245.1171875,0.0,0,0
1766859282.284139,1766859282.2357135,-927.734375,-34.66796875,-11.23046875,-70.3125,0.0,0,0
1766859282.284163,1766859282.2396097,74.21875,-15.13671875,112.3046875,153.3203125,0.0,0,0
1766859282.2841861,1766859282.2435057,979.4921875,-14.16015625,23.92578125,104.00390625,0.0,0,0
1766859282.284211,1766859282.247402,493.1640625,-14.6484375,-119.140625,-103.515625,0.0,0,0
1766859282.284234,1766859282.2512982,-649.90234375,-27.83203125,-147.4609375,-234.375,0.0,0,0
1766859282.284566,1766859282.2551944,-997.55859375,-31.73828125,-9.27734375,-77.63671875,0.0,0,0
1766859282.2845929,1766859282.2590904,-120.1171875,-18.5546875,109.86328125,147.94921875,0.0,0,0
1766859282.3279748,1766859282.2630908,957.51953125,-13.18359375,41.50390625,134.27734375,0.0,0,0
1766859282.3281112,1766859282.266987,603.02734375,-20.99609375,-94.7265625,-85.9375,0.0,0,0
1766859282.3281448,1766859282.2708833,-503.90625,-27.83203125,-146.484375,-241.2109375,0.0,0,0
1766859282.328176,1766859282.2747796,-1000.0,-47.36328125,-35.64453125,-114.74609375,0.0,0,0
1766859282.328206,1766859282.2786756,-232.421875,-45.8984375,121.09375,134.765625,0.0,0,0
1766859282.328236,1766859282.2825718,952.63671875,-16.11328125,90.33203125,175.29296875,0.0,0,0
1766859282.328265,1766859282.286468,709.9609375,-16.6015625,-83.0078125,-51.7578125,0.0,0,0
1766859282.3282938,1766859282.2903643,-388.18359375,-35.15625,-159.66796875,-232.421875,0.0,0,0
1766859282.328325,1766859282.2942605,-1000.0,-44.43359375,-58.10546875,-145.99609375,0.0,0,0
1766859282.328359,1766859282.2981567,-353.02734375,-24.4140625,85.9375,75.1953125,0.0,0,0
1766859282.328395,1766859282.302053,831.54296875,-12.6953125,88.37890625,164.55078125,0.0,0,0
1766859282.328424,1766859282.305949,819.82421875,-22.94921875,-70.3125,-37.109375,0.0,0,0
1766859282.387188,1766859282.30994,-243.1640625,-32.71484375,-175.78125,-234.86328125,0.0,0,0
1766859282.3873332,1766859282.3138363,-1000.0,-41.9921875,-85.44921875,-175.29296875,0.0,0,0
1766859282.387386,1766859282.3177326,-454.58984375,-30.2734375,63.4765625,40.0390625,0.0,0,0
1766859282.3874629,1766859282.3216288,685.05859375,-7.32421875,85.9375,166.50390625,0.0,0,0
1766859282.387512,1766859282.325525,916.015625,-0.9765625,-48.33984375,4.8828125,0.0,0,0
1766859282.387554,1766859282.3294213,0.0,-9.27734375,-138.18359375,-193.359375,0.0,0,0
1766859282.38758,1766859282.3333175,-1000.0,-31.25,-72.75390625,-186.5234375,0.0,0,0
1766859282.387604,1766859282.3372138,-510.7421875,-5.859375,45.8984375,25.87890625,0.0,0,0
1766859282.387628,1766859282.3411098,609.375,10.7421875,83.49609375,193.84765625,0.0,0,0
1766859282.3876522,1766859282.345006,956.54296875,-14.16015625,-39.0625,38.57421875,0.0,0,0
1766859282.387676,1766859282.3489022,129.39453125,-31.73828125,-145.99609375,-190.4296875,0.0,0,0
1766859282.3877,1766859282.3527985,-1000.0,-55.6640625,-107.421875,-224.12109375,0.0,0,0
1766859282.418781,1766859282.3567786,-624.51171875,-43.45703125,43.9453125,11.71875,0.0,0,0
1766859282.4188879,1766859282.3606749,460.9375,-15.13671875,114.74609375,188.96484375,0.0,0,0
1766859282.4189298,1766859282.364571,962.40234375,-10.25390625,-14.6484375,45.41015625,0.0,0,0
1766859282.418967,1766859282.3684673,261.71875,-29.78515625,-141.11328125,-173.828125,0.0,0,0
1766859282.4189959,1766859282.3723636,-936.03515625,-42.48046875,-117.1875,-241.2109375,0.0,0,0
1766859282.419034,1766859282.3762598,-744.62890625,-25.87890625,39.0625,-26.3671875,0.0,0,0
1766859282.419064,1766859282.380156,284.66796875,-25.390625,118.1640625,171.38671875,0.0,0,0
1766859282.419088,1766859282.3840523,945.80078125,-49.8046875,-10.7421875,64.94140625,0.0,0,0
1766859282.419111,1766859282.3879485,350.5859375,-44.43359375,-148.4375,-160.64453125,0.0,0,0
1766859282.419135,1766859282.3918447,-847.16796875,-41.50390625,-137.20703125,-248.53515625,0.0,0,0
1766859282.419159,1766859282.395741,-883.7890625,-49.8046875,22.94921875,-44.921875,0.0,0,0
1766859282.419183,1766859282.3996372,129.8828125,-30.2734375,124.51171875,165.52734375,0.0,0,0
1766859282.462924,1766859282.403609,979.4921875,-8.7890625,10.25390625,80.56640625,0.0,0,0
1766859282.4630651,1766859282.4075053,443.359375,-23.92578125,-133.7890625,-145.5078125,0.0,0,0
1766859282.4630988,1766859282.4114015,-735.83984375,-43.45703125,-152.83203125,-247.55859375,0.0,0,0
1766859282.463132,1766859282.4152977,-926.7578125,-47.36328125,12.20703125,-39.0625,0.0,0,0
1766859282.4631622,1766859282.419194,36.62109375,-33.69140625,138.18359375,195.80078125,0.0,0,0
1766859282.463192,1766859282.4230902,978.02734375,-11.23046875,23.92578125,120.1171875,0.0,0,0
1766859282.463222,1766859282.4269865,473.6328125,-53.22265625,-131.34765625,-133.7890625,0.0,0,0
1766859282.4632509,1766859282.4308827,-676.26953125,-74.70703125,-154.78515625,-264.16015625,0.0,0,0
1766859282.463281,1766859282.434779,-970.703125,-33.203125,5.37109375,-64.453125,0.0,0,0
1766859282.46331,1766859282.4386752,-75.68359375,-21.484375,140.625,184.5703125,0.0,0,0
1766859282.463339,1766859282.4425714,977.5390625,-15.625,43.45703125,130.859375,0.0,0,0
1766859282.463367,1766859282.4464676,572.75390625,-25.390625,-128.41796875,-132.8125,0.0,0,0
1766859282.523947,1766859282.4504316,-547.36328125,-44.921875,-163.57421875,-270.99609375,0.0,0,0
1766859282.524129,1766859282.4543278,-998.046875,-41.9921875,-1.46484375,-83.49609375,0.0,0,0
1766859282.524189,1766859282.458224,-179.19921875,-23.92578125,135.7421875,166.015625,0.0,0,0
1766859282.5242429,1766859282.4621203,928.7109375,-20.01953125,54.19921875,170.8984375,0.0,0,0
1766859282.524296,1766859282.4660165,633.7890625,-19.04296875,-127.44140625,-89.35546875,0.0,0,0
1766859282.5243468,1766859282.4699128,-434.08203125,-42.48046875,-167.96875,-261.23046875,0.0,0,0
1766859282.524399,1766859282.473809,-1000.0,-69.82421875,-5.37109375,-84.9609375,0.0,0,0
1766859282.524449,1766859282.4777052,-294.921875,-38.57421875,121.58203125,155.76171875,0.0,0,0
1766859282.524501,1766859282.4816015,846.6796875,-13.18359375,72.265625,174.8046875,0.0,0,0
1766859282.5245519,1766859282.4854977,687.98828125,-21.484375,-115.234375,-104.00390625,0.0,0,0
1766859282.524603,1766859282.489394,-356.4453125,-24.90234375,-188.4765625,-297.36328125,0.0,0,0
1766859282.524655,1766859282.4932902,-1000.0,-21.484375,-11.71875,-111.81640625,0.0,0,0
1766859282.582597,1766859282.4973276,-277.83203125,-23.4375,139.6484375,175.29296875,0.0,0,0
1766859282.582728,1766859282.5012238,859.86328125,-12.6953125,107.91015625,224.609375,0.0,0,0
1766859282.5827572,1766859282.50512,617.1875,-12.6953125,-112.79296875,-95.21484375,0.0,0,0
1766859282.582788,1766859282.5090163,-491.2109375,-45.8984375,-245.60546875,-342.28515625,0.0,0,0
1766859282.582814,1766859282.5129125,-988.28125,-60.546875,-42.48046875,-120.60546875,0.0,0,0
1766859282.5828428,1766859282.5168087,-127.44140625,-25.390625,163.57421875,203.61328125,0.0,0,0
1766859282.582919,1766859282.520705,852.05078125,-3.41796875,129.39453125,242.67578125,0.0,0,0
1766859282.5829482,1766859282.5246015,523.92578125,-17.08984375,-123.53515625,-89.35546875,0.0,0,0
1766859282.583004,1766859282.5284977,-463.37890625,-32.2265625,-246.09375,-343.75,0.0,0,0
1766859282.583053,1766859282.532394,-914.0625,-28.80859375,-44.921875,-147.94921875,0.0,0,0
1766859282.583081,1766859282.5362902,-104.98046875,-8.30078125,158.69140625,206.54296875,0.0,0,0
1766859282.5831199,1766859282.5401864,824.70703125,-5.37109375,134.765625,282.71484375,0.0,0,0
1766859282.612768,1766859282.5442038,511.71875,-23.4375,-122.55859375,-89.84375,0.0,0,0
1766859282.612882,1766859282.5481002,-399.4140625,-41.9921875,-253.90625,-365.72265625,0.0,0,0
1766859282.612916,1766859282.5519965,-864.2578125,-36.62109375,-70.3125,-191.89453125,0.0,0,0
1766859282.612958,1766859282.5558927,-207.51953125,-28.3203125,143.06640625,147.94921875,0.0,0,0
1766859282.612992,1766859282.559789,739.74609375,-23.4375,164.55078125,269.53125,0.0,0,0
1766859282.613025,1766859282.5636854,616.69921875,-19.04296875,-82.03125,-48.828125,0.0,0,0
1766859282.613058,1766859282.5675817,-296.875,-36.1328125,-248.046875,-345.21484375,0.0,0,0
1766859282.613154,1766859282.571478,-914.0625,-37.59765625,-125.0,-252.9296875,0.0,0,0
1766859282.613195,1766859282.5753741,-370.1171875,-30.2734375,102.5390625,108.88671875,0.0,0,0
1766859282.613245,1766859282.5792704,581.54296875,-30.76171875,160.15625,278.3203125,0.0,0,0
1766859282.6132858,1766859282.5831668,738.28125,-20.99609375,-82.51953125,-7.8125,0.0,0,0
1766859282.613342,1766859282.587063,35.64453125,-36.1328125,-230.95703125,-278.3203125,0.0,0,0
1766859282.65795,1766859282.5910726,-698.73046875,-43.45703125,-130.859375,-251.953125,0.0,0,0
1766859282.6583722,1766859282.5949688,-671.38671875,-35.64453125,58.59375,19.53125,0.0,0,0
1766859282.658402,1766859282.5988653,155.76171875,-22.4609375,143.06640625,227.05078125,0.0,0,0
1766859282.658428,1766859282.6027615,934.08203125,-6.8359375,-12.6953125,72.265625,0.0,0,0
1766859282.658453,1766859282.6066577,350.09765625,-16.11328125,-169.43359375,-202.1484375,0.0,0,0
1766859282.658477,1766859282.6105542,-725.5859375,-32.71484375,-148.4375,-278.3203125,0.0,0,0
1766859282.6585011,1766859282.6144505,-818.84765625,-26.3671875,29.296875,-36.1328125,0.0,0,0
1766859282.658525,1766859282.6183467,59.5703125,-17.08984375,159.66796875,221.19140625,0.0,0,0
1766859282.6585479,1766859282.622243,931.15234375,-33.69140625,20.99609375,111.328125,0.0,0,0
1766859282.658572,1766859282.6261394,401.85546875,-51.7578125,-183.59375,-201.66015625,0.0,0,0
1766859282.658595,1766859282.6300356,-622.0703125,-48.33984375,-189.94140625,-299.31640625,0.0,0,0
1766859282.658619,1766859282.6339319,-802.734375,-38.0859375,11.23046875,-38.57421875,0.0,0,0
1766859282.704119,1766859282.637935,-24.90234375,-23.4375,143.5546875,218.26171875,0.0,0,0
1766859282.704274,1766859282.6418312,856.93359375,-4.8828125,48.828125,146.484375,0.0,0,0
1766859282.70432,1766859282.6457274,503.90625,-11.71875,-138.18359375,-153.3203125,0.0,0,0
1766859282.7043588,1766859282.6496239,-496.09375,-34.1796875,-188.4765625,-301.26953125,0.0,0,0
1766859282.704397,1766859282.65352,-849.12109375,-31.73828125,1.953125,-72.265625,0.0,0,0
1766859282.704433,1766859282.6574166,-110.3515625,-21.97265625,151.85546875,193.84765625,0.0,0,0
1766859282.704471,1766859282.6613128,823.2421875,-19.53125,73.73046875,176.7578125,0.0,0,0
1766859282.7045069,1766859282.665209,547.36328125,-20.5078125,-153.80859375,-128.41796875,0.0,0,0
1766859282.704545,1766859282.6691055,-402.83203125,-27.34375,-233.88671875,-312.98828125,0.0,0,0
1766859282.704581,1766859282.6730018,-905.2734375,-39.0625,-26.85546875,-100.5859375,0.0,0,0
1766859282.704617,1766859282.676898,-195.3125,-22.4609375,151.85546875,176.7578125,0.0,0,0
1766859282.704653,1766859282.6807945,757.32421875,-11.71875,109.375,204.1015625,0.0,0,0
1766859282.748019,1766859282.6847837,611.81640625,-28.3203125,-109.375,-93.75,0.0,0,0
1766859282.748147,1766859282.68868,-231.4453125,-32.71484375,-215.33203125,-308.59375,0.0,0,0
1766859282.748178,1766859282.6925762,-937.01171875,-23.4375,-40.0390625,-136.23046875,0.0,0,0
1766859282.748204,1766859282.6964726,-375.48828125,-25.390625,144.53125,144.53125,0.0,0,0
1766859282.748229,1766859282.700369,628.41796875,-22.94921875,124.51171875,214.84375,0.0,0,0
1766859282.748254,1766859282.7042654,689.453125,-27.34375,-92.28515625,-57.6171875,0.0,0,0
1766859282.748278,1766859282.7081616,-98.6328125,-37.109375,-222.65625,-287.59765625,0.0,0,0
1766859282.748302,1766859282.7120578,-979.98046875,-69.82421875,-105.46875,-190.4296875,0.0,0,0
1766859282.748327,1766859282.7159543,-509.765625,-59.08203125,95.703125,106.93359375,0.0,0,0
1766859282.7483509,1766859282.7198505,559.08203125,-17.578125,133.30078125,246.58203125,0.0,0,0
1766859282.748375,1766859282.723747,753.90625,-27.83203125,-78.125,-15.13671875,0.0,0,0
1766859282.748399,1766859282.7276433,-5.37109375,-45.8984375,-222.16796875,-283.69140625,0.0,0,0
1766859282.795646,1766859282.7316437,-905.2734375,-45.8984375,-114.74609375,-226.5625,0.0,0,0
1766859282.795733,1766859282.73554,-571.2890625,-23.92578125,97.16796875,88.37890625,0.0,0,0
1766859282.7957609,1766859282.7394364,486.328125,-11.71875,155.76171875,262.6953125,0.0,0,0
1766859282.795786,1766859282.7433326,815.4296875,-21.484375,-60.546875,15.13671875,0.0,0,0
1766859282.79581,1766859282.747229,81.54296875,-40.0390625,-221.6796875,-259.27734375,0.0,0,0
1766859282.795834,1766859282.7511253,-773.92578125,-41.50390625,-135.7421875,-238.28125,0.0,0,0
1766859282.7958589,1766859282.7550218,-567.87109375,-41.50390625,80.078125,62.5,0.0,0,0
1766859282.795883,1766859282.758918,377.9296875,-45.41015625,159.1796875,256.8359375,0.0,0,0
1766859282.7959082,1766859282.7628145,845.21484375,-27.34375,-45.8984375,28.80859375,0.0,0,0
1766859282.7959318,1766859282.7667108,83.0078125,-31.25,-220.21484375,-272.4609375,0.0,0,0
1766859282.795956,1766859282.7706072,-823.73046875,-40.52734375,-166.015625,-289.0625,0.0,0,0
1766859282.79598,1766859282.7745035,-645.01953125,-30.76171875,63.96484375,21.97265625,0.0,0,0
1766859282.86942,1766859282.778631,320.80078125,-16.6015625,182.6171875,269.53125,0.0,0,0
1766859282.869576,1766859282.7825272,915.52734375,-8.7890625,-2.44140625,92.28515625,0.0,0,0
1766859282.869623,1766859282.7864237,220.703125,-21.97265625,-195.80078125,-233.88671875,0.0,0,0
1766859282.869662,1766859282.7903202,-767.578125,-34.66796875,-191.40625,-311.5234375,0.0,0,0
1766859282.8697002,1766859282.7942164,-715.33203125,-21.484375,35.15625,-0.9765625,0.0,0,0
1766859282.869738,1766859282.7981129,239.74609375,4.39453125,194.3359375,275.87890625,0.0,0,0
1766859282.8697758,1766859282.8020093,894.04296875,-19.04296875,32.71484375,130.37109375,0.0,0,0
1766859282.869814,1766859282.8059056,274.90234375,-52.734375,-185.05859375,-206.0546875,0.0,0,0
1766859282.8698509,1766859282.809802,-674.8046875,-53.22265625,-196.77734375,-326.171875,0.0,0,0
1766859282.869888,1766859282.8136983,-852.5390625,-51.26953125,11.71875,-56.15234375,0.0,0,0
1766859282.869925,1766859282.8175948,34.66796875,-25.87890625,185.05859375,233.88671875,0.0,0,0
1766859282.869962,1766859282.8214912,929.19921875,-12.20703125,85.9375,177.24609375,0.0,0,0
1766859282.899335,1766859282.825456,465.33203125,-27.34375,-162.109375,-150.87890625,0.0,0,0
1766859282.89956,1766859282.8293524,-504.8828125,-34.66796875,-220.21484375,-313.4765625,0.0,0,0
1766859282.899621,1766859282.8332489,-914.55078125,-30.2734375,-10.7421875,-81.54296875,0.0,0,0
1766859282.8996758,1766859282.837145,-168.9453125,-18.06640625,158.203125,201.171875,0.0,0,0
1766859282.8997278,1766859282.8410416,782.71484375,-11.23046875,87.40234375,201.171875,0.0,0,0
1766859282.89978,1766859282.844938,601.07421875,-17.08984375,-124.0234375,-96.19140625,0.0,0,0
1766859282.900285,1766859282.8488343,-255.859375,-21.484375,-197.75390625,-291.9921875,0.0,0,0
1766859282.900317,1766859282.8527308,-979.4921875,-32.2265625,-33.69140625,-124.51171875,0.0,0,0
1766859282.900342,1766859282.8566272,-400.390625,-20.99609375,138.18359375,155.76171875,0.0,0,0
1766859282.900367,1766859282.8605235,658.69140625,-13.671875,122.0703125,229.00390625,0.0,0,0
1766859282.9003909,1766859282.86442,750.9765625,-32.2265625,-99.609375,-44.921875,0.0,0,0
1766859282.900414,1766859282.8683164,-102.5390625,-53.7109375,-231.4453125,-290.0390625,0.0,0,0
1766859282.943297,1766859282.8723438,-1000.0,-51.26953125,-86.9140625,-192.87109375,0.0,0,0
1766859282.9434218,1766859282.8762403,-552.734375,-59.5703125,114.74609375,96.6796875,0.0,0,0
1766859282.9434502,1766859282.8801367,515.625,-53.22265625,135.7421875,222.65625,0.0,0,0
1766859282.943479,1766859282.8840332,879.39453125,-9.765625,-69.82421875,-11.23046875,0.0,0,0
1766859282.9435039,1766859282.8879294,121.58203125,-32.2265625,-208.0078125,-259.27734375,0.0,0,0
1766859282.943529,1766859282.891826,-916.015625,-55.6640625,-95.703125,-213.37890625,0.0,0,0
1766859282.943555,1766859282.8957224,-672.8515625,-41.015625,87.40234375,59.5703125,0.0,0,0
1766859282.9435892,1766859282.8996189,354.4921875,-27.34375,124.0234375,212.890625,0.0,0,0
1766859282.943614,1766859282.903515,921.38671875,-16.6015625,-61.5234375,8.30078125,0.0,0,0
1766859282.943638,1766859282.9074116,242.1875,-60.05859375,-208.984375,-240.234375,0.0,0,0
1766859282.9436622,1766859282.911308,-847.65625,-59.08203125,-133.7890625,-237.3046875,0.0,0,0
1766859282.943687,1766859282.9152045,-765.625,-8.30078125,73.73046875,28.80859375,0.0,0,0
1766859282.9894242,1766859282.9192243,215.33203125,-7.8125,159.66796875,220.703125,0.0,0,0
1766859282.989592,1766859282.9231207,947.75390625,-8.30078125,-28.3203125,52.24609375,0.0,0,0
1766859282.989645,1766859282.927017,380.37109375,-14.16015625,-196.2890625,-202.63671875,0.0,0,0
1766859282.989697,1766859282.9309134,-764.16015625,-30.2734375,-170.41015625,-266.6015625,0.0,0,0
1766859282.9901462,1766859282.93481,-850.09765625,-31.73828125,43.9453125,-20.5078125,0.0,0,0
1766859282.9902022,1766859282.9387064,118.65234375,-20.99609375,174.31640625,208.0078125,0.0,0,0
1766859282.990255,1766859282.9426029,976.5625,-23.4375,-0.48828125,81.54296875,0.0,0,0
1766859282.990317,1766859282.9464993,508.30078125,-17.08984375,-183.59375,-182.12890625,0.0,0,0
1766859282.990367,1766859282.9503956,-640.625,-67.87109375,-190.4296875,-274.90234375,0.0,0,0
1766859282.9904158,1766859282.954292,-973.14453125,-115.234375,18.06640625,-40.0390625,0.0,0,0
1766859282.990465,1766859282.9581885,-79.58984375,-28.80859375,175.29296875,205.56640625,0.0,0,0
1766859282.990516,1766859282.962085,937.98828125,-2.9296875,32.2265625,133.30078125,0.0,0,0
1766859283.033479,1766859282.9660938,558.59375,-20.99609375,-176.7578125,-131.8359375,0.0,0,0
1766859283.033623,1766859282.9699903,-524.4140625,-21.484375,-197.75390625,-272.94921875,0.0,0,0
1766859283.033667,1766859282.9738867,-988.28125,-26.3671875,0.9765625,-87.40234375,0.0,0,0
1766859283.033706,1766859282.9777832,-239.74609375,-26.85546875,147.94921875,163.57421875,0.0,0,0
1766859283.0337448,1766859282.9816797,880.37109375,-18.06640625,56.640625,153.80859375,0.0,0,0
1766859283.033782,1766859282.9855762,687.98828125,-18.06640625,-139.6484375,-111.81640625,0.0,0,0
1766859283.03382,1766859282.9894726,-375.9765625,-34.66796875,-209.47265625,-276.85546875,0.0,0,0
1766859283.033856,1766859282.993369,-1000.0,-33.69140625,-25.87890625,-99.12109375,0.0,0,0
1766859283.0338922,1766859282.9972656,-414.0625,-79.58984375,128.90625,141.6015625,0.0,0,0
1766859283.0339289,1766859283.0011618,756.34765625,-65.91796875,88.37890625,194.82421875,0.0,0,0
1766859283.033965,1766859283.0050583,787.59765625,-5.859375,-114.2578125,-52.24609375,0.0,0,0
1766859283.0340018,1766859283.0089548,-239.74609375,-28.3203125,-226.07421875,-269.53125,0.0,0,0
1766859283.0788789,1766859283.0129552,-1000.0,-39.55078125,-38.57421875,-119.62890625,0.0,0,0
1766859283.0790222,1766859283.0168517,-415.52734375,-20.99609375,139.6484375,149.90234375,0.0,0,0
1766859283.0790641,1766859283.0207481,709.47265625,1.46484375,114.2578125,214.35546875,0.0,0,0
1766859283.079102,1766859283.0246446,854.00390625,-12.20703125,-103.02734375,-42.96875,0.0,0,0
1766859283.079139,1766859283.028541,-20.99609375,-31.73828125,-224.609375,-259.765625,0.0,0,0
1766859283.079178,1766859283.0324376,-1000.0,-35.15625,-61.5234375,-163.57421875,0.0,0,0
1766859283.0792162,1766859283.036334,-497.55859375,-12.6953125,138.671875,106.4453125,0.0,0,0
1766859283.079254,1766859283.0402305,606.4453125,-34.1796875,122.55859375,227.05078125,0.0,0,0
1766859283.079297,1766859283.044127,907.2265625,-90.8203125,-110.83984375,5.859375,0.0,0,0
1766859283.0793421,1766859283.0480235,121.09375,-45.8984375,-227.05078125,-237.3046875,0.0,0,0
1766859283.079384,1766859283.05192,-991.2109375,-27.83203125,-89.84375,-200.68359375,0.0,0,0
1766859283.079435,1766859283.0558164,-618.1640625,-29.296875,128.41796875,88.8671875,0.0,0,0
1766859283.123671,1766859283.0598037,458.984375,-8.30078125,180.6640625,239.2578125,0.0,0,0
1766859283.123796,1766859283.0637004,919.921875,-21.97265625,-50.78125,7.8125,0.0,0,0
1766859283.12383,1766859283.067597,226.5625,-44.43359375,-208.984375,-245.1171875,0.0,0,0
1766859283.1238642,1766859283.0714934,-897.4609375,-43.45703125,-93.26171875,-231.4453125,0.0,0,0
1766859283.123895,1766859283.0753899,-720.703125,-32.2265625,116.2109375,44.43359375,0.0,0,0
1766859283.123925,1766859283.0792863,330.56640625,-20.01953125,180.6640625,235.83984375,0.0,0,0
1766859283.1239538,1766859283.0831828,967.7734375,-6.8359375,-35.15625,31.73828125,0.0,0,0
1766859283.1239831,1766859283.0870793,291.015625,-96.19140625,-213.8671875,-239.74609375,0.0,0,0
1766859283.124012,1766859283.0909758,-835.44921875,-117.1875,-143.5546875,-258.30078125,0.0,0,0
1766859283.124042,1766859283.0948722,-792.48046875,-22.4609375,94.23828125,18.06640625,0.0,0,0
1766859283.1240718,1766859283.0987687,191.40625,-8.7890625,203.125,240.234375,0.0,0,0
1766859283.1241002,1766859283.1026652,979.00390625,-12.20703125,-7.8125,80.56640625,0.0,0,0
1766859283.168303,1766859283.1066432,420.8984375,-26.3671875,-197.265625,-194.3359375,0.0,0,0
1766859283.16842,1766859283.1105397,-720.703125,-35.15625,-162.109375,-266.6015625,0.0,0,0
1766859283.168462,1766859283.1144364,-891.6015625,-33.203125,59.5703125,-17.08984375,0.0,0,0
1766859283.168501,1766859283.1183329,26.85546875,-22.94921875,188.4765625,225.09765625,0.0,0,0
1766859283.168538,1766859283.1222293,940.91796875,-27.34375,-4.39453125,108.3984375,0.0,0,0
1766859283.168576,1766859283.1261258,506.8359375,-21.484375,-204.58984375,-168.9453125,0.0,0,0
1766859283.1686358,1766859283.1300223,-591.30859375,-46.38671875,-197.75390625,-251.46484375,0.0,0,0
1766859283.168677,1766859283.1339188,-941.40625,-90.33203125,17.578125,-18.06640625,0.0,0,0
1766859283.168715,1766859283.1378152,-88.37890625,-30.76171875,187.5,215.8203125,0.0,0,0
1766859283.1687522,1766859283.1417117,934.08203125,-2.9296875,51.26953125,140.625,0.0,0,0
1766859283.168789,1766859283.1456082,575.1953125,-23.4375,-177.24609375,-153.80859375,0.0,0,0
1766859283.168863,1766859283.1495047,-474.12109375,-19.04296875,-195.3125,-287.59765625,0.0,0,0
1766859283.2131462,1766859283.153472,-934.08203125,-11.23046875,36.1328125,-58.59375,0.0,0,0
1766859283.2132459,1766859283.1573684,-159.66796875,-6.34765625,204.58984375,214.35546875,0.0,0,0
1766859283.213279,1766859283.161265,897.94921875,-3.90625,92.28515625,200.1953125,0.0,0,0
1766859283.2133088,1766859283.1651614,623.53515625,-25.87890625,-167.96875,-109.86328125,0.0,0,0
1766859283.2133381,1766859283.1690578,-395.5078125,-41.50390625,-229.98046875,-296.875,0.0,0,0
1766859283.213367,1766859283.1729543,-992.67578125,-8.7890625,13.18359375,-94.23828125,0.0,0,0
1766859283.213396,1766859283.1768508,-317.3828125,-57.6171875,189.94140625,178.7109375,0.0,0,0
1766859283.213425,1766859283.1807475,764.6484375,-72.265625,103.02734375,207.03125,0.0,0,0
1766859283.213453,1766859283.184644,692.87109375,-10.7421875,-145.5078125,-84.47265625,0.0,0,0
1766859283.213482,1766859283.1885405,-243.1640625,-26.3671875,-243.65234375,-294.921875,0.0,0,0
1766859283.213511,1766859283.192437,-1000.0,-35.15625,-31.73828125,-127.9296875,0.0,0,0
1766859283.21354,1766859283.1963334,-408.203125,-17.578125,172.8515625,166.9921875,0.0,0,0
1766859283.2722619,1766859283.2002943,706.0546875,-6.8359375,135.25390625,230.95703125,0.0,0,0
1766859283.272366,1766859283.204191,768.06640625,-25.390625,-119.140625,-64.94140625,0.0,0,0
1766859283.272394,1766859283.2080874,-103.02734375,-44.921875,-246.09375,-296.875,0.0,0,0
1766859283.272418,1766859283.211984,-1000.0,-45.41015625,-64.453125,-178.7109375,0.0,0,0
1766859283.272442,1766859283.2158804,-521.484375,-22.94921875,152.34375,119.62890625,0.0,0,0
1766859283.272466,1766859283.2197769,611.81640625,-25.390625,167.48046875,254.8828125,0.0,0,0
1766859283.272489,1766859283.2236733,860.3515625,-63.4765625,-85.9375,-11.23046875,0.0,0,0
1766859283.272513,1766859283.2275698,27.34375,-40.0390625,-253.90625,-285.64453125,0.0,0,0
1766859283.272536,1766859283.2314665,-965.33203125,-20.99609375,-109.86328125,-215.8203125,0.0,0,0
1766859283.272564,1766859283.235363,-582.51953125,-19.53125,128.41796875,100.5859375,0.0,0,0
1766859283.272587,1766859283.2392595,463.8671875,-11.23046875,173.828125,246.09375,0.0,0,0
1766859283.27261,1766859283.243156,855.95703125,-14.6484375,-80.078125,-11.71875,0.0,0,0
1766859283.317755,1766859283.247182,145.99609375,-30.2734375,-256.8359375,-273.92578125,0.0,0,0
1766859283.317843,1766859283.2510786,-883.7890625,-40.52734375,-142.08984375,-257.32421875,0.0,0,0
1766859283.317871,1766859283.254975,-676.7578125,-34.1796875,103.515625,43.9453125,0.0,0,0
1766859283.317896,1766859283.2588716,352.05078125,-27.83203125,182.6171875,260.7421875,0.0,0,0
1766859283.31792,1766859283.262768,958.0078125,-13.671875,-53.22265625,47.8515625,0.0,0,0
1766859283.317945,1766859283.2666647,273.4375,-59.08203125,-239.74609375,-250.9765625,0.0,0,0
1766859283.3179688,1766859283.2705612,-795.8984375,-70.3125,-172.36328125,-278.80859375,0.0,0,0
1766859283.3182201,1766859283.2744577,-744.62890625,-23.4375,79.58984375,22.4609375,0.0,0,0
1766859283.318253,1766859283.2783542,181.640625,-12.20703125,188.4765625,247.55859375,0.0,0,0
1766859283.3182771,1766859283.282251,921.875,-41.015625,-33.69140625,62.98828125,0.0,0,0
1766859283.318301,1766859283.2861474,360.3515625,-43.45703125,-225.09765625,-224.609375,0.0,0,0
1766859283.3183239,1766859283.2900438,-695.3125,-18.06640625,-189.94140625,-288.0859375,0.0,0,0
1766859283.362911,1766859283.2940605,-852.05078125,-19.53125,57.6171875,-17.08984375,0.0,0,0
1766859283.363035,1766859283.297957,71.2890625,-16.6015625,209.9609375,247.0703125,0.0,0,0
1766859283.363063,1766859283.3018537,-982.91015625,-7.32421875,31.73828125,139.6484375,0.0,0,0
1766859283.363088,1766859283.3057501,490.72265625,-12.6953125,-205.078125,-181.15234375,0.0,0,0
1766859283.3631139,1766859283.3096466,-625.48828125,-35.64453125,-222.16796875,-299.31640625,0.0,0,0
1766859283.36314,1766859283.3135433,-902.34375,-29.78515625,37.109375,-33.69140625,0.0,0,0
1766859283.363164,1766859283.3174398,-73.73046875,-8.30078125,220.703125,238.76953125,0.0,0,0
1766859283.363188,1766859283.3213363,894.53125,9.765625,62.5,168.9453125,0.0,0,0
1766859283.363211,1766859283.325233,526.3671875,-75.68359375,-194.3359375,-153.3203125,0.0,0,0
1766859283.3632362,1766859283.3291295,-507.32421875,-157.2265625,-226.07421875,-306.15234375,0.0,0,0
1766859283.3632598,1766859283.333026,-962.890625,-52.734375,23.4375,-68.359375,0.0,0,0
1766859283.363286,1766859283.3369224,-219.7265625,-1.46484375,209.9609375,218.75,0.0,0,0
1766859283.408929,1766859283.3409293,811.03515625,-5.37109375,98.14453125,207.03125,0.0,0,0
1766859283.409052,1766859283.344826,631.8359375,-16.6015625,-167.48046875,-112.3046875,0.0,0,0
1766859283.409079,1766859283.3487225,-337.40234375,-31.25,-246.58203125,-314.94140625,0.0,0,0
1766859283.4091048,1766859283.3526192,-1000.0,-33.203125,-15.13671875,-126.953125,0.0,0,0
1766859283.409132,1766859283.3565156,-359.86328125,-22.4609375,179.6875,173.828125,0.0,0,0
1766859283.4091551,1766859283.3604121,809.5703125,-7.32421875,145.99609375,245.60546875,0.0,0,0
1766859283.40918,1766859283.3643088,778.80859375,-11.71875,-111.328125,-61.03515625,0.0,0,0
1766859283.409204,1766859283.3682053,-183.59375,-12.20703125,-251.953125,-310.546875,0.0,0,0
1766859283.409228,1766859283.3721018,-1000.0,-72.265625,-47.8515625,-161.1328125,0.0,0,0
1766859283.409251,1766859283.3759985,-437.5,-67.87109375,171.875,148.4375,0.0,0,0
1766859283.4092748,1766859283.379895,632.8125,13.18359375,151.3671875,245.1171875,0.0,0,0
1766859283.409298,1766859283.3837914,766.6015625,-9.27734375,-108.3984375,-39.55078125,0.0,0,0
1766859283.46879,1766859283.3878727,-25.87890625,-38.0859375,-255.859375,-292.96875,0.0,0,0
1766859283.468907,1766859283.3917694,-981.93359375,-31.73828125,-91.30859375,-198.2421875,0.0,0,0
1766859283.468937,1766859283.395666,-561.5234375,-9.765625,147.94921875,110.83984375,0.0,0,0
1766859283.468962,1766859283.3995626,502.44140625,-2.9296875,168.9453125,249.51171875,0.0,0,0
1766859283.468987,1766859283.403459,862.79296875,-19.04296875,-97.16796875,-10.25390625,0.0,0,0
1766859283.469012,1766859283.4073558,150.390625,-34.66796875,-248.53515625,-271.484375,0.0,0,0
1766859283.469036,1766859283.4112523,-917.48046875,-28.3203125,-115.72265625,-249.0234375,0.0,0,0
1766859283.4690602,1766859283.415149,-697.265625,-64.453125,111.81640625,43.45703125,0.0,0,0
1766859283.4690828,1766859283.4190454,318.359375,-114.74609375,166.50390625,230.95703125,0.0,0,0
1766859283.469107,1766859283.4229422,936.03515625,-34.1796875,-62.5,28.3203125,0.0,0,0
1766859283.469134,1766859283.4268386,330.078125,-14.6484375,-222.65625,-218.26171875,0.0,0,0
1766859283.4691572,1766859283.430735,-822.265625,-36.62109375,-153.80859375,-250.0,0.0,0,0
1766859283.498882,1766859283.4347234,-814.453125,-19.53125,76.171875,1.953125,0.0,0,0
1766859283.499059,1766859283.43862,200.1953125,5.37109375,183.10546875,215.33203125,0.0,0,0
1766859283.499118,1766859283.4425166,983.88671875,14.16015625,-37.59765625,49.8046875,0.0,0,0
1766859283.4991732,1766859283.4464133,389.6484375,3.90625,-225.09765625,-220.21484375,0.0,0,0
1766859283.499226,1766859283.4503098,-701.66015625,-10.25390625,-182.6171875,-282.71484375,0.0,0,0
1766859283.499278,1766859283.4542065,-823.2421875,-5.37109375,52.734375,-14.16015625,0.0,0,0
1766859283.499336,1766859283.458103,69.3359375,11.23046875,173.828125,233.88671875,0.0,0,0
1766859283.4993868,1766859283.4619997,966.30859375,11.71875,-28.80859375,102.5390625,0.0,0,0
1766859283.499438,1766859283.4658964,489.2578125,-2.44140625,-237.3046875,-200.1953125,0.0,0,0
1766859283.499489,1766859283.4697928,-613.76953125,-15.625,-221.6796875,-308.10546875,0.0,0,0
1766859283.4995499,1766859283.4736896,-909.1796875,-16.6015625,28.3203125,-40.0390625,0.0,0,0
1766859283.4995992,1766859283.477586,-24.4140625,-17.578125,189.453125,233.3984375,0.0,0,0
1766859283.5493062,1766859283.4815714,985.3515625,-5.859375,33.203125,151.85546875,0.0,0,0
1766859283.551266,1766859283.4854681,554.6875,-9.765625,-201.66015625,-164.0625,0.0,0,0
1766859283.551446,1766859283.4893646,-515.625,-34.66796875,-226.07421875,-307.6171875,0.0,0,0
1766859283.5519779,1766859283.4932613,-974.12109375,-37.59765625,4.39453125,-65.4296875,0.0,0,0
1766859283.552403,1766859283.4971578,-202.1484375,-11.23046875,181.640625,217.7734375,0.0,0,0
1766859283.5524962,1766859283.5010545,880.37109375,2.44140625,72.75390625,193.84765625,0.0,0,0
1766859283.552877,1766859283.5049512,645.5078125,-23.92578125,-182.12890625,-132.8125,0.0,0,0
1766859283.552923,1766859283.5088477,-411.62109375,-52.24609375,-266.11328125,-330.078125,0.0,0,0
1766859283.5531578,1766859283.5127444,-1000.0,-30.2734375,-20.99609375,-97.65625,0.0,0,0
1766859283.55323,1766859283.516641,-306.640625,-4.8828125,182.6171875,191.89453125,0.0,0,0
1766859283.5532658,1766859283.5205376,762.6953125,-9.765625,93.75,201.66015625,0.0,0,0
1766859283.553299,1766859283.5244343,705.078125,-26.3671875,-164.0625,-99.609375,0.0,0,0
1766859283.5879521,1766859283.528402,-248.046875,-43.9453125,-267.578125,-324.21875,0.0,0,0
1766859283.588053,1766859283.5322986,-1000.0,-49.31640625,-46.38671875,-148.4375,0.0,0,0
1766859283.588081,1766859283.5361953,-409.1796875,-30.76171875,175.29296875,163.0859375,0.0,0,0
1766859283.588106,1766859283.540092,687.5,-11.71875,143.5546875,233.88671875,0.0,0,0
1766859283.5881312,1766859283.5439885,744.140625,-19.53125,-126.46484375,-62.98828125,0.0,0,0
1766859283.588199,1766859283.5478852,-88.8671875,-23.92578125,-253.90625,-300.29296875,0.0,0,0
1766859283.588286,1766859283.5517817,-1000.0,-42.48046875,-75.68359375,-178.22265625,0.0,0,0
1766859283.5884001,1766859283.5556784,-527.34375,-43.45703125,129.8828125,122.0703125,0.0,0,0
1766859283.588616,1766859283.559575,577.63671875,-9.27734375,142.08984375,241.2109375,0.0,0,0
1766859283.5886772,1766859283.5634716,871.09375,-0.9765625,-99.12109375,-25.390625,0.0,0,0
1766859283.5887208,1766859283.5673683,78.61328125,-20.5078125,-254.8828125,-289.55078125,0.0,0,0
1766859283.588748,1766859283.571265,-957.03125,-38.57421875,-116.2109375,-225.09765625,0.0,0,0
1766859283.6464388,1766859283.575272,-603.02734375,-29.296875,128.90625,95.21484375,0.0,0,0
1766859283.6464908,1766859283.5791688,463.8671875,-10.7421875,176.7578125,265.625,0.0,0,0
1766859283.646506,1766859283.5830655,932.6171875,-11.23046875,-62.98828125,24.90234375,0.0,0,0
1766859283.646519,1766859283.586962,231.93359375,-27.34375,-236.81640625,-249.51171875,0.0,0,0
1766859283.646532,1766859283.5908587,-872.0703125,-43.9453125,-148.92578125,-257.8125,0.0,0,0
1766859283.646544,1766859283.5947554,-742.1875,-32.2265625,101.07421875,40.0390625,0.0,0,0
1766859283.646556,1766859283.598652,277.34375,-20.99609375,199.70703125,263.18359375,0.0,0,0
1766859283.64657,1766859283.6025486,930.6640625,-21.484375,-45.8984375,41.9921875,0.0,0,0
1766859283.646581,1766859283.6064453,315.91796875,-25.390625,-228.515625,-238.28125,0.0,0,0
1766859283.646593,1766859283.610342,-763.18359375,-35.15625,-156.25,-262.20703125,0.0,0,0
1766859283.646605,1766859283.6142385,-790.52734375,-29.78515625,81.54296875,30.2734375,0.0,0,0
1766859283.646789,1766859283.6181352,158.69140625,-17.08984375,200.68359375,276.3671875,0.0,0,0
1766859283.694334,1766859283.622159,968.75,-20.99609375,-10.25390625,110.83984375,0.0,0,0
1766859283.6944158,1766859283.6260557,406.25,-30.76171875,-221.6796875,-209.47265625,0.0,0,0
1766859283.6944509,1766859283.6299522,-693.84765625,-39.55078125,-193.84765625,-302.734375,0.0,0,0
1766859283.6944818,1766859283.633849,-881.34765625,-29.78515625,55.6640625,-13.671875,0.0,0,0
1766859283.6945431,1766859283.6377456,-11.71875,-3.41796875,194.82421875,250.9765625,0.0,0,0
1766859283.694665,1766859283.6416423,970.703125,-4.39453125,15.625,151.85546875,0.0,0,0
1766859283.694706,1766859283.645539,566.40625,-18.06640625,-217.28515625,-145.01953125,0.0,0,0
1766859283.694776,1766859283.6494355,-482.421875,-23.92578125,-227.05078125,-257.32421875,0.0,0,0
1766859283.694828,1766859283.6533322,-904.296875,-25.87890625,18.06640625,-11.23046875,0.0,0,0
1766859283.694891,1766859283.657229,-134.765625,-17.08984375,168.9453125,253.41796875,0.0,0,0
1766859283.6949792,1766859283.6611257,935.05859375,0.0,40.52734375,222.65625,0.0,0,0
1766859283.695189,1766859283.6650221,665.0390625,-3.41796875,-187.5,-79.1015625,0.0,0,0
1766859283.782961,1766859283.669269,-400.87890625,-30.76171875,-247.55859375,-263.18359375,0.0,0,0
1766859283.783047,1766859283.6731658,-1000.0,-31.25,-7.8125,-49.31640625,0.0,0,0
1766859283.7830741,1766859283.6770625,-331.54296875,-11.71875,173.828125,214.84375,0.0,0,0
1766859283.783099,1766859283.6809592,782.2265625,-8.30078125,73.73046875,214.35546875,0.0,0,0
1766859283.783124,1766859283.684856,745.1171875,-19.53125,-163.0859375,-73.2421875,0.0,0,0
1766859283.783148,1766859283.6887527,-225.09765625,-29.78515625,-249.51171875,-293.9453125,0.0,0,0
1766859283.7831721,1766859283.6926494,-1000.0,-30.76171875,-30.76171875,-106.93359375,0.0,0,0
1766859283.7831948,1766859283.696546,-439.453125,-19.53125,144.04296875,178.7109375,0.0,0,0
1766859283.783218,1766859283.7004428,655.2734375,-17.578125,94.7265625,232.91015625,0.0,0,0
1766859283.783242,1766859283.7043395,797.36328125,-33.203125,-133.30078125,-43.9453125,0.0,0,0
1766859283.783272,1766859283.7082362,-85.9375,-33.203125,-264.16015625,-287.59765625,0.0,0,0
1766859283.783296,1766859283.712133,-1000.0,-33.69140625,-66.40625,-145.99609375,0.0,0,0
1766859283.7856991,1766859283.7161567,-521.484375,-33.69140625,152.34375,165.0390625,0.0,0,0
1766859283.7857652,1766859283.7200534,582.03125,-24.4140625,142.08984375,255.37109375,0.0,0,0
1766859283.785793,1766859283.7239501,864.74609375,-19.04296875,-104.98046875,-33.203125,0.0,0,0
1766859283.7858188,1766859283.7278469,67.87109375,-30.76171875,-259.765625,-283.203125,0.0,0,0
1766859283.7858438,1766859283.7317436,-967.28515625,-45.41015625,-108.88671875,-193.84765625,0.0,0,0
1766859283.785868,1766859283.7356403,-610.3515625,-30.2734375,128.90625,117.67578125,0.0,0,0
1766859283.7858932,1766859283.739537,474.609375,-7.8125,168.9453125,265.13671875,0.0,0,0
1766859283.785917,1766859283.7434337,922.8515625,-12.6953125,-83.0078125,4.39453125,0.0,0,0
1766859283.785941,1766859283.7473304,218.26171875,-33.203125,-245.1171875,-257.8125,0.0,0,0
1766859283.785965,1766859283.7512271,-878.90625,-43.9453125,-111.81640625,-222.65625,0.0,0,0
1766859283.785988,1766859283.7551239,-731.4453125,-27.34375,117.1875,74.21875,0.0,0,0
1766859283.786012,1766859283.7590208,293.9453125,-13.671875,174.31640625,264.16015625,0.0,0,0
1766859283.828898,1766859283.7630167,937.01171875,-25.87890625,-71.77734375,22.94921875,0.0,0,0
1766859283.8290172,1766859283.7669134,312.5,-37.59765625,-250.9765625,-257.8125,0.0,0,0
1766859283.829046,1766859283.7708101,-772.94921875,-31.25,-157.2265625,-248.53515625,0.0,0,0
1766859283.829071,1766859283.7747068,-828.125,-19.04296875,81.54296875,40.52734375,0.0,0,0
1766859283.829099,1766859283.7786036,152.34375,-9.765625,191.40625,256.8359375,0.0,0,0
1766859283.8291242,1766859283.7825003,-984.86328125,-11.23046875,-12.20703125,79.58984375,0.0,0,0
1766859283.8291478,1766859283.786397,416.9921875,-13.671875,-209.9609375,-213.8671875,0.0,0,0
1766859283.829172,1766859283.790294,-713.37890625,-48.33984375,-177.24609375,-280.2734375,0.0,0,0
1766859283.8291972,1766859283.7941906,-880.37109375,-141.6015625,61.5234375,5.859375,0.0,0,0
1766859283.829221,1766859283.7980874,53.22265625,-105.46875,200.68359375,263.18359375,0.0,0,0
1766859283.8292449,1766859283.801984,981.4453125,-14.6484375,7.32421875,105.95703125,0.0,0,0
1766859283.829268,1766859283.8058808,507.8125,-23.92578125,-209.9609375,-203.61328125,0.0,0,0
1766859283.87281,1766859283.8098662,-601.5625,-29.78515625,-198.2421875,-293.9453125,0.0,0,0
1766859283.8729339,1766859283.813763,-911.1328125,-17.08984375,42.48046875,-23.92578125,0.0,0,0
1766859283.8729758,1766859283.8176599,-65.4296875,-6.34765625,201.66015625,245.60546875,0.0,0,0
1766859283.873002,1766859283.8215566,922.36328125,-11.71875,52.734375,159.66796875,0.0,0,0
1766859283.873027,1766859283.8254533,599.609375,-31.73828125,-185.05859375,-157.2265625,0.0,0,0
1766859283.873054,1766859283.82935,-436.5234375,-40.0390625,-205.56640625,-293.9453125,0.0,0,0
1766859283.873079,1766859283.8332467,-981.93359375,-28.80859375,10.7421875,-63.4765625,0.0,0,0
1766859283.87313,1766859283.8371434,-285.15625,-43.45703125,167.96875,208.49609375,0.0,0,0
1766859283.873167,1766859283.8410404,853.02734375,-26.85546875,77.1484375,187.01171875,0.0,0,0
1766859283.873193,1766859283.844937,698.2421875,-2.44140625,-148.4375,-124.0234375,0.0,0,0
1766859283.873217,1766859283.8488338,-317.3828125,-33.203125,-216.796875,-304.19921875,0.0,0,0
1766859283.8732412,1766859283.8527305,-1000.0,-37.109375,0.48828125,-93.75,0.0,0,0
1766859283.917739,1766859283.8567057,-363.28125,-15.13671875,173.33984375,199.70703125,0.0,0,0
1766859283.917826,1766859283.8606024,770.5078125,-2.44140625,104.00390625,230.95703125,0.0,0,0
1766859283.9178529,1766859283.864499,730.95703125,-12.20703125,-135.7421875,-94.7265625,0.0,0,0
1766859283.917878,1766859283.868396,-211.9140625,-28.3203125,-234.86328125,-324.21875,0.0,0,0
1766859283.9179032,1766859283.8722928,-1000.0,-28.3203125,-32.2265625,-133.30078125,0.0,0,0
1766859283.9179258,1766859283.8761895,-430.6640625,-11.71875,159.66796875,172.8515625,0.0,0,0
1766859283.91795,1766859283.8800862,696.77734375,-5.37109375,134.765625,228.02734375,0.0,0,0
1766859283.917974,1766859283.8839831,798.828125,-24.90234375,-122.55859375,-83.49609375,0.0,0,0
1766859283.9179971,1766859283.8878798,-74.70703125,-40.0390625,-266.6015625,-326.171875,0.0,0,0
1766859283.9180212,1766859283.8917766,-1000.0,-41.9921875,-76.66015625,-183.10546875,0.0,0,0
1766859283.91808,1766859283.8956733,-485.3515625,-20.99609375,159.1796875,145.01953125,0.0,0,0
1766859283.918118,1766859283.89957,640.13671875,-5.37109375,172.8515625,264.16015625,0.0,0,0
1766859283.963976,1766859283.9035387,866.69921875,-15.625,-85.44921875,-28.3203125,0.0,0,0
1766859283.964118,1766859283.9074357,47.36328125,-32.71484375,-251.953125,-295.41015625,0.0,0,0
1766859283.964162,1766859283.9113324,-956.54296875,-43.45703125,-102.5390625,-215.8203125,0.0,0,0
1766859283.964201,1766859283.915229,-594.7265625,-33.203125,145.01953125,108.3984375,0.0,0,0
1766859283.964243,1766859283.9191258,480.46875,-16.6015625,187.01171875,272.94921875,0.0,0,0
1766859283.964281,1766859283.9230227,909.66796875,-10.25390625,-60.546875,5.37109375,0.0,0,0
1766859283.964319,1766859283.9269195,177.734375,-34.66796875,-242.67578125,-279.78515625,0.0,0,0
1766859283.9643562,1766859283.9308162,-917.48046875,-56.15234375,-156.25,-249.51171875,0.0,0,0
1766859283.964393,1766859283.934713,-724.12109375,-27.34375,91.796875,70.80078125,0.0,0,0
1766859283.9644291,1766859283.9386098,305.6640625,-5.859375,177.734375,273.4375,0.0,0,0
1766859283.964465,1766859283.9425066,927.24609375,-11.71875,-56.15234375,42.48046875,0.0,0,0
1766859283.964502,1766859283.9464033,273.4375,-38.57421875,-233.88671875,-243.65234375,0.0,0,0
1766859284.0231528,1766859283.9503615,-809.08203125,-49.8046875,-161.62109375,-263.671875,0.0,0,0
1766859284.023242,1766859283.9542582,-770.99609375,-27.83203125,91.30859375,41.015625,0.0,0,0
1766859284.023486,1766859283.9581552,211.9140625,-16.11328125,215.8203125,278.80859375,0.0,0,0
1766859284.023514,1766859283.9620519,-998.046875,-21.97265625,-5.37109375,85.9375,0.0,0,0
1766859284.0235388,1766859283.9659486,405.76171875,-20.5078125,-216.30859375,-219.23828125,0.0,0,0
1766859284.023564,1766859283.9698453,-683.59375,-42.96875,-181.15234375,-275.87890625,0.0,0,0
1766859284.023587,1766859283.9737422,-886.23046875,-79.58984375,51.7578125,3.41796875,0.0,0,0
1766859284.023612,1766859283.977639,-30.2734375,-39.55078125,191.40625,253.90625,0.0,0,0
1766859284.023635,1766859283.9815357,923.33984375,-17.08984375,16.11328125,115.234375,0.0,0,0
1766859284.023659,1766859283.9854326,487.3046875,-41.9921875,-200.68359375,-191.89453125,0.0,0,0
1766859284.023682,1766859283.9893293,-587.890625,-41.015625,-203.61328125,-297.36328125,0.0,0,0
1766859284.023705,1766859283.993226,-885.7421875,-26.85546875,44.43359375,-30.76171875,0.0,0,0
1766859284.0678778,1766859283.9972491,-91.796875,-18.06640625,199.70703125,239.74609375,0.0,0,0
1766859284.067992,1766859284.001146,884.765625,-20.5078125,51.7578125,164.0625,0.0,0,0
1766859284.068022,1766859284.0050428,573.73046875,-37.109375,-178.22265625,-155.2734375,0.0,0,0
1766859284.068047,1766859284.0089397,-500.9765625,-47.8515625,-236.328125,-337.40234375,0.0,0,0
1766859284.068071,1766859284.0128365,-1000.0,-35.64453125,-14.16015625,-106.4453125,0.0,0,0
1766859284.068095,1766859284.0167332,-278.80859375,-23.92578125,159.66796875,190.91796875,0.0,0,0
1766859284.068119,1766859284.0206301,802.24609375,-16.11328125,78.61328125,189.453125,0.0,0,0
1766859284.068144,1766859284.0245268,742.1875,-16.11328125,-144.53125,-112.79296875,0.0,0,0
1766859284.068167,1766859284.0284235,-172.36328125,-25.87890625,-214.84375,-291.50390625,0.0,0,0
1766859284.068191,1766859284.0323205,-1000.0,-89.84375,-22.94921875,-119.62890625,0.0,0,0
1766859284.0682151,1766859284.0362172,-464.84375,-64.94140625,139.16015625,134.765625,0.0,0,0
1766859284.068238,1766859284.0401142,688.4765625,16.6015625,110.3515625,212.890625,0.0,0,0
1766859284.114898,1766859284.0441291,881.8359375,5.859375,-105.95703125,-33.69140625,0.0,0,0
1766859284.11503,1766859284.0480258,-56.640625,-26.3671875,-222.65625,-282.2265625,0.0,0,0
1766859284.115072,1766859284.0519228,-1000.0,-29.296875,-28.3203125,-155.76171875,0.0,0,0
1766859284.115113,1766859284.0558195,-588.37890625,-25.390625,173.828125,132.32421875,0.0,0,0
1766859284.115198,1766859284.0597162,464.35546875,-20.5078125,158.69140625,209.47265625,0.0,0,0
1766859284.1153731,1766859284.0636132,884.765625,-1.953125,-47.8515625,-22.4609375,0.0,0,0
1766859284.115419,1766859284.06751,39.0625,-31.25,-201.66015625,-285.64453125,0.0,0,0
1766859284.1154869,1766859284.0714068,-1000.0,-36.62109375,-79.1015625,-276.85546875,0.0,0,0
1766859284.115656,1766859284.0753036,-680.6640625,-51.26953125,169.43359375,6.8359375,0.0,0,0
1766859284.1157289,1766859284.0792005,319.82421875,-90.8203125,237.3046875,160.64453125,0.0,0,0
1766859284.1157918,1766859284.0830972,848.6328125,-41.50390625,-5.37109375,-104.00390625,0.0,0,0
1766859284.1158268,1766859284.0869942,145.5078125,-22.94921875,-177.24609375,-361.81640625,0.0,0,0
1766859284.157822,1766859284.090999,-964.35546875,-24.4140625,-54.6875,-340.8203125,0.0,0,0
1766859284.157931,1766859284.0948958,-817.87109375,-24.90234375,174.8046875,-69.3359375,0.0,0,0
1766859284.1579578,1766859284.0987926,118.65234375,-13.18359375,277.34375,123.046875,0.0,0,0
1766859284.1579819,1766859284.1026895,844.7265625,5.37109375,89.35546875,-83.984375,0.0,0,0
1766859284.158006,1766859284.1065862,171.38671875,-27.34375,-103.515625,-362.3046875,0.0,0,0
1766859284.158029,1766859284.1104832,-983.3984375,-53.7109375,-48.828125,-409.66796875,0.0,0,0
1766859284.1580532,1766859284.11438,-922.36328125,-36.1328125,179.6875,-150.390625,0.0,0,0
1766859284.158085,1766859284.1182768,-40.52734375,-32.2265625,268.06640625,98.14453125,0.0,0,0
1766859284.158109,1766859284.1221735,852.05078125,-17.578125,59.08203125,-30.76171875,0.0,0,0
1766859284.158134,1766859284.1260705,315.4296875,-23.92578125,-119.62890625,-299.31640625,0.0,0,0
1766859284.158158,1766859284.1299672,-849.12109375,-62.01171875,-84.47265625,-386.71875,0.0,0,0
1766859284.158182,1766859284.1338642,-970.21484375,-73.2421875,132.32421875,-129.39453125,0.0,0,0
1766859284.20351,1766859284.137861,-102.05078125,-63.96484375,251.46484375,166.9921875,0.0,0,0
1766859284.20366,1766859284.1417577,899.4140625,-41.9921875,79.58984375,87.40234375,0.0,0,0
1766859284.203703,1766859284.1456547,489.2578125,-43.45703125,-112.3046875,-195.3125,0.0,0,0
1766859284.203743,1766859284.1495516,-675.78125,-55.6640625,-130.37109375,-310.05859375,0.0,0,0
1766859284.2037818,1766859284.1534483,-1000.0,-70.3125,75.1953125,-85.44921875,0.0,0,0
1766859284.203819,1766859284.1573453,-166.9921875,-65.91796875,230.95703125,195.80078125,0.0,0,0
1766859284.203857,1766859284.161242,896.97265625,-48.33984375,88.37890625,165.52734375,0.0,0,0
1766859284.203895,1766859284.165139,575.1953125,-59.08203125,-149.4140625,-108.3984375,0.0,0,0
1766859284.2039318,1766859284.1690357,-488.28125,-71.77734375,-202.63671875,-252.44140625,0.0,0,0
1766859284.20397,1766859284.1729326,-991.69921875,-80.078125,11.23046875,-73.2421875,0.0,0,0
1766859284.2040079,1766859284.1768293,-272.94921875,-67.87109375,174.8046875,191.89453125,0.0,0,0
1766859284.204045,1766859284.1807263,860.3515625,-41.50390625,94.23828125,237.3046875,0.0,0,0
1766859284.2493062,1766859284.1847134,644.53125,-50.78125,-139.6484375,-44.43359375,0.0,0,0
1766859284.2494779,1766859284.18861,-364.2578125,-60.05859375,-220.703125,-240.72265625,0.0,0,0
1766859284.249535,1766859284.192507,-988.28125,-47.8515625,-20.01953125,-75.1953125,0.0,0,0
1766859284.249574,1766859284.196404,-328.61328125,-40.52734375,145.99609375,187.5,0.0,0,0
1766859284.24962,1766859284.2003007,788.57421875,-40.0390625,98.6328125,265.625,0.0,0,0
1766859284.249656,1766859284.2041976,740.72265625,-40.0390625,-129.8828125,14.16015625,0.0,0,0
1766859284.2496939,1766859284.2080944,-242.1875,-45.8984375,-257.32421875,-237.3046875,0.0,0,0
1766859284.2497332,1766859284.2119913,-1000.0,-71.77734375,-80.56640625,-147.94921875,0.0,0,0
1766859284.249773,1766859284.2158883,-392.578125,-57.6171875,122.0703125,141.11328125,0.0,0,0
1766859284.24981,1766859284.219785,714.35546875,-22.4609375,110.3515625,272.94921875,0.0,0,0
1766859284.249846,1766859284.223682,762.20703125,-20.01953125,-123.046875,41.015625,0.0,0,0
1766859284.2498949,1766859284.2275786,-89.35546875,-23.92578125,-254.39453125,-198.2421875,0.0,0,0
1766859284.293513,1766859284.2315567,-988.28125,-27.83203125,-100.5859375,-151.3671875,0.0,0,0
1766859284.2936618,1766859284.2354534,-513.18359375,-25.390625,103.515625,114.2578125,0.0,0,0
1766859284.293706,1766859284.2393503,594.23828125,-11.71875,130.37109375,269.53125,0.0,0,0
1766859284.2937448,1766859284.2432473,848.6328125,-14.16015625,-101.07421875,58.10546875,0.0,0,0
1766859284.293785,1766859284.247144,72.75390625,-35.64453125,-251.46484375,-184.08203125,0.0,0,0
1766859284.293823,1766859284.251041,-908.69140625,-37.59765625,-121.58203125,-185.546875,0.0,0,0
1766859284.2938612,1766859284.254938,-560.546875,-20.5078125,107.421875,78.61328125,0.0,0,0
1766859284.293914,1766859284.2588346,508.30078125,-10.25390625,155.2734375,271.484375,0.0,0,0
1766859284.2939498,1766859284.2627316,862.79296875,-17.578125,-90.33203125,87.40234375,0.0,0,0
1766859284.293987,1766859284.2666285,149.4140625,-33.203125,-250.0,-166.015625,0.0,0,0
1766859284.2940311,1766859284.2705252,-842.7734375,-35.64453125,-153.80859375,-224.609375,0.0,0,0
1766859284.2940679,1766859284.2744222,-623.53515625,-26.3671875,78.61328125,22.4609375,0.0,0,0
1766859284.368438,1766859284.2785375,392.578125,-19.04296875,166.9921875,262.20703125,0.0,0,0
1766859284.368574,1766859284.2824345,921.875,-19.53125,-58.10546875,134.27734375,0.0,0,0
1766859284.368617,1766859284.2863312,265.13671875,-20.99609375,-230.46875,-144.04296875,0.0,0,0
1766859284.3686569,1766859284.2902281,-777.34375,-22.4609375,-188.4765625,-249.51171875,0.0,0,0
1766859284.368695,1766859284.294125,-764.6484375,-21.97265625,28.80859375,-26.85546875,0.0,0,0
1766859284.369171,1766859284.298022,217.28515625,-15.13671875,180.17578125,217.7734375,0.0,0,0
1766859284.369211,1766859284.3019187,-999.51171875,-4.8828125,7.32421875,146.484375,0.0,0,0
1766859284.369249,1766859284.3058157,343.26171875,-20.01953125,-215.33203125,-124.0234375,0.0,0,0
1766859284.369287,1766859284.3097126,-712.890625,-36.1328125,-208.49609375,-244.62890625,0.0,0,0
1766859284.369323,1766859284.3136096,-803.22265625,-21.97265625,31.25,-43.9453125,0.0,0,0
1766859284.369359,1766859284.3175066,39.55078125,-5.37109375,186.5234375,196.77734375,0.0,0,0
1766859284.369396,1766859284.3214033,938.96484375,-1.953125,44.43359375,183.59375,0.0,0,0
1766859284.3985121,1766859284.325364,451.171875,-22.4609375,-182.6171875,-79.58984375,0.0,0,0
1766859284.3986292,1766859284.329261,-633.30078125,-31.73828125,-225.09765625,-254.8828125,0.0,0,0
1766859284.398689,1766859284.333158,-906.73828125,-18.5546875,4.8828125,-78.61328125,0.0,0,0
1766859284.3987432,1766859284.337055,-90.33203125,-13.18359375,182.12890625,183.59375,0.0,0,0
1766859284.398795,1766859284.3409517,895.01953125,-11.71875,63.96484375,211.42578125,0.0,0,0
1766859284.398846,1766859284.3448486,572.265625,-19.04296875,-165.0390625,-44.43359375,0.0,0,0
1766859284.398898,1766859284.3487456,-453.61328125,-24.90234375,-217.28515625,-227.05078125,0.0,0,0
1766859284.3989482,1766859284.3526425,-918.9453125,-25.87890625,-8.7890625,-96.19140625,0.0,0,0
1766859284.398999,1766859284.3565395,-192.3828125,-21.97265625,165.0390625,134.765625,0.0,0,0
1766859284.399049,1766859284.3604362,781.73828125,-16.6015625,93.75,203.61328125,0.0,0,0
1766859284.3990998,1766859284.3643332,601.07421875,-23.4375,-139.16015625,-15.13671875,0.0,0,0
1766859284.3991501,1766859284.36823,-345.21484375,-36.62109375,-227.5390625,-234.375,0.0,0,0
1766859284.443427,1766859284.3722532,-1000.0,-48.828125,-34.1796875,-162.59765625,0.0,0,0
1766859284.443582,1766859284.3761501,-291.50390625,-25.87890625,154.296875,104.98046875,0.0,0,0
1766859284.443625,1766859284.380047,768.06640625,0.48828125,125.0,232.421875,0.0,0,0
1766859284.443667,1766859284.383944,703.125,-15.13671875,-104.4921875,15.625,0.0,0,0
1766859284.443705,1766859284.387841,-174.8046875,-32.71484375,-232.91015625,-224.609375,0.0,0,0
1766859284.443743,1766859284.391738,-1000.0,-41.50390625,-62.01171875,-188.96484375,0.0,0,0
1766859284.4437811,1766859284.395635,-452.1484375,-40.0390625,137.6953125,71.2890625,0.0,0,0
1766859284.443819,1766859284.3995318,637.20703125,-25.87890625,142.578125,226.07421875,0.0,0,0
1766859284.443857,1766859284.4034286,781.73828125,-26.3671875,-84.47265625,32.71484375,0.0,0,0
1766859284.443894,1766859284.4073255,-54.19921875,-46.875,-251.953125,-204.1015625,0.0,0,0
1766859284.4439301,1766859284.4112225,-991.69921875,-52.24609375,-116.69921875,-212.40234375,0.0,0,0
1766859284.4439769,1766859284.4151194,-553.7109375,-28.3203125,109.86328125,31.73828125,0.0,0,0
1766859284.487954,1766859284.4191327,532.71484375,-8.7890625,155.2734375,225.09765625,0.0,0,0
1766859284.488137,1766859284.4230297,918.9453125,-10.7421875,-47.8515625,89.84375,0.0,0,0
1766859284.488182,1766859284.4269266,188.4765625,-22.94921875,-215.8203125,-139.16015625,0.0,0,0
1766859284.488221,1766859284.4308236,-920.8984375,-34.1796875,-153.80859375,-243.65234375,0.0,0,0
1766859284.48826,1766859284.4347205,-685.05859375,-27.83203125,82.51953125,-35.15625,0.0,0,0
1766859284.488298,1766859284.4386175,368.1640625,-11.23046875,192.87109375,206.0546875,0.0,0,0
1766859284.4883358,1766859284.4425144,947.265625,-14.6484375,-10.7421875,103.515625,0.0,0,0
1766859284.488373,1766859284.4464114,298.33984375,-34.66796875,-197.265625,-136.71875,0.0,0,0
1766859284.488409,1766859284.4503083,-825.68359375,-63.4765625,-171.38671875,-257.8125,0.0,0,0
1766859284.4884648,1766859284.4542053,-812.01171875,-62.98828125,48.828125,-69.82421875,0.0,0,0
1766859284.48851,1766859284.4581022,184.08203125,-20.01953125,168.9453125,185.546875,0.0,0,0
1766859284.4885461,1766859284.4619992,-998.046875,-0.9765625,-0.48828125,154.78515625,0.0,0,0
1766859284.534048,1766859284.466002,412.59765625,-29.296875,-178.7109375,-96.19140625,0.0,0,0
1766859284.534197,1766859284.469899,-712.40234375,-51.7578125,-175.29296875,-260.7421875,0.0,0,0
1766859284.5342379,1766859284.473796,-885.7421875,-34.66796875,24.4140625,-94.7265625,0.0,0,0
1766859284.5342772,1766859284.4776928,12.20703125,-20.01953125,163.57421875,166.9921875,0.0,0,0
1766859284.534315,1766859284.4815898,966.30859375,-20.5078125,29.296875,171.875,0.0,0,0
1766859284.5343518,1766859284.485487,517.08984375,-32.2265625,-155.76171875,-69.3359375,0.0,0,0
1766859284.534389,1766859284.489384,-576.171875,-50.29296875,-189.453125,-248.53515625,0.0,0,0
1766859284.534427,1766859284.493281,-954.58984375,-44.43359375,4.39453125,-125.48828125,0.0,0,0
1766859284.534465,1766859284.4971778,-172.36328125,-36.62109375,157.71484375,112.79296875,0.0,0,0
1766859284.534501,1766859284.5010748,896.97265625,-35.64453125,41.015625,164.55078125,0.0,0,0
1766859284.534539,1766859284.5049717,580.078125,-27.83203125,-157.71484375,-61.03515625,0.0,0,0
1766859284.534574,1766859284.5088687,-514.16015625,-43.45703125,-203.125,-259.27734375,0.0,0,0
1766859284.5782468,1766859284.5128603,-992.67578125,-46.38671875,0.0,-138.18359375,0.0,1,0
1766859284.57841,1766859284.5167575,-223.14453125,-15.625,166.015625,113.28125,0.0,0,0
1766859284.578468,1766859284.5206544,870.1171875,-7.32421875,87.890625,201.171875,0.0,0,0
1766859284.578521,1766859284.5245514,639.6484375,-29.78515625,-149.90234375,-28.80859375,0.0,0,0
1766859284.578573,1766859284.5284483,-389.6484375,-31.73828125,-239.74609375,-254.39453125,0.0,0,0
1766859284.578624,1766859284.5323453,-1000.0,-35.15625,-33.69140625,-170.41015625,0.0,0,0
1766859284.5786738,1766859284.5362422,-313.96484375,-37.109375,150.390625,86.9140625,0.0,0,0
1766859284.578725,1766859284.5401392,761.71875,-29.78515625,100.5859375,196.77734375,0.0,0,0
1766859284.5787761,1766859284.5440361,660.15625,-43.45703125,-136.23046875,-21.97265625,0.0,0,0
1766859284.578826,1766859284.547933,-255.37109375,-52.734375,-244.62890625,-241.2109375,0.0,0,0
1766859284.578877,1766859284.55183,-1000.0,-48.33984375,-64.453125,-202.63671875,0.0,0,0
1766859284.578951,1766859284.555727,-371.09375,-17.578125,143.5546875,74.70703125,0.0,0,0
1766859284.623343,1766859284.559711,721.19140625,10.25390625,138.18359375,226.07421875,0.0,0,0
1766859284.623504,1766859284.5636082,700.68359375,-12.6953125,-101.07421875,-4.39453125,0.0,0,0
1766859284.623583,1766859284.5675051,-116.2109375,-43.9453125,-230.46875,-246.09375,0.0,0,0
1766859284.62364,1766859284.571402,-999.51171875,-57.12890625,-91.796875,-228.515625,0.0,0,0
1766859284.623692,1766859284.575299,-491.69921875,-34.1796875,124.0234375,60.05859375,0.0,0,0
1766859284.623744,1766859284.579196,645.5078125,2.44140625,170.41015625,239.2578125,0.0,0,0
1766859284.623796,1766859284.583093,856.4453125,3.41796875,-67.3828125,29.296875,0.0,0,0
1766859284.623848,1766859284.5869899,-18.5546875,-35.64453125,-244.140625,-247.55859375,0.0,0,0
1766859284.623898,1766859284.590887,-1000.0,-59.5703125,-152.34375,-296.875,0.0,0,0
1766859284.623948,1766859284.594784,-615.234375,-9.27734375,73.2421875,-44.921875,0.0,0,0
1766859284.624001,1766859284.598681,409.66796875,11.23046875,132.8125,149.4140625,0.0,0,0
1766859284.6240509,1766859284.602578,851.07421875,-11.71875,-105.46875,3.41796875,0.0,0,0
1766859284.668812,1766859284.6065545,148.4375,-7.8125,-269.04296875,-240.72265625,0.0,0,0
1766859284.6689181,1766859284.6104515,-931.15234375,-0.48828125,-203.125,-334.47265625,0.0,0,0
1766859284.6689641,1766859284.6143484,-742.1875,19.04296875,7.8125,-102.5390625,0.0,0,0
1766859284.669004,1766859284.6182456,277.34375,50.78125,114.2578125,137.6953125,0.0,0,0
1766859284.6690419,1766859284.6221426,937.98828125,36.1328125,-83.984375,44.921875,0.0,0,0
1766859284.66908,1766859284.6260395,316.40625,23.4375,-255.37109375,-189.94140625,0.0,0,0
1766859284.669118,1766859284.6299365,-804.6875,-34.66796875,-234.375,-310.546875,0.0,0,0
1766859284.6691551,1766859284.6338334,-854.00390625,-110.83984375,-28.3203125,-123.046875,0.0,0,0
1766859284.6695838,1766859284.6377304,133.7890625,-19.04296875,116.2109375,136.23046875,0.0,0,0
1766859284.669627,1766859284.6416276,-997.0703125,35.15625,-48.33984375,107.91015625,0.0,0,0
1766859284.669665,1766859284.6455245,456.54296875,3.90625,-245.60546875,-143.5546875,0.0,0,0
1766859284.669703,1766859284.6494215,-617.67578125,-12.6953125,-240.72265625,-278.80859375,0.0,0,0
1766859284.713689,1766859284.6533897,-893.06640625,-8.30078125,-19.04296875,-98.14453125,0.0,0,0
1766859284.71383,1766859284.6572866,-26.85546875,-1.46484375,138.18359375,166.015625,0.0,0,0
1766859284.7139142,1766859284.6611836,978.02734375,4.39453125,-1.46484375,159.1796875,0.0,0,0
1766859284.7139719,1766859284.6650805,550.78125,1.46484375,-217.28515625,-106.93359375,0.0,0,0
1766859284.714012,1766859284.6689777,-501.46484375,-10.25390625,-236.81640625,-260.25390625,0.0,0,0
1766859284.7140522,1766859284.6728747,-939.94140625,1.46484375,-12.20703125,-103.02734375,0.0,0,0
1766859284.7140899,1766859284.6767716,-169.921875,-45.41015625,149.90234375,142.08984375,0.0,0,0
1766859284.714147,1766859284.6806686,905.2734375,-64.94140625,51.26953125,188.96484375,0.0,0,0
1766859284.714187,1766859284.6845655,665.52734375,-12.6953125,-159.1796875,-56.15234375,0.0,0,0
1766859284.7142348,1766859284.6884627,-357.91015625,-18.06640625,-220.703125,-259.27734375,0.0,0,0
1766859284.71428,1766859284.6923597,-962.890625,-27.34375,-4.39453125,-116.2109375,0.0,0,0
1766859284.714335,1766859284.6962566,-274.90234375,-22.4609375,157.2265625,132.8125,0.0,0,0
1766859284.7753081,1766859284.7002957,811.5234375,-9.27734375,75.1953125,202.63671875,0.0,0,0
1766859284.775448,1766859284.7041926,771.484375,-13.18359375,-136.23046875,-20.01953125,0.0,0,0
1766859284.775491,1766859284.7080898,-216.30859375,-35.15625,-243.1640625,-254.39453125,0.0,0,0
1766859284.77553,1766859284.7119868,-1000.0,-40.52734375,-66.40625,-180.17578125,0.0,0,0
1766859284.7755678,1766859284.7158837,-377.44140625,-20.01953125,140.625,98.14453125,0.0,0,0
1766859284.775605,1766859284.719781,749.0234375,-19.04296875,121.09375,214.35546875,0.0,0,0
1766859284.7756422,1766859284.7236779,835.9375,-58.10546875,-117.67578125,-15.13671875,0.0,0,0
1766859284.7756789,1766859284.7275748,-24.90234375,-55.6640625,-251.953125,-251.953125,0.0,0,0
1766859284.7757251,1766859284.7314718,-1000.0,-40.0390625,-91.30859375,-203.125,0.0,0,0
1766859284.775769,1766859284.735369,-502.9296875,-18.06640625,124.51171875,77.1484375,0.0,0,0
1766859284.775811,1766859284.739266,630.37109375,3.41796875,139.16015625,232.91015625,0.0,0,0
1766859284.7758489,1766859284.7431629,928.22265625,-7.32421875,-74.70703125,28.80859375,0.0,0,0
1766859284.819228,1766859284.74719,125.48828125,-29.78515625,-223.14453125,-226.5625,0.0,0,0
1766859284.819371,1766859284.7510872,-962.890625,-40.52734375,-105.46875,-229.00390625,0.0,0,0
1766859284.819416,1766859284.7549841,-621.58203125,-32.2265625,103.515625,39.55078125,0.0,0,0
1766859284.819456,1766859284.7588813,461.42578125,-19.53125,139.6484375,220.703125,0.0,0,0
1766859284.8194938,1766859284.7627783,968.75,-17.08984375,-65.4296875,41.9921875,0.0,0,0
1766859284.819532,1766859284.7666752,280.2734375,-23.4375,-211.9140625,-205.078125,0.0,0,0
1766859284.8195682,1766859284.7705724,-889.16015625,-32.71484375,-139.16015625,-247.55859375,0.0,0,0
1766859284.819606,1766859284.7744694,-766.11328125,-28.80859375,72.75390625,2.9296875,0.0,0,0
1766859284.8196428,1766859284.7783666,291.015625,-14.6484375,154.78515625,220.703125,0.0,0,0
1766859284.819678,1766859284.7822635,965.8203125,-7.8125,-48.33984375,70.3125,0.0,0,0
1766859284.819722,1766859284.7861605,378.41796875,-20.5078125,-198.2421875,-183.10546875,0.0,0,0
1766859284.81976,1766859284.7900577,-749.51171875,-45.8984375,-149.4140625,-259.27734375,0.0,0,0
1766859284.86286,1766859284.7940693,-838.8671875,-38.0859375,58.59375,-33.69140625,0.0,0,0
1766859284.863025,1766859284.7979662,198.73046875,-19.53125,190.4296875,212.890625,0.0,0,0
1766859284.8630831,1766859284.8018634,-957.03125,-12.20703125,7.32421875,107.421875,0.0,0,0
1766859284.863137,1766859284.8057604,448.2421875,-17.08984375,-186.03515625,-159.66796875,0.0,0,0
1766859284.8631911,1766859284.8096573,-686.03515625,-34.66796875,-172.36328125,-272.4609375,0.0,0,0
1766859284.863243,1766859284.8135545,-926.7578125,-26.3671875,46.38671875,-59.08203125,0.0,0,0
1766859284.863295,1766859284.8174515,-20.01953125,-10.7421875,188.96484375,187.5,0.0,0,0
1766859284.8633459,1766859284.8213487,972.65625,-11.23046875,29.296875,134.27734375,0.0,0,0
1766859284.8633962,1766859284.8252456,531.73828125,-36.62109375,-183.10546875,-138.18359375,0.0,0,0
1766859284.863468,1766859284.8291428,-568.84765625,-62.01171875,-195.80078125,-281.73828125,0.0,0,0
