timestamp,lsl_timestamp,TP9,AF7,AF8,TP10,Right AUX,keypress_A,keypress_B
1766858508.2081559,1766858508.141247,122.0703125,-29.78515625,129.8828125,368.65234375,0.0,0,0
1766858508.208389,1766858508.145133,894.04296875,7.8125,319.82421875,851.5625,0.0,0,0
1766858508.208438,1766858508.1490188,556.640625,5.37109375,66.89453125,256.8359375,0.0,0,0
1766858508.2084842,1766858508.1529045,-423.828125,-39.55078125,-293.45703125,-676.7578125,0.0,0,0
1766858508.20851,1766858508.1567903,-961.9140625,-64.94140625,-333.0078125,-823.2421875,0.0,0,0
1766858508.208534,1766858508.1606762,12.6953125,-19.04296875,86.42578125,292.48046875,0.0,0,0
1766858508.208558,1766858508.164562,874.51171875,8.7890625,306.640625,888.671875,0.0,0,0
1766858508.2085838,1766858508.1684477,667.48046875,2.44140625,122.55859375,400.390625,0.0,0,0
1766858508.208608,1766858508.1723335,-296.38671875,-17.578125,-251.953125,-540.0390625,0.0,0,0
1766858508.208631,1766858508.1762195,-927.24609375,-66.89453125,-355.46875,-856.93359375,0.0,0,0
1766858508.208655,1766858508.1801052,-99.609375,-39.55078125,46.875,178.22265625,0.0,0,0
1766858508.208678,1766858508.183991,830.56640625,19.53125,314.453125,903.3203125,0.0,0,0
1766858508.256236,1766858508.1881182,742.67578125,17.578125,169.43359375,507.32421875,0.0,0,0
1766858508.256644,1766858508.1920042,-252.9296875,-44.43359375,-239.2578125,-441.89453125,0.0,0,0
1766858508.256737,1766858508.19589,-926.26953125,-79.58984375,-378.90625,-872.0703125,0.0,0,0
1766858508.2568572,1766858508.199776,-324.21875,-39.55078125,-20.5078125,-5.859375,0.0,0,0
1766858508.257001,1766858508.2036617,694.82421875,6.8359375,289.0625,869.62890625,0.0,0,0
1766858508.257119,1766858508.2075477,835.44921875,8.30078125,212.40234375,609.86328125,0.0,0,0
1766858508.257227,1766858508.2114334,-231.93359375,-39.55078125,-202.63671875,-416.50390625,0.0,0,0
1766858508.2577128,1766858508.2153194,-920.8984375,-50.29296875,-375.48828125,-877.44140625,0.0,0,0
1766858508.257903,1766858508.2192054,-528.3203125,-28.80859375,-105.95703125,-216.796875,0.0,0,0
1766858508.257984,1766858508.2230911,465.8203125,-14.16015625,240.234375,727.5390625,0.0,0,0
1766858508.258021,1766858508.226977,912.109375,-1.953125,261.71875,737.3046875,0.0,0,0
1766858508.258055,1766858508.2308629,-123.046875,-38.0859375,-166.015625,-367.67578125,0.0,0,0
1766858508.299496,1766858508.2349396,-950.1953125,-70.3125,-387.6953125,-916.9921875,0.0,0,0
1766858508.299596,1766858508.2388253,-680.17578125,-70.3125,-158.69140625,-354.98046875,0.0,0,0
1766858508.299625,1766858508.2427113,319.82421875,-23.4375,221.19140625,599.609375,0.0,0,0
1766858508.29965,1766858508.2465973,933.10546875,15.625,299.31640625,802.734375,0.0,0,0
1766858508.299674,1766858508.2504833,-5.37109375,-28.80859375,-129.8828125,-274.4140625,0.0,0,0
1766858508.299728,1766858508.2543693,-921.875,-75.68359375,-367.1875,-938.4765625,0.0,0,0
1766858508.299775,1766858508.2582552,-725.5859375,-45.8984375,-184.08203125,-473.6328125,0.0,0,0
1766858508.2998369,1766858508.262141,257.8125,36.62109375,186.5234375,479.98046875,0.0,0,0
1766858508.299864,1766858508.266027,884.765625,32.2265625,304.6875,822.75390625,0.0,0,0
1766858508.2999182,1766858508.269913,162.109375,-31.73828125,-73.73046875,-137.6953125,0.0,0,0
1766858508.299962,1766858508.273799,-815.91796875,-64.94140625,-351.5625,-936.03515625,0.0,0,0
1766858508.3000152,1766858508.277685,-884.27734375,-75.1953125,-243.1640625,-622.0703125,0.0,0,0
1766858508.3585558,1766858508.2819111,164.55078125,-28.80859375,151.85546875,378.41796875,0.0,0,0
1766858508.358669,1766858508.285797,875.48828125,1.953125,310.546875,832.51953125,0.0,0,0
1766858508.358708,1766858508.289683,305.6640625,-26.85546875,-11.71875,28.3203125,0.0,0,0
1766858508.358746,1766858508.2935693,-679.19921875,-66.89453125,-333.49609375,-868.1640625,0.0,0,0
1766858508.358839,1766858508.2974553,-929.6875,-76.66015625,-289.55078125,-725.5859375,0.0,0,0
1766858508.358898,1766858508.3013413,142.578125,-33.69140625,145.5078125,351.5625,0.0,0,0
1766858508.358956,1766858508.3052273,907.71484375,43.9453125,352.05078125,857.91015625,0.0,0,0
1766858508.3589928,1766858508.3091135,484.375,34.1796875,59.08203125,210.44921875,0.0,0,0
1766858508.359019,1766858508.3129995,-499.0234375,-50.29296875,-310.546875,-731.4453125,0.0,0,0
1766858508.359044,1766858508.3168855,-979.00390625,-62.01171875,-338.8671875,-821.2890625,0.0,0,0
1766858508.359067,1766858508.3207715,36.62109375,-11.71875,94.23828125,300.78125,0.0,0,0
1766858508.359091,1766858508.3246577,872.55859375,25.390625,301.26953125,871.09375,0.0,0,0
1766858508.404598,1766858508.3286963,628.90625,-0.48828125,80.56640625,364.74609375,0.0,0,0
1766858508.4046998,1766858508.3325825,-308.10546875,-48.828125,-287.59765625,-556.640625,0.0,0,0
1766858508.4047282,1766858508.3364685,-942.3828125,-69.82421875,-380.37109375,-868.65234375,0.0,0,0
1766858508.404762,1766858508.3403547,-77.1484375,-32.71484375,25.390625,186.03515625,0.0,0,0
1766858508.4048152,1766858508.3442407,853.02734375,4.39453125,288.57421875,904.296875,0.0,0,0
1766858508.40484,1766858508.348127,789.55078125,3.41796875,154.78515625,497.0703125,0.0,0,0
1766858508.4049091,1766858508.3520129,-226.07421875,-52.24609375,-262.6953125,-456.54296875,0.0,0,0
1766858508.404939,1766858508.355899,-925.29296875,-80.078125,-400.87890625,-877.44140625,0.0,0,0
1766858508.4049652,1766858508.359785,-263.18359375,-34.66796875,-18.5546875,23.92578125,0.0,0,0
1766858508.40499,1766858508.363671,708.49609375,-1.953125,273.92578125,875.48828125,0.0,0,0
1766858508.405025,1766858508.3675573,820.80078125,-8.30078125,188.96484375,593.75,0.0,0,0
1766858508.40505,1766858508.3714433,-205.078125,-45.41015625,-212.40234375,-411.1328125,0.0,0,0
1766858508.449089,1766858508.3756237,-937.5,-70.3125,-388.671875,-884.765625,0.0,0,0
1766858508.44924,1766858508.37951,-461.42578125,-44.921875,-86.9140625,-172.36328125,0.0,0,0
1766858508.449279,1766858508.3833961,558.59375,6.8359375,259.765625,769.53125,0.0,0,0
1766858508.449316,1766858508.3872821,871.09375,8.30078125,234.86328125,707.51953125,0.0,0,0
1766858508.449356,1766858508.3911684,-183.10546875,-43.9453125,-198.2421875,-389.6484375,0.0,0,0
1766858508.4494028,1766858508.3950546,-933.10546875,-71.77734375,-381.8359375,-901.3671875,0.0,0,0
1766858508.449441,1766858508.3989408,-619.140625,-55.6640625,-140.625,-331.0546875,0.0,0,0
1766858508.449478,1766858508.402827,352.05078125,-15.625,207.51953125,613.76953125,0.0,0,0
1766858508.4495301,1766858508.406713,894.53125,-3.90625,266.11328125,781.73828125,0.0,0,0
1766858508.44957,1766858508.4105992,-50.78125,-46.875,-147.94921875,-312.5,0.0,0,0
1766858508.449606,1766858508.4144855,-918.9453125,-70.3125,-370.60546875,-937.01171875,0.0,0,0
1766858508.449642,1766858508.4183717,-740.234375,-51.26953125,-181.640625,-461.9140625,0.0,0,0
1766858508.4935539,1766858508.4225252,240.72265625,-11.23046875,193.359375,489.74609375,0.0,0,0
1766858508.493668,1766858508.4264114,920.41015625,19.04296875,309.08203125,830.078125,0.0,0,0
1766858508.493738,1766858508.4302976,156.25,-8.30078125,-79.58984375,-161.1328125,0.0,0,0
1766858508.49379,1766858508.4341838,-844.23828125,-61.03515625,-360.83984375,-941.89453125,0.0,0,0
1766858508.4938471,1766858508.43807,-833.0078125,-57.6171875,-228.02734375,-576.171875,0.0,0,0
1766858508.493899,1766858508.4419563,202.63671875,1.46484375,174.8046875,408.203125,0.0,0,0
1766858508.49395,1766858508.4458425,892.578125,22.4609375,320.80078125,831.54296875,0.0,0,0
1766858508.494001,1766858508.449729,310.05859375,-18.5546875,-31.25,0.48828125,0.0,0,0
1766858508.49406,1766858508.4536152,-684.08203125,-57.6171875,-351.5625,-886.71875,0.0,0,0
1766858508.4941099,1766858508.4575014,-914.0625,-57.12890625,-284.66796875,-692.87109375,0.0,0,0
1766858508.4941719,1766858508.4613876,139.6484375,-14.16015625,134.27734375,375.0,0.0,0,0
1766858508.494228,1766858508.4652739,887.20703125,18.5546875,321.2890625,838.8671875,0.0,0,0
1766858508.539525,1766858508.46941,496.58203125,0.0,51.7578125,191.89453125,0.0,0,0
1766858508.539665,1766858508.4732964,-499.0234375,-48.33984375,-309.08203125,-742.67578125,0.0,0,0
1766858508.539708,1766858508.4771826,-955.56640625,-64.94140625,-316.89453125,-799.31640625,0.0,0,0
1766858508.540291,1766858508.481069,70.80078125,-24.90234375,119.140625,330.56640625,0.0,0,0
1766858508.540334,1766858508.4849553,876.953125,14.16015625,322.75390625,868.65234375,0.0,0,0
1766858508.540374,1766858508.4888415,625.0,19.04296875,111.81640625,329.58984375,0.0,0,0
1766858508.540411,1766858508.492728,-325.68359375,-23.4375,-263.671875,-593.26171875,0.0,0,0
1766858508.540447,1766858508.4966142,-969.7265625,-62.5,-351.07421875,-869.140625,0.0,0,0
1766858508.540483,1766858508.5005007,-119.62890625,-35.15625,49.8046875,195.3125,0.0,0,0
1766858508.540519,1766858508.504387,841.30859375,6.8359375,299.31640625,892.08984375,0.0,0,0
1766858508.5406249,1766858508.5082734,742.1875,6.8359375,152.83203125,439.94140625,0.0,0,0
1766858508.540682,1766858508.5121596,-252.44140625,-46.38671875,-244.62890625,-488.28125,0.0,0,0
1766858508.585778,1766858508.5162947,-967.7734375,-81.0546875,-386.71875,-888.18359375,0.0,0,0
1766858508.585911,1766858508.5201812,-266.11328125,-35.15625,0.48828125,49.31640625,0.0,0,0
1766858508.5859451,1766858508.5240676,759.27734375,19.53125,301.26953125,889.16015625,0.0,0,0
1766858508.58603,1766858508.527954,811.5234375,15.13671875,196.77734375,575.1953125,0.0,0,0
1766858508.5860832,1766858508.5318403,-216.30859375,-34.1796875,-210.9375,-411.62109375,0.0,0,0
1766858508.5861351,1766858508.5357268,-922.36328125,-52.734375,-364.2578125,-874.51171875,0.0,0,0
1766858508.5862138,1766858508.5396132,-442.3828125,-23.92578125,-51.26953125,-125.9765625,0.0,0,0
1766858508.5862489,1766858508.5434997,543.9453125,7.8125,266.6015625,785.64453125,0.0,0,0
1766858508.586302,1766858508.547386,922.8515625,13.18359375,249.0234375,693.84765625,0.0,0,0
1766858508.5863569,1766858508.5512724,-120.60546875,-33.203125,-174.31640625,-381.34765625,0.0,0,0
1766858508.5864298,1766858508.5551589,-931.640625,-56.15234375,-367.1875,-895.01953125,0.0,0,0
1766858508.586487,1766858508.5590453,-610.83984375,-43.45703125,-131.34765625,-314.453125,0.0,0,0
1766858508.672318,1766858508.563463,376.46484375,-6.34765625,208.0078125,638.18359375,0.0,0,0
1766858508.672467,1766858508.5673494,921.38671875,20.5078125,270.01953125,775.390625,0.0,0,0
1766858508.6725419,1766858508.5712361,-80.56640625,-21.484375,-146.97265625,-342.7734375,0.0,0,0
1766858508.6726139,1766858508.5751226,-926.26953125,-62.01171875,-378.41796875,-925.29296875,0.0,0,0
1766858508.672659,1766858508.5790093,-732.421875,-60.546875,-187.98828125,-451.171875,0.0,0,0
1766858508.673192,1766858508.5828958,236.81640625,-12.20703125,195.3125,496.58203125,0.0,0,0
1766858508.673252,1766858508.5867825,929.19921875,23.92578125,309.08203125,826.171875,0.0,0,0
1766858508.673323,1766858508.590669,98.6328125,-38.57421875,-98.14453125,-206.54296875,0.0,0,0
1766858508.673393,1766858508.5945554,-871.09375,-83.49609375,-361.328125,-947.75390625,0.0,0,0
1766858508.673435,1766858508.598442,-782.71484375,-65.4296875,-218.75,-549.8046875,0.0,0,0
1766858508.6734731,1766858508.6023285,222.65625,-17.578125,169.43359375,424.8046875,0.0,0,0
1766858508.673513,1766858508.6062152,886.71875,9.765625,312.5,829.1015625,0.0,0,0
1766858508.675179,1766858508.6103013,284.1796875,-19.53125,-39.0625,-45.8984375,0.0,0,0
1766858508.6752279,1766858508.614188,-720.21484375,-50.78125,-333.984375,-904.296875,0.0,0,0
1766858508.675266,1766858508.6180744,-882.8125,-50.29296875,-253.41796875,-665.0390625,0.0,0,0
1766858508.675303,1766858508.621961,167.48046875,-11.23046875,157.2265625,368.65234375,0.0,0,0
1766858508.6753411,1766858508.6258478,896.97265625,23.4375,338.37890625,835.44921875,0.0,0,0
1766858508.675379,1766858508.6297343,515.625,3.90625,59.08203125,169.43359375,0.0,0,0
1766858508.675416,1766858508.633621,-506.34765625,-57.12890625,-298.33984375,-765.13671875,0.0,0,0
1766858508.675452,1766858508.6375077,-939.453125,-80.078125,-304.6875,-774.90234375,0.0,0,0
1766858508.6754901,1766858508.6413941,112.3046875,-30.2734375,125.48828125,350.5859375,0.0,0,0
1766858508.675528,1766858508.6452808,888.18359375,5.859375,319.3359375,866.2109375,0.0,0,0
1766858508.675565,1766858508.6491675,643.06640625,4.8828125,110.83984375,329.58984375,0.0,0,0
1766858508.675609,1766858508.653054,-324.70703125,-42.48046875,-263.671875,-604.98046875,0.0,0,0
1766858508.719213,1766858508.6571095,-968.75,-74.70703125,-351.5625,-851.5625,0.0,0,0
1766858508.7193532,1766858508.6609962,-46.875,-27.83203125,74.70703125,243.65234375,0.0,0,0
1766858508.719393,1766858508.664883,883.7890625,17.578125,320.80078125,903.80859375,0.0,0,0
1766858508.719431,1766858508.6687696,752.44140625,4.8828125,153.3203125,444.3359375,0.0,0,0
1766858508.719469,1766858508.6726563,-241.2109375,-41.50390625,-229.98046875,-495.60546875,0.0,0,0
1766858508.719508,1766858508.676543,-949.21875,-62.01171875,-351.5625,-861.81640625,0.0,0,0
1766858508.719546,1766858508.6804295,-209.47265625,-29.78515625,32.71484375,114.2578125,0.0,0,0
1766858508.719584,1766858508.6843162,788.57421875,3.90625,297.8515625,898.92578125,0.0,0,0
1766858508.719636,1766858508.6882029,786.62109375,4.39453125,176.7578125,540.52734375,0.0,0,0
1766858508.7196732,1766858508.6920896,-243.65234375,-30.2734375,-221.19140625,-430.17578125,0.0,0,0
1766858508.719711,1766858508.6959763,-915.52734375,-59.5703125,-384.765625,-870.1171875,0.0,0,0
1766858508.719754,1766858508.699863,-398.92578125,-28.80859375,-55.6640625,-97.65625,0.0,0,0
1766858508.7783911,1766858508.7039046,602.05078125,9.765625,262.20703125,815.4296875,0.0,0,0
1766858508.7785048,1766858508.7077913,872.0703125,15.13671875,227.05078125,656.25,0.0,0,0
1766858508.7785332,1766858508.711678,-194.82421875,-25.390625,-184.08203125,-414.0625,0.0,0,0
1766858508.778558,1766858508.7155647,-935.05859375,-65.4296875,-373.53515625,-886.23046875,0.0,0,0
1766858508.778583,1766858508.7194514,-583.0078125,-55.17578125,-108.3984375,-283.203125,0.0,0,0
1766858508.778608,1766858508.7233381,416.9921875,8.7890625,246.58203125,666.9921875,0.0,0,0
1766858508.778632,1766858508.7272248,928.22265625,43.9453125,263.671875,770.5078125,0.0,0,0
1766858508.778656,1766858508.7311115,-73.73046875,-16.11328125,-165.0390625,-343.26171875,0.0,0,0
1766858508.778681,1766858508.7349982,-958.984375,-71.2890625,-376.953125,-941.89453125,0.0,0,0
1766858508.7787058,1766858508.738885,-770.99609375,-65.91796875,-171.38671875,-460.44921875,0.0,0,0
1766858508.778731,1766858508.7427716,254.39453125,-19.04296875,218.26171875,519.53125,0.0,0,0
1766858508.7787552,1766858508.7466586,940.4296875,5.859375,325.68359375,819.82421875,0.0,0,0
1766858508.82409,1766858508.750675,79.1015625,-28.3203125,-76.66015625,-233.88671875,0.0,0,0
1766858508.824237,1766858508.7545617,-891.6015625,-80.56640625,-333.984375,-947.265625,0.0,0,0
1766858508.8242729,1766858508.7584484,-834.9609375,-82.03125,-191.89453125,-553.7109375,0.0,0,0
1766858508.824304,1766858508.7623353,178.22265625,-30.2734375,188.96484375,418.9453125,0.0,0,0
1766858508.8243341,1766858508.766222,903.80859375,-9.27734375,326.171875,834.47265625,0.0,0,0
1766858508.824366,1766858508.7701087,257.32421875,-40.0390625,-33.69140625,-61.03515625,0.0,0,0
1766858508.824395,1766858508.7739954,-759.27734375,-72.265625,-330.078125,-915.0390625,0.0,0,0
1766858508.824424,1766858508.7778823,-897.4609375,-68.359375,-244.62890625,-667.96875,0.0,0,0
1766858508.824455,1766858508.781769,152.83203125,-26.85546875,155.76171875,362.79296875,0.0,0,0
1766858508.824484,1766858508.7856557,857.421875,-11.23046875,329.58984375,828.61328125,0.0,0,0
1766858508.824513,1766858508.7895424,398.4375,-28.80859375,39.55078125,106.4453125,0.0,0,0
1766858508.824543,1766858508.7934291,-583.984375,-62.5,-310.546875,-817.3828125,0.0,0,0
1766858508.882802,1766858508.797576,-976.07421875,-78.61328125,-309.08203125,-776.3671875,0.0,0,0
1766858508.88297,1766858508.801463,92.7734375,-34.66796875,125.0,346.19140625,0.0,0,0
1766858508.8830268,1766858508.8053496,894.53125,-7.8125,328.125,853.515625,0.0,0,0
1766858508.883081,1766858508.8092365,562.5,-22.4609375,89.35546875,264.6484375,0.0,0,0
1766858508.883133,1766858508.8131232,-395.01953125,-45.41015625,-267.578125,-657.71484375,0.0,0,0
1766858508.883185,1766858508.8170102,-968.26171875,-55.17578125,-309.08203125,-830.56640625,0.0,0,0
1766858508.88392,1766858508.8208969,-58.10546875,-38.57421875,92.28515625,270.5078125,0.0,0,0
1766858508.883978,1766858508.8247838,848.14453125,-1.953125,313.96484375,879.8828125,0.0,0,0
1766858508.8840299,1766858508.8286707,673.828125,-7.32421875,137.20703125,391.11328125,0.0,0,0
1766858508.884104,1766858508.8325574,-286.62109375,-67.3828125,-250.9765625,-528.3203125,0.0,0,0
1766858508.8841548,1766858508.8364444,-931.15234375,-78.61328125,-358.3984375,-869.62890625,0.0,0,0
1766858508.884205,1766858508.840331,-141.11328125,-33.69140625,41.015625,131.8359375,0.0,0,0
1766858508.913537,1766858508.844455,809.5703125,10.7421875,308.10546875,896.484375,0.0,0,0
1766858508.913623,1766858508.848342,808.59375,20.99609375,190.4296875,528.80859375,0.0,0,0
1766858508.913677,1766858508.8522289,-204.58984375,-27.34375,-216.796875,-431.640625,0.0,0,0
1766858508.913729,1766858508.8561156,-934.5703125,-66.40625,-383.30078125,-874.0234375,0.0,0,0
1766858508.913779,1766858508.8600025,-359.375,-39.0625,-38.57421875,-48.33984375,0.0,0,0
1766858508.913829,1766858508.8638895,653.80859375,9.765625,287.59765625,835.44921875,0.0,0,0
1766858508.9138792,1766858508.8677764,859.86328125,20.01953125,230.95703125,637.20703125,0.0,0,0
1766858508.91393,1766858508.8716633,-186.5234375,-34.1796875,-202.63671875,-397.4609375,0.0,0,0
1766858508.91398,1766858508.8755503,-950.1953125,-101.5625,-398.4375,-882.32421875,0.0,0,0
1766858508.91403,1766858508.879437,-551.7578125,-70.80078125,-111.81640625,-235.3515625,0.0,0,0
1766858508.91408,1766858508.883324,478.515625,17.08984375,250.48828125,711.42578125,0.0,0,0
1766858508.91413,1766858508.8872108,913.57421875,25.390625,265.625,746.09375,0.0,0,0
1766858508.9601789,1766858508.8913293,-143.5546875,-35.64453125,-177.734375,-378.41796875,0.0,0,0
1766858508.96032,1766858508.8952162,-924.8046875,-62.5,-363.28125,-913.57421875,0.0,0,0
1766858508.960362,1766858508.8991032,-653.80859375,-53.7109375,-131.34765625,-366.69921875,0.0,0,0
1766858508.960403,1766858508.90299,290.0390625,-24.4140625,217.28515625,573.2421875,0.0,0,0
1766858508.960441,1766858508.906877,912.59765625,11.71875,291.9921875,806.15234375,0.0,0,0
1766858508.960478,1766858508.910764,28.3203125,-13.671875,-119.62890625,-262.20703125,0.0,0,0
1766858508.9605162,1766858508.914651,-900.87890625,-55.17578125,-367.67578125,-939.94140625,0.0,0,0
1766858508.960554,1766858508.9185379,-779.296875,-59.08203125,-203.125,-492.67578125,0.0,0,0
1766858508.9605918,1766858508.922425,235.83984375,-10.25390625,199.70703125,467.28515625,0.0,0,0
1766858508.96063,1766858508.926312,889.16015625,16.6015625,322.265625,825.1953125,0.0,0,0
1766858508.9606662,1766858508.930199,183.10546875,-21.484375,-69.3359375,-114.74609375,0.0,0,0
1766858508.960704,1766858508.9340858,-800.78125,-68.84765625,-364.2578125,-935.05859375,0.0,0,0
1766858509.003631,1766858508.938175,-890.13671875,-76.66015625,-256.8359375,-619.140625,0.0,0,0
1766858509.003736,1766858508.942062,167.96875,-35.15625,154.78515625,396.97265625,0.0,0,0
1766858509.003778,1766858508.9459488,870.1171875,1.953125,328.61328125,828.125,0.0,0,0
1766858509.0038242,1766858508.949836,345.703125,-9.765625,7.32421875,68.84765625,0.0,0,0
1766858509.003863,1766858508.953723,-628.90625,-54.6875,-320.80078125,-839.84375,0.0,0,0
1766858509.003901,1766858508.9576101,-916.015625,-62.98828125,-274.4140625,-719.23828125,0.0,0,0
1766858509.003938,1766858508.961497,126.953125,-12.20703125,142.578125,375.0,0.0,0,0
1766858509.0039759,1766858508.965384,862.79296875,-3.90625,322.265625,842.28515625,0.0,0,0
1766858509.004012,1766858508.9692712,492.67578125,-42.48046875,63.4765625,227.5390625,0.0,0,0
1766858509.004051,1766858508.9731581,-460.9375,-73.73046875,-296.875,-692.3828125,0.0,0,0
1766858509.004096,1766858508.977045,-950.1953125,-82.51953125,-334.9609375,-820.80078125,0.0,0,0
1766858509.004169,1766858508.9809322,26.85546875,-29.78515625,83.0078125,291.015625,0.0,0,0
1766858509.048813,1766858508.9850025,857.91015625,11.71875,296.38671875,874.51171875,0.0,0,0
1766858509.048925,1766858508.9888895,627.9296875,-6.34765625,119.140625,369.62890625,0.0,0,0
1766858509.0489652,1766858508.9927766,-314.94140625,-54.6875,-252.9296875,-551.26953125,0.0,0,0
1766858509.0490031,1766858508.9966638,-955.078125,-76.66015625,-360.3515625,-874.51171875,0.0,0,0
1766858509.0490398,1766858509.0005507,-172.36328125,-38.57421875,36.1328125,153.3203125,0.0,0,0
1766858509.049079,1766858509.004438,795.41015625,13.18359375,307.6171875,900.390625,0.0,0,0
1766858509.049116,1766858509.0083249,729.00390625,12.20703125,172.36328125,478.515625,0.0,0,0
1766858509.049153,1766858509.012212,-279.78515625,-45.8984375,-235.83984375,-472.16796875,0.0,0,0
1766858509.049197,1766858509.016099,-899.4140625,-64.453125,-362.79296875,-867.67578125,0.0,0,0
1766858509.049243,1766858509.0199862,-322.265625,-29.296875,-14.16015625,-16.11328125,0.0,0,0
1766858509.04928,1766858509.0238733,644.53125,11.71875,279.78515625,844.23828125,0.0,0,0
1766858509.049322,1766858509.0277603,803.7109375,1.953125,203.61328125,588.37890625,0.0,0,0
1766858509.093726,1766858509.0318093,-229.98046875,-58.59375,-223.14453125,-416.9921875,0.0,0,0
1766858509.093819,1766858509.0356965,-895.5078125,-74.70703125,-384.765625,-874.0234375,0.0,0,0
1766858509.093863,1766858509.0395837,-488.76953125,-49.8046875,-81.0546875,-206.0546875,0.0,0,0
1766858509.093902,1766858509.0434706,474.12109375,-10.7421875,238.76953125,738.28125,0.0,0,0
1766858509.093941,1766858509.0473578,887.6953125,16.6015625,236.328125,708.984375,0.0,0,0
1766858509.0939782,1766858509.051245,-153.80859375,-29.296875,-170.8984375,-401.85546875,0.0,0,0
1766858509.094016,1766858509.0551322,-930.17578125,-42.48046875,-354.4921875,-907.2265625,0.0,0,0
1766858509.094054,1766858509.059019,-648.92578125,-20.99609375,-134.765625,-363.76953125,0.0,0,0
1766858509.094091,1766858509.0629063,325.1953125,-14.6484375,208.49609375,589.35546875,0.0,0,0
1766858509.0941288,1766858509.0667934,931.640625,-8.30078125,286.62109375,797.36328125,0.0,0,0
1766858509.094166,1766858509.0706806,4.8828125,-37.59765625,-122.0703125,-292.48046875,0.0,0,0
1766858509.094204,1766858509.0745678,-909.1796875,-71.2890625,-368.65234375,-942.87109375,0.0,0,0
1766858509.139483,1766858509.078601,-723.6328125,-62.01171875,-184.08203125,-480.46875,0.0,0,0
1766858509.139616,1766858509.082488,255.859375,0.0,198.2421875,479.4921875,0.0,0,0
1766858509.139657,1766858509.0863752,891.11328125,19.04296875,305.6640625,825.1953125,0.0,0,0
1766858509.1396961,1766858509.0902624,168.45703125,-25.390625,-72.265625,-138.671875,0.0,0,0
1766858509.139733,1766858509.0941496,-805.6640625,-57.12890625,-350.09765625,-931.15234375,0.0,0,0
1766858509.139771,1766858509.0980365,-843.75,-44.43359375,-229.4921875,-595.21484375,0.0,0,0
1766858509.1398091,1766858509.1019237,173.828125,8.7890625,158.69140625,396.484375,0.0,0,0
1766858509.1398458,1766858509.1058109,869.140625,20.5078125,311.03515625,818.84765625,0.0,0,0
1766858509.139884,1766858509.109698,353.02734375,-20.99609375,-7.8125,14.6484375,0.0,0,0
1766858509.139921,1766858509.1135852,-636.23046875,-61.5234375,-323.73046875,-865.234375,0.0,0,0
1766858509.139959,1766858509.1174724,-914.55078125,-66.40625,-264.16015625,-709.47265625,0.0,0,0
1766858509.14,1766858509.1213596,159.66796875,-18.06640625,155.76171875,369.140625,0.0,0,0
1766858509.199572,1766858509.1253865,878.41796875,14.6484375,328.125,836.9140625,0.0,0,0
1766858509.199747,1766858509.1292737,502.9296875,1.46484375,62.01171875,200.68359375,0.0,0,0
1766858509.199796,1766858509.1331608,-467.7734375,-43.9453125,-287.59765625,-723.6328125,0.0,0,0
1766858509.199836,1766858509.137048,-937.98828125,-62.5,-309.5703125,-805.6640625,0.0,0,0
1766858509.199873,1766858509.1409352,74.70703125,-24.4140625,114.2578125,319.82421875,0.0,0,0
1766858509.199913,1766858509.1448224,865.72265625,26.85546875,314.453125,870.60546875,0.0,0,0
1766858509.1999512,1766858509.1487095,576.66015625,19.04296875,104.00390625,330.56640625,0.0,0,0
1766858509.199998,1766858509.1525967,-350.5859375,-52.24609375,-270.99609375,-583.49609375,0.0,0,0
1766858509.200045,1766858509.1564841,-944.3359375,-77.1484375,-365.72265625,-863.76953125,0.0,0,0
1766858509.200474,1766858509.1603713,-127.44140625,-43.45703125,39.0625,183.59375,0.0,0,0
1766858509.200516,1766858509.1642585,823.73046875,7.8125,293.45703125,891.11328125,0.0,0,0
1766858509.200554,1766858509.1681457,744.62890625,14.16015625,144.53125,459.47265625,0.0,0,0
1766858509.259684,1766858509.1724489,-259.765625,-36.62109375,-242.1875,-476.5625,0.0,0,0
1766858509.259823,1766858509.1763363,-920.41015625,-68.359375,-365.234375,-868.65234375,0.0,0,0
1766858509.259868,1766858509.1802235,-250.48828125,-30.76171875,1.953125,50.29296875,0.0,0,0
1766858509.2599092,1766858509.1841109,706.0546875,13.671875,284.1796875,873.046875,0.0,0,0
1766858509.259947,1766858509.187998,794.43359375,8.7890625,191.40625,564.94140625,0.0,0,0
1766858509.2599838,1766858509.1918855,-223.14453125,-31.25,-199.70703125,-429.19921875,0.0,0,0
1766858509.260022,1766858509.195773,-926.7578125,-55.6640625,-364.2578125,-873.046875,0.0,0,0
1766858509.2600598,1766858509.19966,-461.42578125,-39.0625,-66.89453125,-149.4140625,0.0,0,0
1766858509.260097,1766858509.2035475,526.3671875,-19.04296875,250.0,768.5546875,0.0,0,0
1766858509.260134,1766858509.2074347,905.2734375,-9.27734375,232.421875,699.21875,0.0,0,0
1766858509.26017,1766858509.211322,-140.13671875,-46.38671875,-183.59375,-393.5546875,0.0,0,0
1766858509.260206,1766858509.2152095,-921.875,-88.8671875,-371.09375,-891.6015625,0.0,0,0
1766858509.288446,1766858509.2193313,-618.65234375,-67.3828125,-133.7890625,-323.73046875,0.0,0,0
1766858509.288554,1766858509.2232187,342.7734375,-8.7890625,212.890625,615.234375,0.0,0,0
1766858509.2885828,1766858509.227106,902.83203125,23.4375,277.34375,761.71875,0.0,0,0
1766858509.2886112,1766858509.2309935,-75.68359375,-18.5546875,-149.4140625,-346.6796875,0.0,0,0
1766858509.288636,1766858509.2348807,-919.43359375,-67.3828125,-387.20703125,-929.6875,0.0,0,0
1766858509.288661,1766858509.238768,-679.6875,-52.734375,-181.640625,-432.12890625,0.0,0,0
1766858509.288723,1766858509.2426555,269.04296875,-14.6484375,188.4765625,506.8359375,0.0,0,0
1766858509.2887502,1766858509.246543,878.41796875,-12.6953125,286.62109375,811.5234375,0.0,0,0
1766858509.2887738,1766858509.2504303,101.5625,-31.25,-95.21484375,-189.94140625,0.0,0,0
1766858509.2887979,1766858509.2543178,-842.28515625,-47.8515625,-357.421875,-937.01171875,0.0,0,0
1766858509.288821,1766858509.2582052,-833.984375,-45.8984375,-220.703125,-564.94140625,0.0,0,0
1766858509.288845,1766858509.2620926,167.96875,-11.23046875,158.203125,402.34375,0.0,0,0
1766858509.3411689,1766858509.2662506,901.85546875,7.8125,315.91796875,836.9140625,0.0,0,0
1766858509.341328,1766858509.270138,330.078125,-10.7421875,-1.46484375,0.0,0.0,0,0
1766858509.3414242,1766858509.2740257,-696.2890625,-48.33984375,-324.70703125,-889.6484375,0.0,0,0
1766858509.3415139,1766858509.277913,-931.640625,-64.94140625,-275.390625,-690.91796875,0.0,0,0
1766858509.341604,1766858509.2818005,104.98046875,-25.87890625,128.41796875,372.55859375,0.0,0,0
1766858509.341693,1766858509.285688,887.20703125,19.53125,328.125,833.49609375,0.0,0,0
1766858509.341791,1766858509.2895753,439.94140625,10.25390625,57.12890625,143.06640625,0.0,0,0
1766858509.341843,1766858509.293463,-557.12890625,-53.7109375,-309.08203125,-763.671875,0.0,0,0
1766858509.3418891,1766858509.2973504,-957.03125,-96.6796875,-311.5234375,-784.1796875,0.0,0,0
1766858509.3419352,1766858509.3012378,67.87109375,-36.62109375,118.1640625,326.66015625,0.0,0,0
1766858509.3420029,1766858509.3051252,859.86328125,21.97265625,320.3125,856.4453125,0.0,0,0
1766858509.3420439,1766858509.3090127,519.53125,-0.9765625,96.6796875,295.8984375,0.0,0,0
1766858509.378788,1766858509.3130937,-382.8125,-55.17578125,-271.97265625,-611.81640625,0.0,0,0
1766858509.378967,1766858509.316981,-974.12109375,-72.265625,-345.703125,-833.0078125,0.0,0,0
1766858509.379027,1766858509.3208687,-120.60546875,-36.62109375,65.4296875,249.0234375,0.0,0,0
1766858509.379081,1766858509.3247561,822.265625,-3.90625,309.08203125,880.859375,0.0,0,0
1766858509.379134,1766858509.3286438,681.15234375,0.9765625,145.99609375,449.70703125,0.0,0,0
1766858509.37919,1766858509.3325312,-262.20703125,-38.0859375,-222.65625,-463.37890625,0.0,0,0
1766858509.379241,1766858509.3364189,-911.1328125,-65.4296875,-338.37890625,-842.7734375,0.0,0,0
1766858509.379305,1766858509.3403063,-274.90234375,-21.484375,10.25390625,115.234375,0.0,0,0
1766858509.379355,1766858509.3441937,676.26953125,7.32421875,272.4609375,869.140625,0.0,0,0
1766858509.379405,1766858509.3480814,789.0625,-9.27734375,186.03515625,562.5,0.0,0,0
1766858509.379455,1766858509.3519688,-205.56640625,-42.48046875,-198.2421875,-394.53125,0.0,0,0
1766858509.379505,1766858509.3558564,-923.828125,-77.63671875,-368.65234375,-854.4921875,0.0,0,0
1766858509.423546,1766858509.359925,-456.54296875,-57.12890625,-55.17578125,-93.26171875,0.0,0,0
1766858509.42368,1766858509.3638124,561.5234375,-12.20703125,262.20703125,798.828125,0.0,0,0
1766858509.4237251,1766858509.3677,850.09765625,-1.953125,224.609375,633.30078125,0.0,0,0
1766858509.423765,1766858509.3715875,-196.2890625,-43.9453125,-174.8046875,-435.546875,0.0,0,0
1766858509.4238038,1766858509.3754752,-971.6796875,-68.359375,-372.0703125,-901.85546875,0.0,0,0
1766858509.4238431,1766858509.3793628,-671.38671875,-49.31640625,-133.30078125,-321.2890625,0.0,0,0
1766858509.423882,1766858509.3832502,388.671875,-7.8125,227.05078125,649.90234375,0.0,0,0
1766858509.4239202,1766858509.387138,873.046875,11.71875,259.765625,725.09765625,0.0,0,0
1766858509.423957,1766858509.3910255,-149.90234375,-49.8046875,-164.55078125,-396.484375,0.0,0,0
1766858509.4239948,1766858509.394913,-940.4296875,-92.28515625,-369.62890625,-917.96875,0.0,0,0
1766858509.424034,1766858509.3988006,-737.3046875,-62.5,-162.109375,-415.52734375,0.0,0,0
1766858509.424072,1766858509.4026883,243.65234375,-20.5078125,191.40625,522.4609375,0.0,0,0
1766858509.469459,1766858509.4067411,888.671875,-5.37109375,294.921875,805.6640625,0.0,0,0
1766858509.469617,1766858509.4106286,41.50390625,-31.25,-76.66015625,-226.5625,0.0,0,0
1766858509.4696598,1766858509.4145162,-876.46484375,-73.2421875,-327.63671875,-928.7109375,0.0,0,0
1766858509.469698,1766858509.4184039,-831.54296875,-77.63671875,-178.22265625,-466.30859375,0.0,0,0
1766858509.469737,1766858509.4222915,167.48046875,-27.83203125,200.1953125,478.515625,0.0,0,0
1766858509.469774,1766858509.4261792,877.44140625,6.8359375,319.3359375,821.77734375,0.0,0,0
1766858509.469811,1766858509.4300668,221.19140625,-8.7890625,-30.2734375,-29.296875,0.0,0,0
1766858509.469849,1766858509.4339542,-750.48828125,-65.91796875,-316.89453125,-867.67578125,0.0,0,0
1766858509.469886,1766858509.437842,-884.765625,-95.21484375,-241.69921875,-498.046875,0.0,0,0
1766858509.469923,1766858509.4417295,145.01953125,-45.8984375,166.50390625,495.1171875,0.0,0,0
1766858509.4699688,1766858509.4456172,893.5546875,-3.41796875,335.9375,875.0,0.0,0,0
1766858509.470044,1766858509.4495049,461.9140625,-19.04296875,39.55078125,319.3359375,0.0,0,0
1766858509.55868,1766858509.4535325,-554.6875,-62.98828125,-291.9921875,-703.61328125,0.0,0,0
1766858509.5588312,1766858509.45742,-895.5078125,-68.84765625,-268.5546875,-585.44921875,0.0,0,0
1766858509.558895,1766858509.4613078,86.42578125,-24.90234375,147.4609375,528.80859375,0.0,0,0
1766858509.558979,1766858509.4651954,882.32421875,1.953125,327.1484375,890.13671875,0.0,0,0
1766858509.559032,1766858509.469083,651.3671875,-16.6015625,99.609375,483.3984375,0.0,0,0
1766858509.559084,1766858509.4729707,-371.58203125,-53.7109375,-245.60546875,-538.57421875,0.0,0,0
1766858509.559137,1766858509.4768584,-922.8515625,-62.5,-312.98828125,-723.6328125,0.0,0,0
1766858509.559188,1766858509.480746,-18.06640625,-34.1796875,84.47265625,423.828125,0.0,0,0
1766858509.5592399,1766858509.4846337,851.5625,-14.6484375,317.87109375,906.73828125,0.0,0,0
1766858509.559338,1766858509.4885213,749.51171875,-9.765625,157.71484375,530.76171875,0.0,0,0
1766858509.559412,1766858509.492409,-251.46484375,-43.9453125,-209.47265625,-432.6171875,0.0,0,0
1766858509.559467,1766858509.4962966,-942.3828125,-78.125,-348.14453125,-820.80078125,0.0,0,0
1766858509.5729349,1766858509.5003371,-230.95703125,-40.0390625,16.11328125,205.56640625,0.0,0,0
1766858509.5730119,1766858509.5042248,739.2578125,5.859375,290.52734375,889.6484375,0.0,0,0
1766858509.573066,1766858509.5081124,715.8203125,-3.90625,169.43359375,478.02734375,0.0,0,0
1766858509.573119,1766858509.512,-266.6015625,-47.8515625,-215.8203125,-454.1015625,0.0,0,0
1766858509.57317,1766858509.515888,-934.08203125,-72.75390625,-363.28125,-868.1640625,0.0,0,0
1766858509.57322,1766858509.5197756,-437.01171875,-39.55078125,-38.57421875,-89.35546875,0.0,0,0
1766858509.573271,1766858509.5236633,598.6328125,15.625,256.8359375,802.734375,0.0,0,0
1766858509.57332,1766858509.527551,754.8828125,10.25390625,184.08203125,497.0703125,0.0,0,0
1766858509.5733702,1766858509.5314386,-267.578125,-43.45703125,-213.37890625,-516.6015625,0.0,0,0
1766858509.573421,1766858509.5353262,-935.05859375,-70.80078125,-373.046875,-898.4375,0.0,0,0
1766858509.573471,1766858509.5392141,-646.97265625,-56.640625,-115.72265625,-399.90234375,0.0,0,0
1766858509.573521,1766858509.5431018,394.53125,-5.859375,208.49609375,606.4453125,0.0,0,0
1766858509.618927,1766858509.547238,835.9375,20.01953125,229.98046875,577.63671875,0.0,0,0
1766858509.619049,1766858509.551126,-157.2265625,-30.76171875,-178.22265625,-539.55078125,0.0,0,0
1766858509.6191082,1766858509.5550137,-934.5703125,-81.0546875,-379.39453125,-935.546875,0.0,0,0
1766858509.6191628,1766858509.5589015,-826.171875,-73.2421875,-186.03515625,-602.05078125,0.0,0,0
1766858509.619215,1766858509.5627892,194.3359375,-21.484375,161.1328125,410.15625,0.0,0,0
1766858509.619267,1766858509.566677,870.1171875,-31.73828125,272.94921875,671.875,0.0,0,0
1766858509.619318,1766858509.5705647,22.4609375,-64.453125,-124.51171875,-447.265625,0.0,0,0
1766858509.619369,1766858509.5744526,-854.4921875,-57.6171875,-371.09375,-959.9609375,0.0,0,0
1766858509.6194189,1766858509.5783403,-851.5625,-72.75390625,-211.42578125,-681.640625,0.0,0,0
1766858509.6194692,1766858509.5822282,167.48046875,-45.41015625,158.203125,325.68359375,0.0,0,0
1766858509.619519,1766858509.5861158,838.8671875,15.13671875,275.390625,704.58984375,0.0,0,0
1766858509.619568,1766858509.5900035,177.24609375,-11.23046875,-86.9140625,-328.61328125,0.0,0,0
1766858509.6633012,1766858509.5941217,-735.83984375,-62.98828125,-349.609375,-952.1484375,0.0,0,0
1766858509.6633852,1766858509.5980096,-889.16015625,-60.546875,-242.67578125,-739.2578125,0.0,0,0
1766858509.66343,1766858509.6018972,164.0625,-7.8125,130.859375,290.52734375,0.0,0,0
1766858509.663469,1766858509.6057851,847.16796875,27.34375,281.25,741.69921875,0.0,0,0
1766858509.663507,1766858509.609673,322.265625,-15.13671875,-10.25390625,-165.52734375,0.0,0,0
1766858509.6635451,1766858509.613561,-591.796875,-73.2421875,-310.546875,-892.08984375,0.0,0,0
1766858509.6635818,1766858509.6174486,-948.2421875,-69.82421875,-279.296875,-794.43359375,0.0,0,0
1766858509.663619,1766858509.6213365,96.19140625,-28.80859375,102.5390625,286.1328125,0.0,0,0
1766858509.663656,1766858509.6252244,833.0078125,-2.44140625,269.04296875,779.78515625,0.0,0,0
1766858509.6636941,1766858509.629112,485.3515625,-20.5078125,41.9921875,85.44921875,0.0,0,0
1766858509.6637309,1766858509.633,-406.25,-62.98828125,-281.73828125,-722.16796875,0.0,0,0
1766858509.663789,1766858509.6368878,-914.55078125,-57.6171875,-311.5234375,-808.59375,0.0,0,0
1766858509.708412,1766858509.6409845,28.3203125,-13.18359375,80.56640625,273.92578125,0.0,0,0
1766858509.7085068,1766858509.6448724,857.421875,6.34765625,288.57421875,842.28515625,0.0,0,0
1766858509.708574,1766858509.6487603,689.94140625,0.48828125,116.2109375,314.453125,0.0,0,0
1766858509.708632,1766858509.6526482,-275.390625,-37.109375,-239.2578125,-562.5,0.0,0,0
1766858509.708683,1766858509.656536,-896.97265625,-56.15234375,-324.21875,-825.1953125,0.0,0,0
1766858509.7087371,1766858509.660424,-72.75390625,-15.13671875,44.921875,187.98828125,0.0,0,0
1766858509.708799,1766858509.664312,814.94140625,17.578125,274.90234375,877.9296875,0.0,0,0
1766858509.70885,1766858509.6681998,834.47265625,6.34765625,148.4375,471.19140625,0.0,0,0
1766858509.708902,1766858509.6720877,-153.80859375,-38.57421875,-214.84375,-462.890625,0.0,0,0
1766858509.7089531,1766858509.6759756,-888.18359375,-66.89453125,-349.609375,-820.80078125,0.0,0,0
1766858509.709004,1766858509.6798635,-310.546875,-41.50390625,-31.25,46.38671875,0.0,0,0
1766858509.709053,1766858509.6837513,625.9765625,6.8359375,249.51171875,832.51953125,0.0,0,0
1766858509.7541592,1766858509.6878364,866.2109375,17.08984375,189.453125,594.7265625,0.0,0,0
1766858509.754303,1766858509.6917243,-159.66796875,-35.15625,-188.4765625,-416.50390625,0.0,0,0
1766858509.754346,1766858509.6956124,-851.5625,-55.17578125,-335.44921875,-811.5234375,0.0,0,0
1766858509.754385,1766858509.6995003,-461.9140625,-32.2265625,-81.54296875,-103.515625,0.0,0,0
1766858509.754422,1766858509.7033882,430.6640625,-6.8359375,211.42578125,730.46875,0.0,0,0
1766858509.7544608,1766858509.707276,926.26953125,8.30078125,221.6796875,724.609375,0.0,0,0
1766858509.754499,1766858509.711164,-68.359375,-23.4375,-159.1796875,-361.328125,0.0,0,0
1766858509.754535,1766858509.7150521,-908.203125,-67.3828125,-344.23828125,-860.83984375,0.0,0,0
1766858509.754573,1766858509.71894,-682.12890625,-68.84765625,-156.25,-265.625,0.0,0,0
1766858509.7546089,1766858509.722828,266.11328125,-6.8359375,182.6171875,604.00390625,0.0,0,0
1766858509.754665,1766858509.7267158,928.7109375,17.578125,263.18359375,788.57421875,0.0,0,0
1766858509.754702,1766858509.7306037,68.84765625,-35.64453125,-113.28125,-266.6015625,0.0,0,0
1766858509.798935,1766858509.7346709,-858.3984375,-68.84765625,-334.47265625,-893.5546875,0.0,0,0
1766858509.79909,1766858509.738559,-688.96484375,-53.22265625,-171.875,-363.76953125,0.0,0,0
1766858509.7991948,1766858509.742447,259.27734375,-5.859375,193.84765625,522.94921875,0.0,0,0
1766858509.799249,1766858509.7463348,895.5078125,11.71875,301.26953125,804.6875,0.0,0,0
1766858509.799289,1766858509.750223,215.8203125,-30.76171875,-72.265625,-131.34765625,0.0,0,0
1766858509.799328,1766858509.7541108,-759.27734375,-50.29296875,-325.1953125,-897.4609375,0.0,0,0
1766858509.799366,1766858509.7579987,-820.3125,-38.57421875,-219.7265625,-560.05859375,0.0,0,0
1766858509.799403,1766858509.7618868,166.015625,-17.578125,122.55859375,405.2734375,0.0,0,0
1766858509.79944,1766858509.7657747,840.8203125,6.8359375,270.99609375,771.484375,0.0,0,0
1766858509.799476,1766858509.7696629,352.05078125,-11.23046875,-27.83203125,-47.8515625,0.0,0,0
1766858509.799513,1766858509.7735507,-602.5390625,-51.26953125,-322.265625,-859.375,0.0,0,0
1766858509.799556,1766858509.7774386,-937.01171875,-68.84765625,-276.3671875,-693.84765625,0.0,0,0
1766858509.858853,1766858509.781627,113.28125,-23.92578125,120.1171875,382.8125,0.0,0,0
1766858509.859019,1766858509.7855148,851.07421875,6.8359375,290.52734375,792.48046875,0.0,0,0
1766858509.859067,1766858509.789403,487.3046875,-9.27734375,41.015625,132.32421875,0.0,0,0
1766858509.859106,1766858509.793291,-423.828125,-49.31640625,-277.83203125,-711.42578125,0.0,0,0
1766858509.8591459,1766858509.7971792,-950.68359375,-75.68359375,-311.5234375,-762.20703125,0.0,0,0
1766858509.859188,1766858509.801067,1.46484375,-28.3203125,83.984375,342.7734375,0.0,0,0
1766858509.859225,1766858509.8049552,830.56640625,11.23046875,288.0859375,830.56640625,0.0,0,0
1766858509.859264,1766858509.8088434,579.58984375,-2.9296875,82.51953125,268.5546875,0.0,0,0
1766858509.859301,1766858509.8127315,-334.47265625,-43.45703125,-270.5078125,-596.19140625,0.0,0,0
1766858509.859338,1766858509.8166194,-941.89453125,-71.2890625,-344.23828125,-846.19140625,0.0,0,0
1766858509.8593762,1766858509.8205075,-153.80859375,-29.296875,27.83203125,182.12890625,0.0,0,0
1766858509.859412,1766858509.8243957,764.6484375,14.16015625,261.23046875,840.8203125,0.0,0,0
1766858509.903687,1766858509.8284256,694.3359375,-1.46484375,138.18359375,331.0546875,0.0,0,0
1766858509.90382,1766858509.8323135,-239.2578125,-48.33984375,-219.23828125,-530.2734375,0.0,0,0
1766858509.9038599,1766858509.8362017,-904.78515625,-62.98828125,-349.609375,-844.23828125,0.0,0,0
1766858509.9043012,1766858509.8400898,-327.63671875,-25.87890625,-12.6953125,5.859375,0.0,0,0
1766858509.9043431,1766858509.843978,608.3984375,-10.25390625,232.91015625,804.19921875,0.0,0,0
1766858509.904381,1766858509.847866,802.734375,-6.8359375,167.48046875,493.1640625,0.0,0,0
1766858509.904417,1766858509.8517542,-193.359375,-29.78515625,-189.453125,-467.7734375,0.0,0,0
1766858509.904454,1766858509.8556423,-884.27734375,-58.59375,-350.09765625,-838.37890625,0.0,0,0
1766858509.904491,1766858509.8595304,-457.51953125,-34.66796875,-63.4765625,-144.53125,0.0,0,0
1766858509.9045272,1766858509.8634186,467.28515625,2.44140625,225.5859375,728.02734375,0.0,0,0
1766858509.904563,1766858509.8673065,834.9609375,-0.48828125,198.2421875,594.23828125,0.0,0,0
1766858509.904625,1766858509.8711946,-159.66796875,-43.45703125,-177.734375,-478.02734375,0.0,0,0
1766858509.949496,1766858509.8753436,-905.2734375,-64.94140625,-342.7734375,-867.67578125,0.0,0,0
1766858509.949603,1766858509.8792317,-656.73828125,-50.78125,-128.41796875,-316.89453125,0.0,0,0
1766858509.949631,1766858509.8831198,296.875,-10.7421875,198.2421875,591.796875,0.0,0,0
1766858509.9496582,1766858509.887008,865.72265625,6.8359375,253.90625,712.890625,0.0,0,0
1766858509.949683,1766858509.890896,-47.36328125,-25.87890625,-128.90625,-384.765625,0.0,0,0
1766858509.949708,1766858509.8947845,-862.3046875,-58.59375,-328.61328125,-886.71875,0.0,0,0
1766858509.949732,1766858509.8986726,-711.42578125,-63.4765625,-151.85546875,-350.5859375,0.0,0,0
1766858509.9497569,1766858509.9025607,243.65234375,-22.94921875,186.5234375,530.76171875,0.0,0,0
1766858509.9497821,1766858509.9064488,828.125,4.39453125,254.8828125,788.0859375,0.0,0,0
1766858509.949806,1766858509.910337,78.61328125,-36.62109375,-95.703125,-171.875,0.0,0,0
1766858509.949829,1766858509.914225,-749.0234375,-70.3125,-307.12890625,-860.83984375,0.0,0,0
1766858509.949853,1766858509.9181135,-739.74609375,-51.26953125,-182.6171875,-388.671875,0.0,0,0
1766858509.993609,1766858509.9222407,162.109375,-21.484375,152.34375,497.0703125,0.0,0,0
1766858509.99373,1766858509.926129,871.09375,1.953125,287.109375,827.63671875,0.0,0,0
1766858509.993758,1766858509.9300172,415.0390625,-14.16015625,4.8828125,107.91015625,0.0,0,0
1766858509.993783,1766858509.9339056,-603.515625,-56.15234375,-288.57421875,-786.1328125,0.0,0,0
1766858509.993809,1766858509.9377937,-814.453125,-66.40625,-237.79296875,-484.375,0.0,0,0
1766858509.993833,1766858509.941682,214.35546875,-15.625,147.4609375,538.57421875,0.0,0,0
1766858509.993858,1766858509.9455702,856.4453125,9.765625,288.57421875,822.265625,0.0,0,0
1766858509.9938822,1766858509.9494584,590.33203125,-20.01953125,43.45703125,303.22265625,0.0,0,0
1766858509.993906,1766858509.9533467,-386.71875,-59.08203125,-259.765625,-636.71875,0.0,0,0
1766858509.993929,1766858509.9572349,-832.51953125,-50.78125,-271.97265625,-618.1640625,0.0,0,0
1766858509.993953,1766858509.9611232,125.48828125,-8.7890625,99.609375,499.0234375,0.0,0,0
1766858509.993977,1766858509.9650114,820.80078125,-2.9296875,266.11328125,843.75,0.0,0,0
1766858510.03893,1766858509.9691222,721.19140625,-1.46484375,92.28515625,403.3203125,0.0,0,0
1766858510.03907,1766858509.9730105,-248.046875,-35.15625,-231.93359375,-521.484375,0.0,0,0
1766858510.0391302,1766858509.976899,-887.6953125,-68.84765625,-311.5234375,-732.421875,0.0,0,0
1766858510.039171,1766858509.980787,-34.1796875,-32.71484375,57.12890625,371.09375,0.0,0,0
1766858510.03921,1766858509.9846754,766.6015625,0.9765625,269.04296875,868.1640625,0.0,0,0
1766858510.039248,1766858509.9885638,771.97265625,-3.41796875,137.20703125,461.9140625,0.0,0,0
1766858510.039285,1766858509.992452,-175.29296875,-33.69140625,-193.84765625,-446.2890625,0.0,0,0
1766858510.0393221,1766858509.9963403,-872.0703125,-57.6171875,-318.359375,-781.73828125,0.0,0,0
1766858510.03936,1766858510.0002286,-223.6328125,-37.109375,7.8125,187.01171875,0.0,0,0
1766858510.0394251,1766858510.004117,649.90234375,-5.37109375,256.8359375,851.07421875,0.0,0,0
1766858510.0394728,1766858510.0080051,800.29296875,9.27734375,174.31640625,502.9296875,0.0,0,0
1766858510.039513,1766858510.0118935,-188.96484375,-30.76171875,-184.5703125,-440.91796875,0.0,0,0
1766858510.083275,1766858510.0159886,-860.3515625,-56.640625,-328.125,-813.96484375,0.0,0,0
1766858510.083392,1766858510.019877,-459.47265625,-48.33984375,-57.12890625,-66.40625,0.0,0,0
1766858510.0834198,1766858510.023765,473.6328125,-28.3203125,230.46875,762.20703125,0.0,0,0
1766858510.083445,1766858510.0276535,834.9609375,-17.08984375,207.03125,591.796875,0.0,0,0
1766858510.08347,1766858510.0315418,-199.21875,-50.78125,-172.8515625,-468.75,0.0,0,0
1766858510.083494,1766858510.0354302,-847.65625,-57.6171875,-311.5234375,-828.125,0.0,0,0
1766858510.0835168,1766858510.0393186,-559.08203125,-35.64453125,-84.9609375,-225.09765625,0.0,0,0
1766858510.083542,1766858510.043207,328.125,-10.25390625,200.1953125,634.27734375,0.0,0,0
1766858510.0835671,1766858510.0470953,859.375,1.953125,238.28125,691.89453125,0.0,0,0
1766858510.0835898,1766858510.0509837,-83.49609375,-39.55078125,-131.8359375,-412.109375,0.0,0,0
1766858510.083615,1766858510.054872,-874.0234375,-62.5,-323.73046875,-881.8359375,0.0,0,0
1766858510.083638,1766858510.0587604,-722.16796875,-45.8984375,-142.08984375,-369.62890625,0.0,0,0
1766858510.186921,1766858510.0631127,218.75,-6.34765625,189.94140625,511.23046875,0.0,0,0
1766858510.1870358,1766858510.0670013,871.58203125,14.6484375,287.59765625,739.74609375,0.0,0,0
1766858510.1870642,1766858510.0708897,121.58203125,-15.625,-65.4296875,-286.62109375,0.0,0,0
1766858510.187089,1766858510.0747783,-784.1796875,-59.08203125,-304.6875,-911.1328125,0.0,0,0
1766858510.187114,1766858510.0786667,-815.91796875,-64.94140625,-188.4765625,-494.62890625,0.0,0,0
1766858510.187139,1766858510.082555,182.12890625,-11.71875,162.109375,444.3359375,0.0,0,0
1766858510.187191,1766858510.0864437,840.8203125,23.4375,288.0859375,757.8125,0.0,0,0
1766858510.187254,1766858510.090332,248.53515625,-16.11328125,-37.59765625,-132.32421875,0.0,0,0
1766858510.1872919,1766858510.0942206,-677.734375,-66.40625,-314.94140625,-885.7421875,0.0,0,0
1766858510.187318,1766858510.098109,-922.36328125,-73.2421875,-246.09375,-631.8359375,0.0,0,0
1766858510.1873431,1766858510.1019976,100.09765625,-36.62109375,120.60546875,399.4140625,0.0,0,0
1766858510.187367,1766858510.105886,817.3828125,-0.9765625,281.73828125,766.6015625,0.0,0,0
1766858510.1898649,1766858510.11009,381.8359375,-21.97265625,21.97265625,18.5546875,0.0,0,0
1766858510.189913,1766858510.1139784,-505.859375,-65.91796875,-276.3671875,-786.62109375,0.0,0,0
1766858510.1899369,1766858510.117867,-944.82421875,-68.84765625,-271.484375,-726.5625,0.0,0,0
1766858510.189962,1766858510.1217556,23.92578125,-24.90234375,105.95703125,365.234375,0.0,0,0
1766858510.190012,1766858510.1256442,789.0625,7.32421875,276.85546875,784.1796875,0.0,0,0
1766858510.190067,1766858510.1295328,539.0625,3.41796875,78.61328125,165.0390625,0.0,0,0
1766858510.190094,1766858510.1334212,-325.68359375,-33.203125,-235.83984375,-650.87890625,0.0,0,0
1766858510.190119,1766858510.1373098,-962.890625,-72.75390625,-312.98828125,-809.5703125,0.0,0,0
1766858510.190173,1766858510.1411984,-132.8125,-56.640625,47.36328125,261.71875,0.0,0,0
1766858510.1902158,1766858510.145087,759.27734375,-19.04296875,253.90625,820.80078125,0.0,0,0
1766858510.190259,1766858510.1489756,619.140625,-12.6953125,96.6796875,279.296875,0.0,0,0
1766858510.190301,1766858510.152864,-284.66796875,-41.50390625,-230.95703125,-555.17578125,0.0,0,0
1766858510.220088,1766858510.1569176,-884.27734375,-61.03515625,-312.01171875,-810.546875,0.0,0,0
1766858510.220236,1766858510.1608062,-250.48828125,-28.3203125,20.5078125,138.671875,0.0,0,0
1766858510.220279,1766858510.1646948,653.80859375,9.27734375,247.55859375,827.63671875,0.0,0,0
1766858510.220319,1766858510.1685834,729.00390625,8.7890625,147.94921875,406.25,0.0,0,0
1766858510.2203572,1766858510.172472,-234.375,-38.57421875,-200.1953125,-496.58203125,0.0,0,0
1766858510.220395,1766858510.1763606,-890.13671875,-73.73046875,-325.1953125,-825.68359375,0.0,0,0
1766858510.2209,1766858510.1802492,-416.015625,-41.9921875,-30.76171875,-45.8984375,0.0,0,0
1766858510.220944,1766858510.1841378,538.57421875,0.9765625,229.4921875,776.3671875,0.0,0,0
1766858510.220974,1766858510.1880264,817.87109375,-3.90625,180.6640625,527.34375,0.0,0,0
1766858510.221003,1766858510.191915,-197.75390625,-42.96875,-188.96484375,-498.046875,0.0,0,0
1766858510.221031,1766858510.1958036,-876.953125,-48.828125,-343.26171875,-833.984375,0.0,0,0
1766858510.22106,1766858510.1996922,-582.03125,-26.85546875,-103.02734375,-217.7734375,0.0,0,0
1766858510.277333,1766858510.2037141,346.6796875,0.9765625,197.265625,655.76171875,0.0,0,0
1766858510.2774432,1766858510.207603,854.00390625,5.37109375,212.890625,648.4375,0.0,0,0
1766858510.277498,1766858510.2114916,-99.12109375,-46.38671875,-155.76171875,-450.68359375,0.0,0,0
1766858510.277536,1766858510.2153802,-866.2109375,-73.73046875,-322.75390625,-875.9765625,0.0,0,0
1766858510.2775629,1766858510.2192688,-689.453125,-61.5234375,-142.08984375,-356.93359375,0.0,0,0
1766858510.277587,1766858510.2231574,260.7421875,-2.9296875,182.6171875,539.0625,0.0,0,0
1766858510.277611,1766858510.227046,855.95703125,21.97265625,241.2109375,708.49609375,0.0,0,0
1766858510.277636,1766858510.2309346,39.0625,-33.203125,-129.39453125,-348.14453125,0.0,0,0
1766858510.27766,1766858510.2348235,-810.546875,-66.40625,-333.49609375,-900.87890625,0.0,0,0
1766858510.277684,1766858510.238712,-757.32421875,-58.59375,-181.640625,-456.0546875,0.0,0,0
1766858510.277708,1766858510.2426007,202.1484375,-6.8359375,166.50390625,458.0078125,0.0,0,0
1766858510.277733,1766858510.2464893,856.93359375,25.390625,280.2734375,765.625,0.0,0,0
1766858510.3236322,1766858510.2505007,220.21484375,-16.6015625,-50.29296875,-179.6875,0.0,0,0
1766858510.323751,1766858510.2543893,-715.33203125,-66.40625,-306.640625,-900.390625,0.0,0,0
1766858510.323779,1766858510.258278,-843.75,-64.453125,-207.03125,-549.8046875,0.0,0,0
1766858510.323804,1766858510.2621667,173.828125,-14.6484375,145.01953125,435.546875,0.0,0,0
1766858510.323829,1766858510.2660553,801.7578125,7.32421875,269.53125,755.37109375,0.0,0,0
1766858510.323852,1766858510.269944,356.93359375,-11.23046875,2.44140625,-14.16015625,0.0,0,0
1766858510.3238761,1766858510.2738326,-519.04296875,-33.69140625,-272.4609375,-803.22265625,0.0,0,0
1766858510.323902,1766858510.2777214,-923.828125,-48.33984375,-256.34765625,-672.36328125,0.0,0,0
1766858510.323926,1766858510.28161,62.01171875,-24.4140625,96.6796875,396.97265625,0.0,0,0
1766858510.32395,1766858510.2854986,831.0546875,-6.8359375,273.92578125,801.7578125,0.0,0,0
1766858510.3239732,1766858510.2893872,550.29296875,-15.13671875,74.70703125,180.17578125,0.0,0,0
1766858510.323997,1766858510.293276,-366.2109375,-38.0859375,-253.90625,-675.78125,0.0,0,0
1766858510.368351,1766858510.2974012,-949.21875,-52.734375,-309.5703125,-777.83203125,0.0,0,0
1766858510.368457,1766858510.30129,-49.8046875,-14.16015625,66.89453125,327.63671875,0.0,0,0
1766858510.368484,1766858510.3051786,794.921875,16.6015625,270.5078125,816.40625,0.0,0,0
1766858510.3685088,1766858510.3090675,654.296875,11.71875,108.3984375,262.20703125,0.0,0,0
1766858510.368534,1766858510.312956,-258.7890625,-26.3671875,-229.98046875,-572.265625,0.0,0,0
1766858510.3685591,1766858510.316845,-892.08984375,-47.8515625,-316.40625,-795.8984375,0.0,0,0
1766858510.368587,1766858510.3207335,-162.59765625,-19.04296875,21.97265625,201.171875,0.0,0,0
1766858510.368613,1766858510.3246224,714.35546875,5.859375,237.3046875,840.33203125,0.0,0,0
1766858510.3686368,1766858510.328511,767.08984375,-3.41796875,135.7421875,411.62109375,0.0,0,0
1766858510.368661,1766858510.3323998,-205.56640625,-57.6171875,-200.1953125,-490.234375,0.0,0,0
1766858510.368685,1766858510.3362885,-899.4140625,-77.63671875,-329.1015625,-813.4765625,0.0,0,0
1766858510.3687098,1766858510.3401773,-375.9765625,-36.1328125,-21.97265625,42.96875,0.0,0,0
1766858510.414329,1766858510.344281,565.91796875,12.20703125,245.60546875,816.40625,0.0,0,0
1766858510.414434,1766858510.3481698,812.98828125,17.578125,187.01171875,535.64453125,0.0,0,0
1766858510.414477,1766858510.3520586,-196.2890625,-31.25,-172.36328125,-461.42578125,0.0,0,0
1766858510.414515,1766858510.3559475,-877.9296875,-56.15234375,-316.89453125,-821.77734375,0.0,0,0
1766858510.414554,1766858510.359836,-519.04296875,-40.52734375,-74.70703125,-137.20703125,0.0,0,0
1766858510.414591,1766858510.363725,407.71484375,-6.8359375,213.8671875,708.984375,0.0,0,0
1766858510.4146292,1766858510.3676138,873.53515625,8.30078125,219.23828125,633.7890625,0.0,0,0
1766858510.414666,1766858510.3715026,-104.4921875,-24.90234375,-158.203125,-450.68359375,0.0,0,0
1766858510.414704,1766858510.3753912,-891.6015625,-81.0546875,-335.9375,-852.5390625,0.0,0,0
1766858510.414741,1766858510.37928,-646.484375,-82.03125,-128.41796875,-263.18359375,0.0,0,0
1766858510.414777,1766858510.383169,303.22265625,-4.39453125,199.70703125,606.4453125,0.0,0,0
1766858510.414814,1766858510.3870578,872.55859375,24.90234375,251.953125,722.16796875,0.0,0,0
1766858510.472918,1766858510.391149,18.06640625,-20.5078125,-123.046875,-348.6328125,0.0,0,0
1766858510.47309,1766858510.395038,-820.80078125,-55.6640625,-322.265625,-889.6484375,0.0,0,0
1766858510.4731479,1766858510.3989267,-711.42578125,-38.57421875,-159.1796875,-383.30078125,0.0,0,0
1766858510.473205,1766858510.4028156,216.796875,-1.46484375,169.921875,503.90625,0.0,0,0
1766858510.473257,1766858510.4067044,849.12109375,2.44140625,264.6484375,754.8828125,0.0,0,0
1766858510.473314,1766858510.4105933,219.23828125,-13.671875,-54.6875,-183.10546875,0.0,0,0
1766858510.473365,1766858510.414482,-710.44921875,-38.0859375,-306.15234375,-882.8125,0.0,0,0
1766858510.473424,1766858510.418371,-855.95703125,-52.24609375,-218.26171875,-518.06640625,0.0,0,0
1766858510.473493,1766858510.4222598,145.5078125,-24.4140625,139.6484375,445.3125,0.0,0,0
1766858510.473552,1766858510.4261487,844.23828125,2.9296875,276.85546875,766.11328125,0.0,0,0
1766858510.473613,1766858510.4300375,378.90625,-20.01953125,-12.20703125,-22.94921875,0.0,0,0
1766858510.473711,1766858510.4339263,-588.37890625,-67.87109375,-297.36328125,-831.0546875,0.0,0,0
1766858510.5035148,1766858510.4379966,-888.671875,-62.5,-249.51171875,-625.9765625,0.0,0,0
1766858510.503604,1766858510.4418855,156.25,-5.859375,124.51171875,448.2421875,0.0,0,0
1766858510.503656,1766858510.4457743,841.30859375,15.625,283.69140625,789.0625,0.0,0,0
1766858510.503708,1766858510.4496632,491.2109375,-4.39453125,48.828125,131.8359375,0.0,0,0
1766858510.50377,1766858510.453552,-426.7578125,-46.875,-265.625,-707.51953125,0.0,0,0
1766858510.503823,1766858510.457441,-886.23046875,-54.19921875,-269.04296875,-712.40234375,0.0,0,0
1766858510.503874,1766858510.46133,12.20703125,-6.34765625,111.328125,387.6953125,0.0,0,0
1766858510.503937,1766858510.4652188,792.48046875,3.41796875,281.25,818.359375,0.0,0,0
1766858510.503986,1766858510.4691076,642.578125,-15.625,92.28515625,273.92578125,0.0,0,0
1766858510.5040371,1766858510.4729965,-287.109375,-42.48046875,-231.4453125,-577.1484375,0.0,0,0
1766858510.504089,1766858510.4768853,-896.484375,-52.24609375,-298.33984375,-780.2734375,0.0,0,0
1766858510.504174,1766858510.4807744,-122.55859375,-16.6015625,48.33984375,268.5546875,0.0,0,0
1766858510.549011,1766858510.4848318,716.796875,13.671875,252.44140625,837.40234375,0.0,0,0
1766858510.549147,1766858510.4887207,716.796875,11.71875,131.8359375,377.9296875,0.0,0,0
1766858510.5491898,1766858510.4926095,-203.61328125,-24.4140625,-198.2421875,-486.81640625,0.0,0,0
1766858510.54923,1766858510.4964986,-868.1640625,-49.31640625,-323.73046875,-798.33984375,0.0,0,0
1766858510.549271,1766858510.5003874,-307.6171875,-26.85546875,-11.23046875,99.12109375,0.0,0,0
1766858510.5493078,1766858510.5042765,588.37890625,8.7890625,246.58203125,822.265625,0.0,0,0
1766858510.5493472,1766858510.5081654,764.16015625,0.48828125,154.78515625,485.83984375,0.0,0,0
1766858510.549387,1766858510.5120542,-210.9375,-56.640625,-203.125,-474.609375,0.0,0,0
1766858510.5494242,1766858510.5159433,-869.62890625,-78.61328125,-323.73046875,-802.734375,0.0,0,0
1766858510.549988,1766858510.5198321,-488.28125,-57.12890625,-61.5234375,-75.1953125,0.0,0,0
1766858510.550029,1766858510.523721,442.87109375,0.48828125,225.5859375,743.65234375,0.0,0,0
1766858510.550067,1766858510.52761,878.90625,32.2265625,214.84375,640.625,0.0,0,0
1766858510.593863,1766858510.531646,-122.55859375,-13.18359375,-163.0859375,-439.453125,0.0,0,0
1766858510.593954,1766858510.5355349,-875.0,-46.875,-320.80078125,-841.796875,0.0,0,0
1766858510.5939991,1766858510.539424,-598.6328125,-42.96875,-104.4921875,-225.09765625,0.0,0,0
1766858510.594039,1766858510.5433128,334.47265625,-11.71875,208.0078125,636.71875,0.0,0,0
1766858510.5940769,1766858510.5472019,871.09375,0.9765625,250.48828125,721.6796875,0.0,0,0
1766858510.5941179,1766858510.5510907,0.48828125,-35.64453125,-106.4453125,-354.98046875,0.0,0,0
1766858510.594156,1766858510.5549798,-822.75390625,-62.5,-299.31640625,-879.39453125,0.0,0,0
1766858510.594193,1766858510.5588686,-738.28125,-60.05859375,-160.64453125,-375.9765625,0.0,0,0
1766858510.59423,1766858510.5627577,197.75390625,-15.625,153.3203125,507.32421875,0.0,0,0
1766858510.5942662,1766858510.5666466,880.37109375,12.6953125,259.765625,757.8125,0.0,0,0
1766858510.594302,1766858510.5705357,185.546875,-15.625,-74.21875,-232.91015625,0.0,0,0
1766858510.594338,1766858510.5744247,-741.69921875,-60.546875,-314.94140625,-889.6484375,0.0,0,0
1766858510.6529438,1766858510.5784447,-837.40234375,-62.98828125,-202.63671875,-487.79296875,0.0,0,0
1766858510.653025,1766858510.5823336,132.32421875,-25.87890625,138.18359375,436.5234375,0.0,0,0
1766858510.653053,1766858510.5862226,846.19140625,2.9296875,273.92578125,766.6015625,0.0,0,0
1766858510.653078,1766858510.5901117,321.2890625,-19.53125,-22.4609375,-71.2890625,0.0,0,0
1766858510.6531022,1766858510.5940006,-626.953125,-61.5234375,-307.6171875,-851.5625,0.0,0,0
1766858510.653126,1766858510.5978897,-848.14453125,-51.7578125,-237.3046875,-574.21875,0.0,0,0
1766858510.6531498,1766858510.6017787,142.08984375,-24.4140625,114.74609375,451.66015625,0.0,0,0
1766858510.653174,1766858510.6056676,819.82421875,-14.16015625,245.1171875,779.78515625,0.0,0,0
1766858510.653198,1766858510.6095567,478.515625,-14.6484375,12.6953125,118.1640625,0.0,0,0
1766858510.6532211,1766858510.6134458,-443.359375,-38.0859375,-269.04296875,-726.5625,0.0,0,0
1766858510.653245,1766858510.6173346,-946.77734375,-55.17578125,-272.4609375,-708.0078125,0.0,0,0
1766858510.653269,1766858510.6212237,-10.25390625,-30.76171875,90.8203125,391.11328125,0.0,0,0
1766858510.698737,1766858510.6252296,808.59375,10.25390625,276.3671875,801.7578125,0.0,0,0
1766858510.698878,1766858510.6291187,592.7734375,0.9765625,80.078125,229.00390625,0.0,0,0
1766858510.6989172,1766858510.6330078,-327.63671875,-43.45703125,-250.0,-616.69921875,0.0,0,0
1766858510.698944,1766858510.6368968,-907.71484375,-54.6875,-304.6875,-771.484375,0.0,0,0
1766858510.6989691,1766858510.6407857,-108.88671875,-17.578125,52.24609375,301.26953125,0.0,0,0
1766858510.698994,1766858510.6446748,746.09375,18.5546875,263.18359375,846.6796875,0.0,0,0
1766858510.699018,1766858510.6485639,684.5703125,15.13671875,121.58203125,340.8203125,0.0,0,0
1766858510.699042,1766858510.652453,-245.1171875,-35.15625,-221.19140625,-498.53515625,0.0,0,0
1766858510.699065,1766858510.6563418,-861.328125,-68.359375,-308.10546875,-761.71875,0.0,0,0
1766858510.6990888,1766858510.6602309,-265.13671875,-43.9453125,7.32421875,137.20703125,0.0,0,0
1766858510.699113,1766858510.66412,658.203125,4.8828125,248.046875,846.19140625,0.0,0,0
1766858510.699137,1766858510.668009,779.296875,17.08984375,159.1796875,479.4921875,0.0,0,0
1766858510.772588,1766858510.6722815,-231.93359375,-37.59765625,-203.61328125,-471.19140625,0.0,0,0
1766858510.7726731,1766858510.6761708,-847.16796875,-69.3359375,-335.44921875,-799.31640625,0.0,0,0
1766858510.772705,1766858510.68006,-428.22265625,-52.24609375,-56.640625,-47.8515625,0.0,0,0
1766858510.7727308,1766858510.683949,456.54296875,-15.13671875,218.26171875,753.90625,0.0,0,0
1766858510.7727559,1766858510.687838,858.88671875,14.16015625,203.61328125,608.88671875,0.0,0,0
1766858510.7727811,1766858510.6917272,-133.30078125,-20.99609375,-163.0859375,-438.96484375,0.0,0,0
1766858510.772806,1766858510.6956165,-864.2578125,-60.05859375,-338.37890625,-833.49609375,0.0,0,0
1766858510.77283,1766858510.6995056,-561.5234375,-49.31640625,-122.55859375,-218.75,0.0,0,0
1766858510.772854,1766858510.7033947,331.54296875,-15.625,179.6875,637.6953125,0.0,0,0
1766858510.772877,1766858510.7072837,891.6015625,-7.8125,223.14453125,690.4296875,0.0,0,0
1766858510.7729,1766858510.7111728,-23.4375,-33.203125,-145.01953125,-407.71484375,0.0,0,0
1766858510.772924,1766858510.7150621,-818.359375,-53.22265625,-320.3125,-860.3515625,0.0,0,0
1766858510.788755,1766858510.7191741,-628.90625,-44.921875,-144.53125,-315.91796875,0.0,0,0
1766858510.7888691,1766858510.7230632,236.81640625,-9.765625,160.15625,530.76171875,0.0,0,0
1766858510.788897,1766858510.7269523,862.3046875,10.25390625,251.46484375,738.28125,0.0,0,0
1766858510.7889228,1766858510.7308416,95.703125,-18.06640625,-86.9140625,-285.15625,0.0,0,0
1766858510.788946,1766858510.7347307,-791.015625,-43.45703125,-308.10546875,-905.2734375,0.0,0,0
1766858510.788971,1766858510.73862,-761.23046875,-39.55078125,-178.22265625,-459.47265625,0.0,0,0
1766858510.788995,1766858510.7425091,205.078125,-12.20703125,154.78515625,468.75,0.0,0,0
1766858510.7890189,1766858510.7463984,799.31640625,-5.859375,257.8125,745.60546875,0.0,0,0
1766858510.789042,1766858510.7502875,257.8125,-33.203125,-36.1328125,-128.41796875,0.0,0,0
1766858510.789066,1766858510.7541769,-618.65234375,-62.01171875,-280.76171875,-858.88671875,0.0,0,0
1766858510.7890902,1766858510.758066,-869.140625,-55.17578125,-224.609375,-580.56640625,0.0,0,0
1766858510.789113,1766858510.761955,117.67578125,-11.23046875,111.328125,422.36328125,0.0,0,0
1766858510.833347,1766858510.7660394,797.36328125,0.9765625,253.90625,762.6953125,0.0,0,0
1766858510.833431,1766858510.7699287,364.74609375,-18.06640625,-3.90625,8.7890625,0.0,0,0
1766858510.833463,1766858510.7738178,-540.0390625,-41.50390625,-294.921875,-811.03515625,0.0,0,0
1766858510.833489,1766858510.777707,-905.76171875,-58.10546875,-265.13671875,-691.40625,0.0,0,0
1766858510.833514,1766858510.7815964,77.1484375,-30.76171875,107.91015625,399.90234375,0.0,0,0
1766858510.833538,1766858510.7854855,790.0390625,2.9296875,275.87890625,784.66796875,0.0,0,0
1766858510.8335629,1766858510.7893748,527.34375,-14.6484375,68.359375,188.4765625,0.0,0,0
1766858510.833587,1766858510.7932642,-335.44921875,-56.15234375,-248.53515625,-640.13671875,0.0,0,0
1766858510.833611,1766858510.7971532,-916.9921875,-76.171875,-312.5,-770.01953125,0.0,0,0
1766858510.833635,1766858510.8010426,-35.64453125,-27.83203125,55.6640625,325.1953125,0.0,0,0
1766858510.8336582,1766858510.8049316,770.01953125,11.23046875,256.8359375,832.51953125,0.0,0,0
1766858510.833705,1766858510.808821,642.578125,-0.9765625,106.93359375,304.19921875,0.0,0,0
1766858510.879262,1766858510.8128927,-250.48828125,-43.9453125,-221.19140625,-544.921875,0.0,0,0
1766858510.87939,1766858510.816782,-891.6015625,-71.2890625,-318.359375,-805.6640625,0.0,0,0
1766858510.879435,1766858510.8206713,-206.54296875,-29.296875,20.99609375,162.59765625,0.0,0,0
1766858510.879477,1766858510.8245606,673.828125,16.6015625,247.55859375,830.078125,0.0,0,0
1766858510.879515,1766858510.82845,729.4921875,8.7890625,149.4140625,411.1328125,0.0,0,0
1766858510.8795981,1766858510.8323393,-193.84765625,-32.71484375,-177.734375,-479.98046875,0.0,0,0
1766858510.879673,1766858510.8362284,-856.4453125,-53.7109375,-312.5,-807.12890625,0.0,0,0
1766858510.879763,1766858510.8401177,-407.71484375,-40.0390625,-44.43359375,-38.0859375,0.0,0,0
1766858510.8798358,1766858510.844007,515.625,-28.3203125,207.51953125,766.11328125,0.0,0,0
1766858510.879919,1766858510.8478963,826.171875,-19.53125,171.875,543.9453125,0.0,0,0
1766858510.879989,1766858510.8517857,-189.94140625,-41.50390625,-181.640625,-485.83984375,0.0,0,0
1766858510.880058,1766858510.855675,-855.95703125,-69.3359375,-329.1015625,-823.73046875,0.0,0,0
1766858510.9233851,1766858510.8597293,-508.30078125,-49.8046875,-88.8671875,-164.55078125,0.0,0,0
1766858510.9234939,1766858510.8636186,387.20703125,-3.41796875,209.9609375,688.96484375,0.0,0,0
1766858510.923521,1766858510.867508,847.16796875,20.99609375,223.14453125,650.87890625,0.0,0,0
1766858510.923548,1766858510.8713973,-101.07421875,-17.08984375,-157.2265625,-450.68359375,0.0,0,0
1766858510.923573,1766858510.8752866,-847.16796875,-55.6640625,-323.2421875,-857.421875,0.0,0,0
1766858510.923598,1766858510.879176,-630.859375,-40.52734375,-129.8828125,-299.8046875,0.0,0,0
1766858510.9236212,1766858510.8830652,272.4609375,-3.90625,180.17578125,560.546875,0.0,0,0
1766858510.923676,1766858510.8869545,847.65625,-8.7890625,254.39453125,725.5859375,0.0,0,0
1766858510.923706,1766858510.8908439,72.265625,-32.71484375,-80.56640625,-318.359375,0.0,0,0
1766858510.9237309,1766858510.8947332,-791.9921875,-57.6171875,-293.9453125,-899.90234375,0.0,0,0
1766858510.9237561,1766858510.8986225,-758.7890625,-67.3828125,-163.0859375,-422.36328125,0.0,0,0
1766858510.9237802,1766858510.9025118,215.33203125,-11.71875,173.828125,491.69921875,0.0,0,0
1766858510.969122,1766858510.90655,814.94140625,15.625,270.5078125,747.55859375,0.0,0,0
1766858510.9693272,1766858510.9104395,222.16796875,-20.01953125,-45.41015625,-160.64453125,0.0,0,0
1766858510.969388,1766858510.9143288,-673.828125,-60.546875,-291.50390625,-878.41796875,0.0,0,0
1766858510.969434,1766858510.9182181,-825.68359375,-57.6171875,-197.265625,-554.6875,0.0,0,0
1766858510.96948,1766858510.9221075,178.7109375,-12.20703125,149.90234375,436.03515625,0.0,0,0
1766858510.9695182,1766858510.9259968,815.91796875,5.859375,288.0859375,762.6953125,0.0,0,0
1766858510.9695559,1766858510.929886,429.19921875,-27.83203125,41.015625,26.85546875,0.0,0,0
1766858510.969593,1766858510.9337757,-498.046875,-82.51953125,-259.765625,-784.1796875,0.0,0,0
1766858510.9696288,1766858510.937665,-895.01953125,-81.54296875,-255.37109375,-663.0859375,0.0,0,0
1766858510.969666,1766858510.9415543,112.3046875,-23.92578125,126.46484375,425.78125,0.0,0,0
1766858510.969703,1766858510.9454436,777.83203125,10.25390625,278.3203125,773.92578125,0.0,0,0
1766858510.969739,1766858510.949333,509.765625,-4.39453125,62.98828125,167.96875,0.0,0,0
1766858511.057376,1766858510.9533565,-333.0078125,-46.875,-238.28125,-646.97265625,0.0,0,0
1766858511.057507,1766858510.957246,-919.921875,-74.21875,-287.109375,-758.30078125,0.0,0,0
1766858511.0575511,1766858510.9611354,-23.4375,-33.69140625,91.30859375,345.703125,0.0,0,0
1766858511.057591,1766858510.9650247,768.5546875,-3.90625,274.90234375,818.84765625,0.0,0,0
1766858511.05763,1766858510.968914,623.53515625,-17.08984375,96.19140625,287.59765625,0.0,0,0
1766858511.0576682,1766858510.9728036,-246.58203125,-32.2265625,-205.078125,-543.45703125,0.0,0,0
1766858511.0577059,1766858510.976693,-906.25,-49.8046875,-288.57421875,-797.36328125,0.0,0,0
1766858511.0577438,1766858510.9805822,-208.984375,-26.85546875,21.484375,199.70703125,0.0,0,0
1766858511.057781,1766858510.9844718,691.89453125,6.8359375,246.09375,853.515625,0.0,0,0
1766858511.057819,1766858510.9883611,717.7734375,-14.6484375,139.16015625,414.55078125,0.0,0,0
1766858511.057857,1766858510.9922504,-236.328125,-53.7109375,-203.61328125,-490.72265625,0.0,0,0
1766858511.057895,1766858510.99614,-870.60546875,-65.91796875,-322.265625,-807.6171875,0.0,0,0
1766858511.074047,1766858511.0001569,-363.76953125,-44.921875,-25.390625,30.2734375,0.0,0,0
1766858511.074191,1766858511.0040464,560.546875,-8.30078125,234.375,804.6875,0.0,0,0
1766858511.074218,1766858511.0079358,848.6328125,7.8125,187.98828125,537.109375,0.0,0,0
1766858511.074244,1766858511.0118253,-163.0859375,-41.9921875,-176.7578125,-464.84375,0.0,0,0
1766858511.0742679,1766858511.0157146,-885.25390625,-79.1015625,-335.9375,-818.359375,0.0,0,0
1766858511.074294,1766858511.0196042,-526.85546875,-62.01171875,-81.0546875,-120.60546875,0.0,0,0
1766858511.0743191,1766858511.0234935,389.6484375,-12.20703125,214.35546875,710.44921875,0.0,0,0
1766858511.074344,1766858511.0273829,850.5859375,12.6953125,204.58984375,635.7421875,0.0,0,0
1766858511.074369,1766858511.0312724,-146.484375,-51.26953125,-177.734375,-450.1953125,0.0,0,0
1766858511.074392,1766858511.0351617,-863.28125,-80.56640625,-340.8203125,-839.35546875,0.0,0,0
1766858511.0744162,1766858511.0390513,-591.796875,-53.7109375,-131.8359375,-256.8359375,0.0,0,0
1766858511.07444,1766858511.0429406,292.96875,-5.859375,190.4296875,587.40234375,0.0,0,0
1766858511.132704,1766858511.0470607,849.609375,14.16015625,248.53515625,720.21484375,0.0,0,0
1766858511.132878,1766858511.05095,32.71484375,-34.1796875,-121.09375,-340.33203125,0.0,0,0
1766858511.13294,1766858511.0548396,-807.6171875,-64.94140625,-316.89453125,-884.27734375,0.0,0,0
1766858511.132997,1766858511.0587292,-721.6796875,-58.10546875,-165.52734375,-379.39453125,0.0,0,0
1766858511.133051,1766858511.0626185,225.5859375,-19.04296875,156.25,499.51171875,0.0,0,0
1766858511.133114,1766858511.066508,854.00390625,5.859375,261.71875,760.7421875,0.0,0,0
1766858511.1331651,1766858511.0703976,225.5859375,-22.4609375,-58.59375,-164.0625,0.0,0,0
1766858511.133216,1766858511.074287,-706.54296875,-64.94140625,-313.96484375,-877.9296875,0.0,0,0
1766858511.133276,1766858511.0781765,-803.22265625,-59.5703125,-210.9375,-509.765625,0.0,0,0
1766858511.133329,1766858511.082066,166.50390625,-18.06640625,137.6953125,445.3125,0.0,0,0
1766858511.133394,1766858511.0859556,822.265625,9.765625,269.04296875,768.06640625,0.0,0,0
1766858511.133448,1766858511.089845,359.86328125,-2.9296875,-3.41796875,-20.5078125,0.0,0,0
1766858511.163553,1766858511.0939429,-569.3359375,-50.29296875,-293.45703125,-825.68359375,0.0,0,0
1766858511.163658,1766858511.0978324,-881.8359375,-58.59375,-250.48828125,-626.953125,0.0,0,0
1766858511.163718,1766858511.101722,105.95703125,-12.6953125,122.55859375,436.03515625,0.0,0,0
1766858511.1637719,1766858511.1056116,789.55078125,4.8828125,266.11328125,779.296875,0.0,0,0
1766858511.163826,1766858511.109501,459.47265625,-9.27734375,43.45703125,135.25390625,0.0,0,0
1766858511.163882,1766858511.1133904,-414.0625,-39.0625,-256.34765625,-697.75390625,0.0,0,0
1766858511.163934,1766858511.11728,-939.94140625,-43.9453125,-292.48046875,-759.27734375,0.0,0,0
1766858511.163986,1766858511.1211696,-87.40234375,-20.5078125,57.12890625,336.42578125,0.0,0,0
1766858511.164038,1766858511.1250591,757.32421875,2.44140625,253.41796875,810.546875,0.0,0,0
1766858511.164156,1766858511.1289487,582.51953125,1.46484375,84.9609375,238.28125,0.0,0,0
1766858511.1642182,1766858511.1328382,-322.265625,-49.31640625,-234.86328125,-595.21484375,0.0,0,0
1766858511.164268,1766858511.1367278,-911.62109375,-70.80078125,-306.15234375,-799.31640625,0.0,0,0
1766858511.2086558,1766858511.1408126,-176.26953125,-29.296875,28.3203125,229.00390625,0.0,0,0
1766858511.2087948,1766858511.1447022,713.8671875,4.8828125,246.09375,845.21484375,0.0,0,0
1766858511.208853,1766858511.1485918,682.6171875,3.90625,122.55859375,352.05078125,0.0,0,0
1766858511.208906,1766858511.1524816,-260.25390625,-41.9921875,-217.7734375,-525.87890625,0.0,0,0
1766858511.208957,1766858511.156371,-875.9765625,-65.4296875,-327.63671875,-807.6171875,0.0,0,0
1766858511.209012,1766858511.1602607,-304.6875,-29.296875,-9.27734375,73.73046875,0.0,0,0
1766858511.2090619,1766858511.1641502,605.95703125,8.30078125,238.28125,812.01171875,0.0,0,0
1766858511.209114,1766858511.1680398,757.8125,-3.41796875,148.4375,474.12109375,0.0,0,0
1766858511.209175,1766858511.1719294,-240.234375,-62.01171875,-208.0078125,-485.3515625,0.0,0,0
1766858511.209226,1766858511.175819,-854.4921875,-76.171875,-333.0078125,-804.6875,0.0,0,0
1766858511.2092748,1766858511.1797085,-455.078125,-41.015625,-58.59375,-90.33203125,0.0,0,0
1766858511.209335,1766858511.183598,446.77734375,6.8359375,221.19140625,731.93359375,0.0,0,0
1766858511.254315,1766858511.187668,818.84765625,15.13671875,183.59375,603.515625,0.0,0,0
1766858511.254456,1766858511.1915576,-197.75390625,-37.59765625,-193.359375,-473.14453125,0.0,0,0
1766858511.254499,1766858511.1954472,-864.2578125,-61.5234375,-333.0078125,-837.890625,0.0,0,0
1766858511.254911,1766858511.199337,-591.796875,-43.45703125,-111.328125,-248.046875,0.0,0,0
1766858511.254956,1766858511.2032266,295.41015625,-10.25390625,187.5,605.46875,0.0,0,0
1766858511.254994,1766858511.2071161,877.9296875,2.44140625,243.1640625,714.35546875,0.0,0,0
1766858511.255032,1766858511.211006,8.7890625,-30.76171875,-113.28125,-363.28125,0.0,0,0
1766858511.2550678,1766858511.2148955,-834.9609375,-64.453125,-330.078125,-877.44140625,0.0,0,0
1766858511.255105,1766858511.218785,-730.46875,-55.6640625,-185.546875,-377.44140625,0.0,0,0
1766858511.255142,1766858511.2226746,213.8671875,-15.13671875,149.4140625,498.53515625,0.0,0,0
1766858511.255178,1766858511.2265644,840.8203125,3.90625,237.3046875,754.39453125,0.0,0,0
1766858511.255214,1766858511.230454,130.37109375,-26.3671875,-105.95703125,-223.6328125,0.0,0,0
1766858511.300546,1766858511.2345204,-750.0,-63.96484375,-327.63671875,-889.6484375,0.0,0,0
1766858511.3006752,1766858511.23841,-788.57421875,-58.59375,-201.171875,-488.28125,0.0,0,0
1766858511.300709,1766858511.2422998,173.828125,-19.53125,142.578125,445.3125,0.0,0,0
1766858511.30074,1766858511.2461894,828.61328125,-5.37109375,262.6953125,761.23046875,0.0,0,0
1766858511.30077,1766858511.2500792,361.328125,-37.109375,-24.4140625,-60.05859375,0.0,0,0
1766858511.300798,1766858511.2539687,-575.68359375,-63.4765625,-282.2265625,-843.75,0.0,0,0
1766858511.3008268,1766858511.2578585,-887.6953125,-63.96484375,-231.93359375,-616.2109375,0.0,0,0
1766858511.300856,1766858511.261748,134.27734375,-28.80859375,120.60546875,429.6875,0.0,0,0
1766858511.300885,1766858511.2656379,816.89453125,6.34765625,267.08984375,774.90234375,0.0,0,0
1766858511.3009138,1766858511.2695274,508.30078125,6.8359375,44.921875,125.48828125,0.0,0,0
1766858511.3009431,1766858511.2734172,-397.4609375,-33.203125,-241.2109375,-707.51953125,0.0,0,0
1766858511.301001,1766858511.2773068,-898.4375,-60.546875,-262.20703125,-710.9375,0.0,0,0
1766858511.372339,1766858511.281479,42.96875,-24.90234375,97.16796875,393.5546875,0.0,0,0
1766858511.372478,1766858511.2853687,777.83203125,-2.9296875,258.7890625,795.8984375,0.0,0,0
1766858511.372525,1766858511.2892585,568.359375,-20.5078125,74.21875,236.81640625,0.0,0,0
1766858511.3725572,1766858511.2931483,-304.19921875,-47.8515625,-230.95703125,-591.30859375,0.0,0,0
1766858511.372587,1766858511.297038,-916.015625,-58.10546875,-302.734375,-791.015625,0.0,0,0
1766858511.372617,1766858511.3009276,-98.6328125,-16.11328125,50.29296875,270.01953125,0.0,0,0
1766858511.3727171,1766858511.3048174,758.7890625,10.25390625,270.01953125,834.47265625,0.0,0,0
1766858511.372837,1766858511.3087072,645.5078125,-15.625,116.2109375,320.80078125,0.0,0,0
1766858511.372882,1766858511.312597,-273.4375,-56.640625,-229.4921875,-535.64453125,0.0,0,0
1766858511.372916,1766858511.3164866,-877.9296875,-75.1953125,-319.82421875,-801.26953125,0.0,0,0
1766858511.372947,1766858511.3203764,-267.08984375,-45.8984375,-0.48828125,113.28125,0.0,0,0
1766858511.3729768,1766858511.3242662,629.39453125,-10.7421875,233.3984375,821.2890625,0.0,0,0
1766858511.403054,1766858511.328292,748.046875,-2.44140625,146.97265625,464.84375,0.0,0,0
1766858511.40319,1766858511.3321817,-219.23828125,-35.15625,-191.40625,-472.65625,0.0,0,0
1766858511.4032571,1766858511.3360715,-876.46484375,-62.98828125,-328.125,-811.5234375,0.0,0,0
1766858511.4033122,1766858511.339961,-424.8046875,-37.109375,-53.7109375,-56.640625,0.0,0,0
1766858511.4033651,1766858511.3438509,495.1171875,6.34765625,217.7734375,753.90625,0.0,0,0
1766858511.4034162,1766858511.3477407,827.63671875,12.6953125,192.3828125,584.47265625,0.0,0,0
1766858511.4034681,1766858511.3516304,-175.29296875,-37.59765625,-174.8046875,-466.796875,0.0,0,0
1766858511.40352,1766858511.3555202,-865.72265625,-71.2890625,-338.37890625,-830.56640625,0.0,0,0
1766858511.403564,1766858511.35941,-573.2421875,-38.57421875,-105.95703125,-214.35546875,0.0,0,0
1766858511.403602,1766858511.3632998,314.94140625,-8.7890625,184.5703125,634.765625,0.0,0,0
1766858511.403639,1766858511.3671896,868.1640625,-5.859375,216.796875,701.66015625,0.0,0,0
1766858511.4036758,1766858511.3710794,-33.203125,-39.0625,-131.34765625,-387.20703125,0.0,0,0
1766858511.448915,1766858511.3750827,-839.35546875,-64.453125,-318.359375,-873.53515625,0.0,0,0
1766858511.4490309,1766858511.3789725,-683.59375,-49.31640625,-153.3203125,-339.35546875,0.0,0,0
1766858511.449067,1766858511.3828623,241.2109375,-2.44140625,175.78125,531.25,0.0,0,0
1766858511.449097,1766858511.3867521,869.140625,12.6953125,259.27734375,750.0,0.0,0,0
1766858511.449127,1766858511.390642,143.5546875,-28.80859375,-93.26171875,-255.37109375,0.0,0,0
1766858511.449156,1766858511.3945317,-765.13671875,-57.12890625,-300.29296875,-897.94921875,0.0,0,0
1766858511.449186,1766858511.3984215,-791.015625,-51.26953125,-172.36328125,-458.49609375,0.0,0,0
1766858511.449253,1766858511.4023113,193.359375,-15.13671875,142.578125,470.21484375,0.0,0,0
1766858511.449373,1766858511.4062011,804.6875,-4.39453125,250.9765625,756.34765625,0.0,0,0
1766858511.449429,1766858511.410091,278.80859375,-32.71484375,-37.59765625,-102.05078125,0.0,0,0
1766858511.449464,1766858511.4139807,-600.09765625,-62.01171875,-291.50390625,-855.46875,0.0,0,0
1766858511.449495,1766858511.4178705,-855.95703125,-66.89453125,-223.6328125,-575.68359375,0.0,0,0
1766858511.508393,1766858511.4219866,141.6015625,-35.15625,124.0234375,438.4765625,0.0,0,0
1766858511.50855,1766858511.4258764,793.45703125,-1.953125,253.41796875,757.32421875,0.0,0,0
1766858511.50861,1766858511.4297662,429.19921875,-14.16015625,16.6015625,54.6875,0.0,0,0
1766858511.5087402,1766858511.4336562,-454.58984375,-62.98828125,-265.625,-756.34765625,0.0,0,0
1766858511.50883,1766858511.437546,-893.5546875,-69.3359375,-261.71875,-700.1953125,0.0,0,0
1766858511.508888,1766858511.4414358,78.125,-11.23046875,106.4453125,408.69140625,0.0,0,0
1766858511.508985,1766858511.4453256,771.484375,2.44140625,254.39453125,791.50390625,0.0,0,0
1766858511.509047,1766858511.4492157,545.8984375,-16.6015625,71.2890625,210.44921875,0.0,0,0
1766858511.509089,1766858511.4531054,-325.1953125,-46.875,-236.81640625,-619.140625,0.0,0,0
1766858511.509129,1766858511.4569952,-919.43359375,-71.2890625,-301.26953125,-768.5546875,0.0,0,0
1766858511.5091681,1766858511.460885,-91.796875,-27.34375,58.10546875,312.01171875,0.0,0,0
1766858511.509205,1766858511.464775,741.69921875,2.44140625,248.046875,833.0078125,0.0,0,0
1766858511.539135,1766858511.468875,633.30078125,-4.8828125,96.6796875,314.94140625,0.0,0,0
1766858511.539264,1766858511.4727647,-275.87890625,-38.57421875,-215.8203125,-536.62109375,0.0,0,0
1766858511.539307,1766858511.4766548,-883.30078125,-51.26953125,-298.828125,-795.41015625,0.0,0,0
1766858511.539347,1766858511.4805446,-229.4921875,-21.97265625,24.4140625,161.1328125,0.0,0,0
1766858511.539385,1766858511.4844346,681.640625,9.27734375,260.25390625,843.75,0.0,0,0
1766858511.539423,1766858511.4883244,751.953125,0.0,161.1328125,444.3359375,0.0,0,0
1766858511.5394602,1766858511.4922142,-252.9296875,-48.33984375,-201.66015625,-488.76953125,0.0,0,0
1766858511.539498,1766858511.4961042,-879.39453125,-62.5,-326.66015625,-811.5234375,0.0,0,0
1766858511.539538,1766858511.499994,-425.78125,-48.33984375,-43.9453125,-27.34375,0.0,0,0
1766858511.539575,1766858511.503884,505.859375,-15.625,224.12109375,778.3203125,0.0,0,0
1766858511.5396118,1766858511.5077739,844.7265625,4.39453125,195.3125,579.1015625,0.0,0,0
1766858511.539648,1766858511.511664,-162.59765625,-34.66796875,-173.828125,-457.51953125,0.0,0,0
1766858511.585129,1766858511.5157478,-865.72265625,-59.08203125,-329.1015625,-826.171875,0.0,0,0
1766858511.5853922,1766858511.5196378,-609.86328125,-41.50390625,-112.3046875,-215.8203125,0.0,0,0
1766858511.585459,1766858511.5235276,300.29296875,-1.953125,187.5,643.06640625,0.0,0,0
1766858511.585514,1766858511.5274177,897.4609375,18.5546875,237.3046875,686.03515625,0.0,0,0
1766858511.585567,1766858511.5313077,-46.875,-26.3671875,-145.99609375,-416.50390625,0.0,0,0
1766858511.585618,1766858511.5351975,-832.03125,-53.22265625,-323.2421875,-855.46875,0.0,0,0
1766858511.5861619,1766858511.5390875,-669.43359375,-27.83203125,-139.16015625,-316.89453125,0.0,0,0
1766858511.586234,1766858511.5429776,222.65625,-1.46484375,172.36328125,541.50390625,0.0,0,0
1766858511.586276,1766858511.5468674,862.3046875,0.0,253.41796875,743.65234375,0.0,0,0
1766858511.586314,1766858511.5507574,78.61328125,-20.01953125,-106.93359375,-293.45703125,0.0,0,0
1766858511.5863528,1766858511.5546474,-793.45703125,-41.9921875,-320.3125,-891.11328125,0.0,0,0
1766858511.58639,1766858511.5585372,-748.046875,-37.109375,-172.8515625,-428.7109375,0.0,0,0
1766858511.6593542,1766858511.5628614,199.70703125,-2.9296875,160.64453125,469.23828125,0.0,0,0
1766858511.659471,1766858511.5667517,848.14453125,10.7421875,270.99609375,765.13671875,0.0,0,0
1766858511.659499,1766858511.5706418,280.2734375,-16.6015625,-39.55078125,-125.0,0.0,0,0
1766858511.6595268,1766858511.5745318,-655.76171875,-54.19921875,-298.33984375,-870.60546875,0.0,0,0
1766858511.659553,1766858511.5784218,-839.84375,-57.6171875,-227.5390625,-558.59375,0.0,0,0
1766858511.659578,1766858511.5823119,169.43359375,-14.6484375,132.8125,440.4296875,0.0,0,0
1766858511.659602,1766858511.586202,810.546875,11.71875,272.94921875,763.18359375,0.0,0,0
1766858511.659626,1766858511.590092,389.16015625,-25.390625,-1.953125,23.92578125,0.0,0,0
1766858511.65966,1766858511.593982,-488.28125,-73.2421875,-295.8984375,-784.66796875,0.0,0,0
1766858511.6596842,1766858511.597872,-916.015625,-70.80078125,-283.203125,-682.12890625,0.0,0,0
1766858511.6597178,1766858511.601762,76.66015625,-28.3203125,106.93359375,409.1796875,0.0,0,0
1766858511.659744,1766858511.6056523,824.70703125,0.0,280.2734375,791.9921875,0.0,0,0
1766858511.674761,1766858511.6097088,544.43359375,-20.5078125,68.84765625,193.84765625,0.0,0,0
1766858511.674864,1766858511.613599,-355.95703125,-55.6640625,-245.1171875,-649.90234375,0.0,0,0
1766858511.674904,1766858511.617489,-904.296875,-58.59375,-296.38671875,-765.625,0.0,0,0
1766858511.6749408,1766858511.6213791,-44.43359375,-16.6015625,63.4765625,335.9375,0.0,0,0
1766858511.674978,1766858511.6252692,747.55859375,12.6953125,249.0234375,827.63671875,0.0,0,0
1766858511.675016,1766858511.6291595,655.76171875,16.6015625,101.5625,298.828125,0.0,0,0
1766858511.6750531,1766858511.6330495,-258.7890625,-16.6015625,-226.5625,-549.8046875,0.0,0,0
1766858511.6750898,1766858511.6369395,-916.9921875,-47.36328125,-325.1953125,-805.6640625,0.0,0,0
1766858511.6751292,1766858511.6408296,-254.39453125,-33.203125,10.25390625,172.36328125,0.0,0,0
1766858511.675166,1766858511.6447198,659.66796875,-0.9765625,237.79296875,838.37890625,0.0,0,0
1766858511.675204,1766858511.6486099,754.8828125,5.37109375,140.625,416.50390625,0.0,0,0
1766858511.675241,1766858511.6525,-193.359375,-36.1328125,-202.1484375,-483.3984375,0.0,0,0
1766858511.719255,1766858511.656531,-882.8125,-59.5703125,-342.7734375,-812.98828125,0.0,0,0
1766858511.719436,1766858511.6604211,-389.16015625,-35.64453125,-45.41015625,18.06640625,0.0,0,0
1766858511.719498,1766858511.6643114,566.40625,-9.27734375,229.98046875,813.96484375,0.0,0,0
1766858511.719552,1766858511.6682014,835.9375,-2.44140625,178.22265625,550.78125,0.0,0,0
1766858511.719603,1766858511.6720915,-175.29296875,-39.55078125,-192.3828125,-466.796875,0.0,0,0
1766858511.7196548,1766858511.6759818,-850.09765625,-65.91796875,-331.0546875,-814.94140625,0.0,0,0
1766858511.7197068,1766858511.6798718,-510.25390625,-48.33984375,-90.33203125,-146.97265625,0.0,0,0
1766858511.719759,1766858511.683762,385.7421875,-22.4609375,187.5,694.3359375,0.0,0,0
1766858511.719809,1766858511.687652,846.19140625,-2.9296875,200.68359375,662.59765625,0.0,0,0
1766858511.719859,1766858511.6915424,-102.5390625,-40.0390625,-163.57421875,-428.22265625,0.0,0,0
1766858511.7199092,1766858511.6954324,-874.0234375,-69.82421875,-336.9140625,-863.76953125,0.0,0,0
1766858511.71996,1766858511.6993225,-613.28125,-36.1328125,-133.30078125,-280.2734375,0.0,0,0
1766858511.7782972,1766858511.7034616,318.359375,10.7421875,189.453125,591.30859375,0.0,0,0
1766858511.778413,1766858511.7073517,878.90625,21.97265625,255.859375,730.95703125,0.0,0,0
1766858511.77849,1766858511.711242,90.8203125,-14.6484375,-100.5859375,-321.77734375,0.0,0,0
1766858511.778526,1766858511.7151322,-817.87109375,-59.08203125,-325.1953125,-897.4609375,0.0,0,0
1766858511.778558,1766858511.7190223,-765.13671875,-59.08203125,-173.33984375,-410.64453125,0.0,0,0
1766858511.778589,1766858511.7229125,228.02734375,-7.32421875,174.31640625,495.1171875,0.0,0,0
1766858511.7786188,1766858511.7268028,831.54296875,10.25390625,268.5546875,754.8828125,0.0,0,0
1766858511.778649,1766858511.7306929,196.2890625,-37.59765625,-63.96484375,-174.8046875,0.0,0,0
1766858511.778687,1766858511.7345831,-705.56640625,-76.66015625,-308.59375,-885.25390625,0.0,0,0
1766858511.778718,1766858511.7384734,-825.1953125,-63.96484375,-204.1015625,-516.6015625,0.0,0,0
1766858511.7787468,1766858511.7423635,181.640625,-15.625,148.4375,453.61328125,0.0,0,0
1766858511.778789,1766858511.7462537,833.49609375,-7.32421875,274.4140625,768.5546875,0.0,0,0
1766858511.8245718,1766858511.7502537,373.046875,-26.3671875,-3.90625,4.39453125,0.0,0,0
1766858511.824714,1766858511.754144,-569.3359375,-62.98828125,-285.64453125,-812.01171875,0.0,0,0
1766858511.824758,1766858511.7580342,-896.97265625,-70.80078125,-242.67578125,-646.484375,0.0,0,0
1766858511.8247979,1766858511.7619243,133.30078125,-17.08984375,131.8359375,434.5703125,0.0,0,0
1766858511.8248372,1766858511.7658145,807.12890625,4.39453125,277.83203125,775.390625,0.0,0,0
1766858511.824875,1766858511.7697048,518.5546875,-4.39453125,62.98828125,150.87890625,0.0,0,0
1766858511.8249128,1766858511.773595,-352.05078125,-30.76171875,-232.91015625,-671.38671875,0.0,0,0
1766858511.8249521,1766858511.7774851,-927.734375,-55.6640625,-285.64453125,-750.48828125,0.0,0,0
1766858511.82499,1766858511.7813754,-53.22265625,-23.92578125,69.82421875,346.6796875,0.0,0,0
1766858511.825027,1766858511.7852657,755.37109375,-6.34765625,266.6015625,818.359375,0.0,0,0
1766858511.825064,1766858511.789156,601.07421875,-20.99609375,94.7265625,280.76171875,0.0,0,0
1766858511.825103,1766858511.7930462,-289.55078125,-53.7109375,-236.81640625,-565.91796875,0.0,0,0
1766858511.8830678,1766858511.7971544,-900.390625,-68.359375,-321.77734375,-787.59765625,0.0,0,0
1766858511.883175,1766858511.8010447,-142.578125,-28.80859375,34.1796875,247.0703125,0.0,0,0
1766858511.883203,1766858511.804935,704.1015625,16.6015625,255.859375,840.8203125,0.0,0,0
1766858511.88323,1766858511.8088253,701.171875,17.08984375,128.41796875,378.41796875,0.0,0,0
1766858511.883255,1766858511.8127155,-211.9140625,-24.4140625,-218.26171875,-498.046875,0.0,0,0
1766858511.883279,1766858511.8166058,-874.51171875,-41.9921875,-327.1484375,-802.24609375,0.0,0,0
1766858511.8833039,1766858511.820496,-336.42578125,-27.34375,-16.11328125,70.80078125,0.0,0,0
1766858511.883329,1766858511.8243864,586.42578125,-8.30078125,232.91015625,824.21875,0.0,0,0
1766858511.883352,1766858511.8282766,807.12890625,-0.48828125,170.41015625,524.4140625,0.0,0,0
1766858511.883378,1766858511.832167,-218.75,-44.43359375,-197.265625,-469.23828125,0.0,0,0
1766858511.883401,1766858511.8360572,-849.609375,-62.98828125,-334.9609375,-807.12890625,0.0,0,0
1766858511.883428,1766858511.8399475,-473.14453125,-39.55078125,-73.73046875,-95.21484375,0.0,0,0
1766858511.913641,1766858511.844046,412.109375,-6.8359375,205.56640625,730.95703125,0.0,0,0
1766858511.91377,1766858511.8479366,874.0234375,5.859375,199.21875,645.99609375,0.0,0,0
1766858511.913812,1766858511.851827,-108.88671875,-35.64453125,-172.8515625,-437.5,0.0,0,0
1766858511.9138508,1766858511.8557172,-855.46875,-56.15234375,-330.078125,-841.30859375,0.0,0,0
1766858511.913889,1766858511.8596075,-591.796875,-38.0859375,-125.48828125,-244.62890625,0.0,0,0
1766858511.9139268,1766858511.8634977,309.5703125,5.37109375,207.51953125,613.28125,0.0,0,0
1766858511.913964,1766858511.8673882,889.6484375,30.76171875,280.2734375,727.5390625,0.0,0,0
1766858511.914001,1766858511.8712785,14.6484375,-20.99609375,-112.3046875,-354.4921875,0.0,0,0
1766858511.914038,1766858511.8751688,-845.703125,-66.89453125,-326.171875,-895.5078125,0.0,0,0
1766858511.914537,1766858511.879059,-734.375,-63.4765625,-162.109375,-385.7421875,0.0,0,0
1766858511.914581,1766858511.8829494,224.609375,-24.4140625,182.6171875,508.30078125,0.0,0,0
1766858511.914619,1766858511.8868399,830.56640625,9.765625,275.390625,741.69921875,0.0,0,0
1766858511.9600608,1766858511.8909264,150.390625,-25.390625,-74.70703125,-221.6796875,0.0,0,0
1766858511.960232,1766858511.8948166,-724.12109375,-65.91796875,-301.26953125,-893.06640625,0.0,0,0
1766858511.9603698,1766858511.898707,-815.91796875,-54.6875,-189.94140625,-500.9765625,0.0,0,0
1766858511.960433,1766858511.9025974,176.26953125,-10.25390625,147.94921875,452.1484375,0.0,0,0
1766858511.960475,1766858511.9064877,812.5,4.39453125,263.671875,756.34765625,0.0,0,0
1766858511.960513,1766858511.9103782,366.2109375,-11.23046875,-17.08984375,-52.24609375,0.0,0,0
1766858511.960551,1766858511.9142685,-555.6640625,-42.48046875,-295.41015625,-843.26171875,0.0,0,0
1766858511.960588,1766858511.9181588,-873.046875,-58.10546875,-252.44140625,-631.34765625,0.0,0,0
1766858511.960625,1766858511.9220493,154.78515625,-23.4375,119.62890625,430.6640625,0.0,0,0
1766858511.9606621,1766858511.9259396,808.59375,-11.71875,264.6484375,778.80859375,0.0,0,0
1766858511.9606981,1766858511.9298298,507.8125,-17.578125,41.50390625,131.8359375,0.0,0,0
1766858511.960735,1766858511.9337204,-382.32421875,-43.45703125,-253.90625,-703.125,0.0,0,0
1766858512.004031,1766858511.937781,-937.5,-66.89453125,-284.1796875,-731.93359375,0.0,0,0
1766858512.0041778,1766858511.9416716,-2.44140625,-28.3203125,95.21484375,376.953125,0.0,0,0
1766858512.004222,1766858511.9455621,776.3671875,9.27734375,277.83203125,799.8046875,0.0,0,0
1766858512.004261,1766858511.9494524,548.828125,-1.46484375,80.078125,225.09765625,0.0,0,0
1766858512.0043,1766858511.953343,-317.87109375,-45.8984375,-241.2109375,-598.14453125,0.0,0,0
1766858512.004338,1766858511.9572332,-875.0,-62.01171875,-294.43359375,-780.2734375,0.0,0,0
1766858512.004375,1766858511.9611237,-104.00390625,-8.30078125,63.96484375,264.16015625,0.0,0,0
1766858512.004412,1766858511.965014,728.02734375,11.23046875,265.13671875,846.6796875,0.0,0,0
1766858512.0044632,1766858511.9689045,682.6171875,-7.8125,125.9765625,360.3515625,0.0,0,0
1766858512.00451,1766858511.9727948,-248.046875,-36.1328125,-208.984375,-514.6484375,0.0,0,0
1766858512.004568,1766858511.9766853,-889.6484375,-57.6171875,-310.05859375,-811.5234375,0.0,0,0
1766858512.004606,1766858511.9805758,-298.828125,-29.78515625,7.32421875,100.5859375,0.0,0,0
1766858512.0486112,1766858511.984619,608.3984375,-1.46484375,255.37109375,826.66015625,0.0,0,0
1766858512.048744,1766858511.9885092,755.859375,-0.48828125,178.22265625,472.16796875,0.0,0,0
1766858512.04879,1766858511.9923997,-200.1953125,-27.34375,-166.50390625,-472.16796875,0.0,0,0
1766858512.04883,1766858511.9962902,-874.0234375,-58.59375,-302.734375,-803.7109375,0.0,0,0
1766858512.048867,1766858512.0001805,-480.46875,-50.29296875,-46.875,-65.4296875,0.0,0,0
1766858512.048905,1766858512.004071,464.35546875,-7.8125,230.46875,754.39453125,0.0,0,0
1766858512.048943,1766858512.0079615,864.74609375,13.671875,211.9140625,618.1640625,0.0,0,0
1766858512.04898,1766858512.0118518,-162.109375,-55.6640625,-182.12890625,-458.0078125,0.0,0,0
1766858512.0490282,1766858512.0157423,-869.140625,-92.7734375,-338.37890625,-840.33203125,0.0,0,0
1766858512.0490649,1766858512.0196328,-548.828125,-48.33984375,-107.91015625,-235.83984375,0.0,0,0
1766858512.049113,1766858512.0235233,333.49609375,3.41796875,199.70703125,621.58203125,0.0,0,0
1766858512.0491588,1766858512.0274136,874.0234375,22.94921875,241.69921875,700.68359375,0.0,0,0
1766858512.0940769,1766858512.0314436,-32.2265625,-20.5078125,-148.4375,-389.6484375,0.0,0,0
1766858512.0942159,1766858512.035334,-844.23828125,-52.734375,-333.984375,-877.9296875,0.0,0,0
1766858512.09426,1766858512.0392246,-690.91796875,-47.36328125,-156.25,-360.83984375,0.0,0,0
1766858512.0942988,1766858512.0431151,223.6328125,-20.01953125,168.9453125,516.6015625,0.0,0,0
1766858512.094337,1766858512.0470054,869.140625,3.90625,268.06640625,753.41796875,0.0,0,0
1766858512.094375,1766858512.050896,140.625,-15.625,-76.171875,-250.48828125,0.0,0,0
1766858512.094412,1766858512.0547864,-769.04296875,-54.19921875,-319.82421875,-903.80859375,0.0,0,0
1766858512.0944488,1766858512.058677,-773.4375,-61.03515625,-202.1484375,-476.5625,0.0,0,0
1766858512.094485,1766858512.0625675,201.171875,-12.6953125,145.99609375,463.37890625,0.0,0,0
1766858512.094522,1766858512.066458,822.265625,4.39453125,273.4375,757.32421875,0.0,0,0
1766858512.094558,1766858512.0703483,312.01171875,-24.90234375,-17.08984375,-99.12109375,0.0,0,0
1766858512.094595,1766858512.0742388,-608.88671875,-58.10546875,-292.96875,-869.140625,0.0,0,0
1766858512.15303,1766858512.078252,-886.23046875,-58.10546875,-239.2578125,-615.234375,0.0,0,0
1766858512.153155,1766858512.0821426,123.046875,-14.16015625,127.44140625,428.22265625,0.0,0,0
1766858512.15319,1766858512.086033,820.3125,16.11328125,279.78515625,772.94921875,0.0,0,0
1766858512.1532211,1766858512.0899236,476.07421875,3.41796875,32.71484375,76.66015625,0.0,0,0
1766858512.153253,1766858512.0938141,-451.66015625,-40.52734375,-272.4609375,-750.0,0.0,0,0
1766858512.1532822,1766858512.0977046,-905.2734375,-43.45703125,-272.4609375,-713.8671875,0.0,0,0
1766858512.153313,1766858512.1015952,41.015625,-23.4375,94.23828125,389.16015625,0.0,0,0
1766858512.1533408,1766858512.1054857,797.8515625,-16.6015625,258.30078125,800.78125,0.0,0,0
1766858512.1533701,1766858512.1093762,583.49609375,-11.71875,68.359375,215.8203125,0.0,0,0
1766858512.1534002,1766858512.1132667,-324.70703125,-46.875,-243.65234375,-622.0703125,0.0,0,0
1766858512.153428,1766858512.1171572,-911.1328125,-65.91796875,-301.7578125,-781.25,0.0,0,0
1766858512.1534579,1766858512.1210477,-85.9375,-24.4140625,53.22265625,302.24609375,0.0,0,0
1766858512.199599,1766858512.1250472,730.95703125,5.859375,246.58203125,833.984375,0.0,0,0
1766858512.199767,1766858512.1289377,662.59765625,-8.7890625,121.58203125,339.84375,0.0,0,0
1766858512.1998148,1766858512.1328282,-208.984375,-38.0859375,-187.01171875,-501.46484375,0.0,0,0
1766858512.199845,1766858512.1367188,-894.04296875,-57.6171875,-299.8046875,-812.98828125,0.0,0,0
1766858512.200038,1766858512.1406093,-271.97265625,-32.2265625,22.94921875,131.8359375,0.0,0,0
1766858512.20017,1766858512.1444998,653.80859375,5.859375,272.94921875,837.890625,0.0,0,0
1766858512.200279,1766858512.1483903,766.11328125,6.34765625,171.38671875,459.9609375,0.0,0,0
1766858512.200402,1766858512.1522808,-218.26171875,-41.50390625,-205.078125,-467.7734375,0.0,0,0
1766858512.2004962,1766858512.1561713,-899.4140625,-90.33203125,-349.609375,-819.3359375,0.0,0,0
1766858512.200557,1766858512.1600618,-427.734375,-76.171875,-50.29296875,-33.203125,0.0,0,0
1766858512.200611,1766858512.1639524,526.3671875,-16.11328125,241.2109375,789.55078125,0.0,0,0
1766858512.200664,1766858512.1678429,829.58984375,4.39453125,197.265625,589.84375,0.0,0,0
1766858512.2590148,1766858512.1720788,-187.5,-36.1328125,-181.640625,-459.9609375,0.0,0,0
1766858512.25913,1766858512.1759694,-865.234375,-63.96484375,-335.44921875,-824.70703125,0.0,0,0
1766858512.259161,1766858512.1798599,-538.0859375,-49.8046875,-101.5625,-187.5,0.0,0,0
1766858512.259186,1766858512.1837506,356.4453125,-17.578125,200.68359375,656.25,0.0,0,0
1766858512.259211,1766858512.1876411,877.9296875,-0.9765625,228.515625,687.01171875,0.0,0,0
1766858512.259236,1766858512.191532,-41.015625,-33.69140625,-138.18359375,-399.4140625,0.0,0,0
1766858512.25926,1766858512.1954224,-862.3046875,-68.84765625,-324.70703125,-875.48828125,0.0,0,0
1766858512.259284,1766858512.199313,-706.54296875,-72.265625,-148.92578125,-337.890625,0.0,0,0
1766858512.259308,1766858512.2032037,238.76953125,-38.0859375,171.38671875,546.38671875,0.0,0,0
1766858512.2593322,1766858512.2070942,875.9765625,-16.6015625,252.44140625,751.46484375,0.0,0,0
1766858512.259356,1766858512.210985,127.44140625,-23.92578125,-82.51953125,-272.94921875,0.0,0,0
1766858512.2593799,1766858512.2148755,-787.59765625,-53.22265625,-310.546875,-902.34375,0.0,0,0
1766858512.289682,1766858512.2189634,-818.84765625,-62.5,-193.359375,-460.44921875,0.0,0,0
1766858512.289858,1766858512.2228541,171.875,-15.625,147.4609375,464.35546875,0.0,0,0
1766858512.2899148,1766858512.2267447,855.46875,18.06640625,271.484375,774.90234375,0.0,0,0
1766858512.289969,1766858512.2306354,286.62109375,-15.625,-39.55078125,-116.69921875,0.0,0,0
1766858512.290022,1766858512.234526,-661.1328125,-57.12890625,-308.59375,-873.046875,0.0,0,0
1766858512.2900732,1766858512.2384167,-888.671875,-54.6875,-233.88671875,-568.359375,0.0,0,0
1766858512.290124,1766858512.2423072,118.1640625,-23.92578125,130.37109375,430.6640625,0.0,0,0
1766858512.2901828,1766858512.246198,808.10546875,-5.859375,279.78515625,766.6015625,0.0,0,0
1766858512.290234,1766858512.2500887,391.11328125,-24.90234375,14.16015625,37.59765625,0.0,0,0
1766858512.290284,1766858512.2539792,-501.46484375,-50.78125,-274.90234375,-779.296875,0.0,0,0
1766858512.290335,1766858512.25787,-936.03515625,-56.640625,-263.18359375,-703.61328125,0.0,0,0
1766858512.290385,1766858512.2617605,39.55078125,-24.90234375,105.95703125,389.6484375,0.0,0,0
1766858512.334424,1766858512.265836,802.24609375,0.48828125,269.53125,795.8984375,0.0,0,0
1766858512.3345711,1766858512.2697268,548.33984375,-3.90625,63.4765625,198.2421875,0.0,0,0
1766858512.334614,1766858512.2736175,-332.51953125,-44.43359375,-243.65234375,-642.578125,0.0,0,0
1766858512.3346539,1766858512.277508,-937.5,-68.84765625,-294.921875,-775.390625,0.0,0,0
1766858512.334691,1766858512.2813988,-84.9609375,-25.87890625,70.3125,317.3828125,0.0,0,0
1766858512.33473,1766858512.2852895,770.01953125,15.13671875,281.73828125,835.9375,0.0,0,0
1766858512.334768,1766858512.2891803,623.53515625,7.32421875,119.140625,300.29296875,0.0,0,0
1766858512.3348181,1766858512.293071,-283.203125,-42.48046875,-225.09765625,-555.17578125,0.0,0,0
1766858512.3348548,1766858512.2969615,-921.875,-73.2421875,-328.125,-812.01171875,0.0,0,0
1766858512.33491,1766858512.3008523,-245.1171875,-41.9921875,16.11328125,175.29296875,0.0,0,0
1766858512.334948,1766858512.304743,700.68359375,3.41796875,264.6484375,854.4921875,0.0,0,0
1766858512.334985,1766858512.3086338,770.5078125,-1.46484375,158.69140625,443.84765625,0.0,0,0
1766858512.3788621,1766858512.3126917,-184.5703125,-46.875,-188.96484375,-467.28515625,0.0,0,0
1766858512.379005,1766858512.3165824,-881.34765625,-56.15234375,-320.3125,-813.96484375,0.0,0,0
1766858512.379046,1766858512.3204732,-425.29296875,-34.66796875,-31.73828125,-9.27734375,0.0,0,0
1766858512.379085,1766858512.324364,530.2734375,-6.8359375,231.4453125,793.9453125,0.0,0,0
1766858512.379123,1766858512.3282547,850.09765625,7.32421875,186.03515625,553.7109375,0.0,0,0
1766858512.3791602,1766858512.3321455,-154.78515625,-26.3671875,-173.33984375,-471.6796875,0.0,0,0
1766858512.379199,1766858512.3360362,-865.72265625,-47.36328125,-322.75390625,-823.2421875,0.0,0,0
1766858512.379236,1766858512.339927,-540.0390625,-47.36328125,-89.84375,-170.41015625,0.0,0,0
1766858512.379274,1766858512.3438177,374.51171875,-24.4140625,201.171875,684.08203125,0.0,0,0
1766858512.379311,1766858512.3477085,887.20703125,-1.953125,225.5859375,679.19921875,0.0,0,0
1766858512.379348,1766858512.3515992,-53.7109375,-22.94921875,-143.5546875,-419.921875,0.0,0,0
1766858512.379385,1766858512.35549,-866.69921875,-51.26953125,-327.63671875,-870.60546875,0.0,0,0
1766858512.424305,1766858512.3595345,-684.5703125,-51.7578125,-141.6015625,-323.2421875,0.0,0,0
1766858512.424442,1766858512.3634253,250.0,-15.13671875,180.6640625,557.12890625,0.0,0,0
1766858512.424484,1766858512.367316,912.59765625,13.671875,262.6953125,751.46484375,0.0,0,0
1766858512.424523,1766858512.3712068,129.39453125,-16.11328125,-90.33203125,-300.78125,0.0,0,0
1766858512.4245608,1766858512.3750975,-812.01171875,-62.5,-321.2890625,-901.3671875,0.0,0,0
1766858512.424601,1766858512.3789883,-724.609375,-45.8984375,-160.64453125,-405.2734375,0.0,0,0
1766858512.42464,1766858512.382879,226.07421875,-11.71875,167.48046875,489.74609375,0.0,0,0
1766858512.4246778,1766858512.3867698,836.9140625,-12.6953125,256.34765625,760.25390625,0.0,0,0
1766858512.424716,1766858512.3906605,223.6328125,-32.2265625,-60.546875,-160.64453125,0.0,0,0
1766858512.424753,1766858512.3945513,-698.2421875,-57.12890625,-307.12890625,-891.6015625,0.0,0,0
1766858512.42479,1766858512.3984423,-821.2890625,-57.12890625,-206.54296875,-549.31640625,0.0,0,0
1766858512.424835,1766858512.402333,168.9453125,-7.32421875,144.53125,432.6171875,0.0,0,0
1766858512.469886,1766858512.4063592,801.7578125,18.06640625,278.80859375,760.25390625,0.0,0,0
1766858512.47005,1766858512.41025,373.046875,-7.32421875,8.7890625,-1.46484375,0.0,0,0
1766858512.470109,1766858512.4141407,-535.64453125,-49.31640625,-290.52734375,-808.59375,0.0,0,0
1766858512.4701629,1766858512.4180315,-898.92578125,-66.40625,-274.4140625,-667.48046875,0.0,0,0
1766858512.470218,1766858512.4219222,106.4453125,-32.2265625,102.5390625,412.109375,0.0,0,0
1766858512.470272,1766858512.4258132,798.828125,-12.6953125,278.3203125,789.0625,0.0,0,0
1766858512.470322,1766858512.429704,513.671875,-23.4375,71.77734375,166.015625,0.0,0,0
1766858512.4703732,1766858512.4335947,-378.90625,-57.12890625,-258.7890625,-680.17578125,0.0,0,0
1766858512.4704242,1766858512.4374855,-912.59765625,-61.5234375,-304.19921875,-757.8125,0.0,0,0
1766858512.470477,1766858512.4413762,6.34765625,-20.5078125,82.03125,348.14453125,0.0,0,0
1766858512.4705348,1766858512.4452672,791.9921875,17.08984375,279.296875,824.21875,0.0,0,0
1766858512.4705868,1766858512.449158,615.234375,11.23046875,102.05078125,271.484375,0.0,0,0
1766858512.558156,1766858512.4531698,-289.0625,-40.0390625,-237.79296875,-575.68359375,0.0,0,0
1766858512.55827,1766858512.4570606,-900.390625,-69.3359375,-316.40625,-801.26953125,0.0,0,0
1766858512.558304,1766858512.4609513,-176.26953125,-32.71484375,33.203125,214.35546875,0.0,0,0
1766858512.5583339,1766858512.4648423,707.51953125,-1.46484375,254.39453125,845.21484375,0.0,0,0
1766858512.558364,1766858512.468733,732.91015625,5.37109375,145.01953125,401.3671875,0.0,0,0
1766858512.5583942,1766858512.4726238,-213.8671875,-24.4140625,-193.359375,-486.81640625,0.0,0,0
1766858512.558424,1766858512.4765148,-895.5078125,-72.75390625,-326.66015625,-823.73046875,0.0,0,0
1766858512.558455,1766858512.4804056,-343.26171875,-42.48046875,-17.08984375,49.31640625,0.0,0,0
1766858512.558484,1766858512.4842963,590.33203125,5.37109375,245.1171875,819.82421875,0.0,0,0
1766858512.5585139,1766858512.4881873,816.89453125,0.0,176.26953125,522.4609375,0.0,0,0
1766858512.558542,1766858512.492078,-160.15625,-27.34375,-172.8515625,-451.171875,0.0,0,0
1766858512.558571,1766858512.4959688,-852.5390625,-54.6875,-327.1484375,-821.2890625,0.0,0,0
1766858512.573802,1766858512.499984,-500.0,-48.828125,-87.40234375,-137.6953125,0.0,0,0
1766858512.573946,1766858512.503875,409.1796875,-16.6015625,205.078125,713.37890625,0.0,0,0
1766858512.574005,1766858512.5077658,858.3984375,3.41796875,208.984375,642.08984375,0.0,0,0
1766858512.574047,1766858512.5116568,-121.09375,-33.69140625,-164.0625,-439.453125,0.0,0,0
1766858512.574086,1766858512.5155475,-872.0703125,-62.01171875,-339.84375,-857.91015625,0.0,0,0
1766858512.5741189,1766858512.5194385,-626.953125,-52.734375,-125.48828125,-279.78515625,0.0,0,0
1766858512.5741482,1766858512.5233293,287.109375,-13.671875,194.3359375,591.796875,0.0,0,0
1766858512.574177,1766858512.52722,862.79296875,13.671875,241.69921875,722.16796875,0.0,0,0
1766858512.5742059,1766858512.531111,44.921875,-14.16015625,-121.58203125,-341.796875,0.0,0,0
1766858512.574234,1766858512.5350018,-810.546875,-46.38671875,-321.77734375,-891.11328125,0.0,0,0
1766858512.574264,1766858512.5388927,-743.65234375,-53.7109375,-169.43359375,-408.203125,0.0,0,0
1766858512.574292,1766858512.5427835,204.1015625,-15.625,161.1328125,489.2578125,0.0,0,0
1766858512.633294,1766858512.5468838,854.4921875,9.765625,267.08984375,756.34765625,0.0,0,0
1766858512.633429,1766858512.5507748,222.65625,-21.97265625,-64.94140625,-204.1015625,0.0,0,0
1766858512.633471,1766858512.5546658,-702.63671875,-56.640625,-318.359375,-895.5078125,0.0,0,0
1766858512.6378071,1766858512.5585566,-832.03125,-57.12890625,-218.26171875,-525.390625,0.0,0,0
1766858512.637878,1766858512.5624475,165.52734375,-28.3203125,133.30078125,433.10546875,0.0,0,0
1766858512.637909,1766858512.5663385,837.40234375,-2.44140625,279.296875,775.390625,0.0,0,0
1766858512.637938,1766858512.5702293,340.8203125,-19.04296875,-1.46484375,-32.71484375,0.0,0,0
1766858512.6379678,1766858512.5741203,-583.49609375,-54.6875,-289.0625,-833.49609375,0.0,0,0
1766858512.637996,1766858512.5780113,-893.5546875,-65.4296875,-243.65234375,-641.6015625,0.0,0,0
1766858512.638025,1766858512.581902,101.5625,-45.41015625,114.74609375,409.66796875,0.0,0,0
1766858512.6380658,1766858512.585793,807.6171875,-4.39453125,272.94921875,779.78515625,0.0,0,0
1766858512.6380951,1766858512.589684,466.30859375,-9.765625,48.33984375,123.046875,0.0,0,0
1766858512.6633348,1766858512.5937707,-423.33984375,-53.7109375,-261.71875,-712.890625,0.0,0,0
1766858512.66347,1766858512.5976617,-906.25,-61.5234375,-286.1328125,-743.1640625,0.0,0,0
1766858512.6635032,1766858512.6015527,44.43359375,-25.390625,86.42578125,367.1875,0.0,0,0
1766858512.663533,1766858512.6054435,787.109375,-6.8359375,254.39453125,813.96484375,0.0,0,0
1766858512.6635919,1766858512.6093345,589.35546875,-14.16015625,80.56640625,266.11328125,0.0,0,0
1766858512.663626,1766858512.6132255,-267.578125,-43.9453125,-214.84375,-568.84765625,0.0,0,0
1766858512.66366,1766858512.6171165,-904.78515625,-65.4296875,-291.015625,-788.0859375,0.0,0,0
1766858512.66369,1766858512.6210074,-179.6875,-30.76171875,37.109375,241.2109375,0.0,0,0
1766858512.663724,1766858512.6248984,696.77734375,-10.7421875,246.09375,836.9140625,0.0,0,0
1766858512.663753,1766858512.6287892,697.75390625,-20.5078125,126.46484375,372.0703125,0.0,0,0
1766858512.663782,1766858512.6326802,-233.3984375,-48.33984375,-205.56640625,-497.0703125,0.0,0,0
1766858512.663811,1766858512.6365712,-875.48828125,-61.03515625,-320.80078125,-809.5703125,0.0,0,0
1766858512.7083662,1766858512.6406403,-304.6875,-32.71484375,-15.625,91.30859375,0.0,0,0
1766858512.708489,1766858512.6445312,617.67578125,3.90625,249.0234375,835.9375,0.0,0,0
1766858512.708523,1766858512.6484222,789.55078125,14.6484375,171.38671875,500.9765625,0.0,0,0
1766858512.708554,1766858512.6523132,-201.66015625,-27.83203125,-203.125,-468.75,0.0,0,0
1766858512.7085838,1766858512.6562042,-847.16796875,-59.5703125,-345.703125,-799.31640625,0.0,0,0
1766858512.7086139,1766858512.6600952,-433.59375,-45.41015625,-58.59375,-55.17578125,0.0,0,0
1766858512.7086442,1766858512.6639862,451.171875,-9.765625,228.02734375,746.09375,0.0,0,0
1766858512.708673,1766858512.6678772,808.10546875,-15.13671875,203.61328125,603.02734375,0.0,0,0
1766858512.7087018,1766858512.6717682,-174.31640625,-78.125,-158.69140625,-456.0546875,0.0,0,0
1766858512.708732,1766858512.6756592,-879.8828125,-86.9140625,-316.89453125,-848.6328125,0.0,0,0
1766858512.70876,1766858512.6795502,-610.3515625,-53.22265625,-104.4921875,-261.23046875,0.0,0,0
1766858512.708789,1766858512.6834412,314.453125,-22.94921875,207.51953125,616.69921875,0.0,0,0
1766858512.767596,1766858512.6874971,859.375,-6.8359375,253.41796875,707.03125,0.0,0,0
1766858512.767679,1766858512.6913881,-41.015625,-35.15625,-121.58203125,-392.08984375,0.0,0,0
1766858512.7677062,1766858512.6952791,-840.8203125,-55.6640625,-311.03515625,-891.11328125,0.0,0,0
1766858512.767732,1766858512.69917,-675.29296875,-52.734375,-145.01953125,-362.3046875,0.0,0,0
1766858512.767757,1766858512.703061,261.23046875,-12.6953125,179.19921875,535.15625,0.0,0,0
1766858512.767781,1766858512.706952,887.6953125,16.6015625,278.3203125,764.6484375,0.0,0,0
1766858512.767854,1766858512.710843,155.2734375,-12.6953125,-71.2890625,-244.140625,0.0,0,0
1766858512.767884,1766858512.7147343,-794.43359375,-81.54296875,-332.03125,-912.59765625,0.0,0,0
1766858512.767911,1766858512.7186253,-811.5234375,-91.796875,-208.0078125,-478.515625,0.0,0,0
1766858512.767935,1766858512.7225163,186.03515625,-15.13671875,160.15625,463.37890625,0.0,0,0
1766858512.767959,1766858512.7264073,827.63671875,12.20703125,292.96875,767.08984375,0.0,0,0
1766858512.7679832,1766858512.7302983,299.31640625,-19.04296875,-23.92578125,-82.51953125,0.0,0,0
1766858512.798414,1766858512.734337,-627.44140625,-56.15234375,-307.6171875,-870.60546875,0.0,0,0
1766858512.798527,1766858512.738228,-885.7421875,-65.91796875,-237.79296875,-610.83984375,0.0,0,0
1766858512.7985542,1766858512.742119,134.765625,-20.01953125,130.37109375,434.08203125,0.0,0,0
1766858512.798579,1766858512.7460103,792.96875,-0.48828125,265.625,765.625,0.0,0,0
1766858512.798604,1766858512.7499013,444.82421875,-19.53125,23.4375,78.61328125,0.0,0,0
1766858512.798629,1766858512.7537923,-431.640625,-40.52734375,-263.18359375,-749.0234375,0.0,0,0
1766858512.798653,1766858512.7576835,-940.4296875,-51.26953125,-277.34375,-726.5625,0.0,0,0
1766858512.798677,1766858512.7615745,35.64453125,-21.484375,97.65625,391.11328125,0.0,0,0
1766858512.798702,1766858512.7654655,828.125,1.46484375,277.83203125,812.01171875,0.0,0,0
1766858512.7987251,1766858512.7693565,612.79296875,0.9765625,90.8203125,235.3515625,0.0,0,0
1766858512.798749,1766858512.7732477,-314.94140625,-41.015625,-241.69921875,-625.48828125,0.0,0,0
1766858512.798773,1766858512.7771387,-920.41015625,-67.87109375,-311.03515625,-782.2265625,0.0,0,0
1766858512.8591712,1766858512.7812834,-72.265625,-20.5078125,72.75390625,313.4765625,0.0,0,0
1766858512.859319,1766858512.7851744,757.8125,8.7890625,270.5078125,853.02734375,0.0,0,0
1766858512.859364,1766858512.7890656,675.29296875,-5.37109375,115.72265625,351.07421875,0.0,0,0
1766858512.859404,1766858512.7929566,-241.69921875,-39.55078125,-216.30859375,-519.04296875,0.0,0,0
1766858512.859443,1766858512.7968478,-885.7421875,-57.12890625,-324.21875,-798.828125,0.0,0,0
1766858512.859481,1766858512.8007388,-220.703125,-15.13671875,9.27734375,157.2265625,0.0,0,0
1766858512.859519,1766858512.80463,672.8515625,10.25390625,255.859375,844.7265625,0.0,0,0
1766858512.8595572,1766858512.808521,730.95703125,-14.6484375,152.34375,442.3828125,0.0,0,0
1766858512.859597,1766858512.8124123,-222.16796875,-52.734375,-217.7734375,-481.93359375,0.0,0,0
1766858512.859634,1766858512.8163033,-854.98046875,-68.84765625,-346.19140625,-804.19921875,0.0,0,0
1766858512.859671,1766858512.8201945,-421.875,-30.2734375,-50.29296875,-52.24609375,0.0,0,0
1766858512.8597262,1766858512.8240855,496.58203125,6.8359375,223.14453125,774.90234375,0.0,0,0
1766858512.903519,1766858512.828103,851.07421875,6.34765625,200.68359375,613.28125,0.0,0,0
1766858512.903678,1766858512.8319943,-165.52734375,-27.83203125,-170.41015625,-455.56640625,0.0,0,0
1766858512.9038332,1766858512.8358853,-850.09765625,-42.96875,-324.70703125,-828.125,0.0,0,0
1766858512.903897,1766858512.8397765,-557.6171875,-41.015625,-106.93359375,-212.40234375,0.0,0,0
1766858512.90395,1766858512.8436677,332.03125,-13.18359375,183.59375,644.04296875,0.0,0,0
1766858512.9040031,1766858512.8475587,875.0,15.625,230.95703125,695.3125,0.0,0,0
1766858512.904052,1766858512.85145,-74.21875,-27.34375,-143.5546875,-410.15625,0.0,0,0
1766858512.9041028,1766858512.8553412,-883.30078125,-72.265625,-335.44921875,-882.32421875,0.0,0,0
1766858512.904159,1766858512.8592322,-678.7109375,-50.29296875,-152.83203125,-340.8203125,0.0,0,0
1766858512.9042099,1766858512.8631234,263.18359375,0.0,172.36328125,542.96875,0.0,0,0
1766858512.904259,1766858512.8670146,878.41796875,15.13671875,260.25390625,748.046875,0.0,0,0
1766858512.904309,1766858512.8709056,121.58203125,-23.4375,-97.16796875,-278.80859375,0.0,0,0
1766858512.948732,1766858512.8749037,-804.19921875,-73.2421875,-329.58984375,-915.52734375,0.0,0,0
1766858512.948854,1766858512.878795,-790.52734375,-69.3359375,-188.96484375,-486.328125,0.0,0,0
1766858512.9488971,1766858512.8826861,181.15234375,-26.85546875,145.01953125,441.89453125,0.0,0,0
1766858512.948936,1766858512.8865771,840.33203125,-1.953125,255.37109375,766.11328125,0.0,0,0
1766858512.9489741,1766858512.8904684,293.45703125,-14.16015625,-50.78125,-103.515625,0.0,0,0
1766858512.949012,1766858512.8943596,-663.57421875,-66.89453125,-306.640625,-884.765625,0.0,0,0
1766858512.949982,1766858512.8982508,-883.30078125,-77.1484375,-230.95703125,-601.07421875,0.0,0,0
1766858512.9500349,1766858512.9021418,160.15625,-26.3671875,124.51171875,437.01171875,0.0,0,0
1766858512.950068,1766858512.906033,804.19921875,-8.7890625,264.6484375,768.06640625,0.0,0,0
1766858512.950098,1766858512.9099243,405.76171875,-22.94921875,15.13671875,58.10546875,0.0,0,0
1766858512.9501271,1766858512.9138155,-470.703125,-51.7578125,-271.97265625,-755.859375,0.0,0,0
1766858512.9501572,1766858512.9177065,-903.3203125,-60.05859375,-267.08984375,-682.6171875,0.0,0,0
1766858512.993379,1766858512.9218028,52.24609375,-24.90234375,104.98046875,404.296875,0.0,0,0
1766858512.993511,1766858512.925694,817.87109375,3.41796875,281.25,800.78125,0.0,0,0
1766858512.9935691,1766858512.9295852,575.1953125,-3.41796875,83.984375,210.9375,0.0,0,0
1766858512.993624,1766858512.9334764,-339.35546875,-32.2265625,-236.328125,-636.23046875,0.0,0,0
1766858512.993678,1766858512.9373677,-920.41015625,-48.828125,-301.26953125,-781.73828125,0.0,0,0
1766858512.993731,1766858512.941259,-50.78125,-16.11328125,71.2890625,308.59375,0.0,0,0
1766858512.993782,1766858512.9451501,787.109375,12.6953125,261.23046875,837.890625,0.0,0,0
1766858512.993834,1766858512.9490414,654.296875,-4.8828125,91.796875,328.125,0.0,0,0
1766858512.9938838,1766858512.9529326,-258.30078125,-50.78125,-225.09765625,-526.85546875,0.0,0,0
1766858512.993935,1766858512.9568238,-897.94921875,-85.44921875,-310.546875,-812.01171875,0.0,0,0
1766858512.9939861,1766858512.960715,-257.32421875,-41.9921875,29.78515625,156.73828125,0.0,0,0
1766858512.994036,1766858512.9646063,658.203125,5.859375,265.13671875,841.796875,0.0,0,0
1766858513.039066,1766858512.9686913,729.4921875,1.953125,156.73828125,435.05859375,0.0,0,0
1766858513.039212,1766858512.9725826,-246.58203125,-41.9921875,-185.05859375,-480.95703125,0.0,0,0
1766858513.039256,1766858512.9764738,-858.3984375,-66.89453125,-307.12890625,-803.7109375,0.0,0,0
1766858513.039296,1766858512.980365,-401.3671875,-45.41015625,-32.2265625,-4.39453125,0.0,0,0
1766858513.0393338,1766858512.9842565,540.0390625,0.0,243.1640625,807.12890625,0.0,0,0
1766858513.039372,1766858512.9881477,812.01171875,9.27734375,193.359375,556.15234375,0.0,0,0
1766858513.0394099,1766858512.992039,-207.51953125,-37.59765625,-176.7578125,-492.1875,0.0,0,0
1766858513.039459,1766858512.9959302,-861.81640625,-62.5,-320.3125,-819.82421875,0.0,0,0
1766858513.039496,1766858512.9998214,-587.890625,-77.63671875,-103.515625,-175.78125,0.0,0,0
1766858513.0395641,1766858513.0037127,341.30859375,-57.6171875,205.56640625,676.26953125,0.0,0,0
1766858513.0396008,1766858513.007604,871.09375,-9.27734375,242.67578125,680.6640625,0.0,0,0
1766858513.039649,1766858513.011495,-98.14453125,-37.109375,-148.92578125,-419.43359375,0.0,0,0
1766858513.083641,1766858513.0155628,-861.328125,-63.4765625,-330.078125,-858.3984375,0.0,0,0
1766858513.083762,1766858513.0194542,-661.62109375,-49.8046875,-132.32421875,-307.6171875,0.0,0,0
1766858513.0838559,1766858513.0233455,246.58203125,-11.71875,193.359375,554.19921875,0.0,0,0
1766858513.083946,1766858513.0272367,874.0234375,0.9765625,266.6015625,744.140625,0.0,0,0
1766858513.0840058,1766858513.0311282,84.47265625,-37.109375,-97.65625,-303.7109375,0.0,0,0
1766858513.08406,1766858513.0350194,-781.25,-53.22265625,-304.6875,-890.13671875,0.0,0,0
1766858513.084149,1766858513.0389106,-770.01953125,-50.78125,-173.33984375,-426.7578125,0.0,0,0
1766858513.084189,1766858513.0428019,175.29296875,-26.85546875,153.3203125,479.4921875,0.0,0,0
1766858513.0842261,1766858513.0466933,836.9140625,-21.97265625,266.11328125,747.55859375,0.0,0,0
1766858513.084264,1766858513.0505846,234.375,-42.48046875,-49.8046875,-172.8515625,0.0,0,0
1766858513.0843,1766858513.0544758,-676.7578125,-52.24609375,-301.26953125,-878.41796875,0.0,0,0
1766858513.084338,1766858513.0583673,-857.421875,-55.17578125,-226.07421875,-555.17578125,0.0,0,0
1766858513.160115,1766858513.0626605,147.94921875,-13.18359375,128.41796875,431.640625,0.0,0,0
1766858513.1602461,1766858513.066552,828.61328125,9.27734375,272.94921875,778.3203125,0.0,0,0
1766858513.160291,1766858513.0704434,405.2734375,-19.53125,-3.41796875,42.96875,0.0,0,0
1766858513.16033,1766858513.0743346,-525.390625,-54.19921875,-296.38671875,-794.921875,0.0,0,0
1766858513.160367,1766858513.078226,-907.2265625,-62.01171875,-263.18359375,-665.52734375,0.0,0,0
1766858513.160406,1766858513.0821176,108.88671875,-20.5078125,129.8828125,424.31640625,0.0,0,0
1766858513.1604428,1766858513.0860088,821.2890625,17.08984375,292.48046875,797.36328125,0.0,0,0
