timestamp,lsl_timestamp,TP9,AF7,AF8,TP10,Right AUX,keypress_A,keypress_B
1772036060.859384,1772036060.786159,-39.55078125,770.01953125,-74.21875,-6.8359375,0.0,0,0
1772036060.859574,1772036060.790054,-701.66015625,-599.609375,-354.98046875,-774.90234375,0.0,0,0
1772036060.859606,1772036060.7939491,-507.8125,-1000.0,-242.1875,-636.23046875,0.0,0,0
1772036060.859634,1772036060.7978442,378.90625,-168.45703125,141.11328125,362.3046875,0.0,0,0
1772036060.859663,1772036060.8017392,670.8984375,993.1640625,268.06640625,751.953125,0.0,0,0
1772036060.8596961,1772036060.8056343,74.21875,-946.77734375,-7.8125,131.34765625,0.0,0,0
1772036060.859725,1772036060.8095293,-624.0234375,-24.90234375,-321.2890625,-680.17578125,0.0,0,0
1772036060.859752,1772036060.8134243,-589.35546875,-1000.0,-291.9921875,-721.6796875,0.0,0,0
1772036060.8597791,1772036060.8173194,298.828125,-350.5859375,101.07421875,273.92578125,0.0,0,0
1772036060.859807,1772036060.8212144,652.83203125,937.98828125,260.7421875,752.9296875,0.0,0,0
1772036060.8598342,1772036060.8251095,189.453125,-906.73828125,50.78125,270.99609375,0.0,0,0
1772036060.859862,1772036060.8290045,-574.21875,64.94140625,-297.8515625,-583.0078125,0.0,0,0
1772036060.918098,1772036060.8330517,-685.546875,-1000.0,-340.33203125,-795.8984375,0.0,0,0
1772036060.9182668,1772036060.8369467,202.1484375,-480.95703125,65.4296875,133.7890625,0.0,0,0
1772036060.9183202,1772036060.840842,665.0390625,862.79296875,261.71875,734.375,0.0,0,0
1772036060.918371,1772036060.844737,309.5703125,-869.140625,89.35546875,379.39453125,0.0,0,0
1772036060.918421,1772036060.848632,-469.23828125,197.265625,-262.6953125,-496.58203125,0.0,0,0
1772036060.91847,1772036060.8525271,-686.03515625,-1000.0,-331.54296875,-793.45703125,0.0,0,0
1772036060.918516,1772036060.8564222,65.4296875,-792.48046875,26.3671875,-7.8125,0.0,0,0
1772036060.9185631,1772036060.8603175,625.0,579.1015625,255.859375,701.171875,0.0,0,0
1772036060.918624,1772036060.8642125,390.13671875,-808.10546875,153.80859375,500.48828125,0.0,0,0
1772036060.918699,1772036060.8681076,-478.515625,161.62109375,-215.33203125,-451.66015625,0.0,0,0
1772036060.918776,1772036060.8720026,-767.578125,-1000.0,-349.609375,-818.84765625,0.0,0,0
1772036060.918838,1772036060.8758976,-57.12890625,-982.91015625,-19.53125,-135.7421875,0.0,0,0
1772036060.9497468,1772036060.8799322,623.53515625,282.2265625,268.5546875,672.8515625,0.0,0,0
1772036060.949891,1772036060.8838274,507.32421875,-770.5078125,195.3125,621.09375,0.0,0,0
1772036060.949929,1772036060.8877225,-414.55078125,168.45703125,-202.1484375,-396.484375,0.0,0,0
1772036060.949964,1772036060.8916175,-759.27734375,-1000.0,-340.33203125,-832.51953125,0.0,0,0
1772036060.9499981,1772036060.8955126,-175.29296875,-1000.0,-72.75390625,-283.69140625,0.0,0,0
1772036060.950052,1772036060.8994079,532.71484375,45.8984375,246.58203125,573.73046875,0.0,0,0
1772036060.950094,1772036060.903303,577.1484375,-766.6015625,234.375,706.54296875,0.0,0,0
1772036060.9501388,1772036060.907198,-321.2890625,281.73828125,-190.4296875,-293.9453125,0.0,0,0
1772036060.950241,1772036060.9110932,-758.30078125,-965.33203125,-366.69921875,-823.2421875,0.0,0,0
1772036060.9502778,1772036060.9149883,-282.2265625,-1000.0,-140.625,-374.0234375,0.0,0,0
1772036060.95031,1772036060.9188833,513.671875,-210.44921875,219.23828125,503.41796875,0.0,0,0
1772036060.9503438,1772036060.9227784,665.52734375,-836.42578125,266.6015625,746.09375,0.0,0,0
1772036061.009294,1772036060.926888,-198.73046875,534.1796875,-121.58203125,-141.11328125,0.0,0,0
1772036061.0094311,1772036060.930783,-754.39453125,-855.46875,-356.4453125,-818.84765625,0.0,0,0
1772036061.009462,1772036060.9346783,-400.390625,-1000.0,-197.75390625,-507.32421875,0.0,0,0
1772036061.00949,1772036060.9385734,466.30859375,-208.984375,173.828125,448.73046875,0.0,0,0
1772036061.00956,1772036060.9424684,688.96484375,-939.453125,253.90625,754.39453125,0.0,0,0
1772036061.009601,1772036060.9463637,-64.94140625,878.90625,-92.7734375,-7.32421875,0.0,0,0
1772036061.0096278,1772036060.9502587,-711.9140625,-442.3828125,-357.91015625,-772.94921875,0.0,0,0
1772036061.00966,1772036060.954154,-503.41796875,-1000.0,-245.1171875,-634.765625,0.0,0,0
1772036061.009686,1772036060.958049,409.66796875,-182.12890625,154.296875,378.90625,0.0,0,0
1772036061.009713,1772036060.961944,702.63671875,-974.12109375,286.1328125,761.71875,0.0,0,0
1772036061.00974,1772036060.9658394,65.91796875,997.55859375,-19.04296875,137.20703125,0.0,0,0
1772036061.0097668,1772036060.9697344,-661.1328125,-224.609375,-335.9375,-684.08203125,0.0,0,0
1772036061.0393522,1772036060.9737477,-598.6328125,-1000.0,-284.1796875,-711.42578125,0.0,0,0
1772036061.039464,1772036060.9776428,317.3828125,-245.1171875,127.44140625,289.0625,0.0,0,0
1772036061.0395122,1772036060.981538,674.31640625,975.5859375,282.2265625,759.765625,0.0,0,0
1772036061.039558,1772036060.985433,195.3125,-933.59375,43.45703125,282.2265625,0.0,0,0
1772036061.039627,1772036060.9893284,-598.14453125,-9.765625,-301.7578125,-585.9375,0.0,0,0
1772036061.0396721,1772036060.9932234,-699.21875,-1000.0,-309.08203125,-770.5078125,0.0,0,0
1772036061.039714,1772036060.9971187,221.6796875,-421.875,100.09765625,183.10546875,0.0,0,0
1772036061.039757,1772036061.0010138,676.26953125,891.6015625,260.7421875,750.9765625,0.0,0,0
1772036061.039799,1772036061.004909,282.71484375,-882.8125,65.91796875,366.2109375,0.0,0,0
1772036061.03984,1772036061.008804,-530.76171875,154.78515625,-277.83203125,-514.6484375,0.0,0,0
1772036061.039882,1772036061.0126994,-734.375,-1000.0,-351.07421875,-798.828125,0.0,0,0
1772036061.039922,1772036061.0165944,83.0078125,-718.75,22.94921875,14.16015625,0.0,0,0
1772036061.0848808,1772036061.0205984,643.06640625,657.2265625,257.8125,723.14453125,0.0,0,0
1772036061.085036,1772036061.0244937,375.0,-826.171875,134.27734375,505.37109375,0.0,0,0
1772036061.0850828,1772036061.0283887,-487.79296875,185.546875,-250.0,-452.1484375,0.0,0,0
1772036061.0851269,1772036061.032284,-796.875,-1000.0,-382.8125,-848.6328125,0.0,0,0
1772036061.0851688,1772036061.036179,-46.875,-825.1953125,-35.15625,-109.86328125,0.0,0,0
1772036061.085213,1772036061.0400743,655.2734375,560.546875,267.08984375,729.98046875,0.0,0,0
1772036061.0852559,1772036061.0439696,464.35546875,-795.41015625,159.66796875,573.2421875,0.0,0,0
1772036061.0853,1772036061.0478647,-447.265625,139.16015625,-261.71875,-427.734375,0.0,0,0
1772036061.085342,1772036061.05176,-783.69140625,-1000.0,-394.04296875,-834.9609375,0.0,0,0
1772036061.085393,1772036061.055655,-191.40625,-1000.0,-106.93359375,-268.5546875,0.0,0,0
1772036061.0854359,1772036061.0595503,560.05859375,17.08984375,210.9375,587.40234375,0.0,0,0
1772036061.0854778,1772036061.0634453,585.9375,-771.97265625,198.2421875,689.453125,0.0,0,0
1772036061.130091,1772036061.0674393,-334.47265625,347.16796875,-214.84375,-315.4296875,0.0,0,0
1772036061.130242,1772036061.0713344,-745.1171875,-948.2421875,-378.90625,-856.93359375,0.0,0,0
1772036061.13029,1772036061.0752296,-255.37109375,-1000.0,-149.4140625,-404.296875,0.0,0,0
1772036061.130333,1772036061.079125,525.87890625,-114.2578125,184.08203125,499.51171875,0.0,0,0
1772036061.130382,1772036061.08302,676.7578125,-833.984375,229.98046875,739.2578125,0.0,0,0
1772036061.130425,1772036061.0869153,-171.875,604.98046875,-148.92578125,-163.57421875,0.0,0,0
1772036061.1304681,1772036061.0908105,-739.74609375,-767.08984375,-371.58203125,-832.03125,0.0,0,0
1772036061.130511,1772036061.0947056,-407.71484375,-1000.0,-220.703125,-518.5546875,0.0,0,0
1772036061.130552,1772036061.0986009,439.453125,-214.84375,144.53125,425.78125,0.0,0,0
1772036061.130595,1772036061.1024961,682.12890625,-911.1328125,250.0,760.25390625,0.0,0,0
1772036061.130636,1772036061.1063912,-48.828125,784.1796875,-109.86328125,24.90234375,0.0,0,0
1772036061.13068,1772036061.1102865,-666.9921875,-581.54296875,-372.0703125,-720.703125,0.0,0,0
1772036061.174964,1772036061.1142695,-477.05078125,-1000.0,-259.765625,-599.609375,0.0,0,0
1772036061.175124,1772036061.1181648,379.8828125,-180.17578125,114.74609375,364.74609375,0.0,0,0
1772036061.17517,1772036061.1220598,671.38671875,-983.88671875,225.5859375,749.0234375,0.0,0,0
1772036061.175586,1772036061.125955,63.4765625,-991.2109375,-69.3359375,110.3515625,0.0,0,0
1772036061.1756349,1772036061.1298504,-659.1796875,-180.6640625,-371.58203125,-705.078125,0.0,0,0
1772036061.175679,1772036061.1337457,-610.3515625,-1000.0,-321.2890625,-722.65625,0.0,0,0
1772036061.175721,1772036061.1376407,289.55078125,-328.61328125,79.58984375,249.0234375,0.0,0,0
1772036061.175754,1772036061.141536,656.25,943.359375,226.5625,713.37890625,0.0,0,0
1772036061.175786,1772036061.1454313,185.546875,-917.48046875,5.37109375,242.1875,0.0,0,0
1772036061.175818,1772036061.1493263,-583.984375,-5.859375,-331.0546875,-599.609375,0.0,0,0
1772036061.175851,1772036061.1532216,-672.36328125,-1000.0,-350.5859375,-771.484375,0.0,0,0
1772036061.175883,1772036061.157117,229.98046875,-415.52734375,60.546875,183.10546875,0.0,0,0
1772036061.2347698,1772036061.1610858,681.15234375,893.06640625,239.2578125,759.27734375,0.0,0,0
1772036061.234965,1772036061.1649811,294.921875,-880.859375,46.875,366.2109375,0.0,0,0
1772036061.235014,1772036061.1688764,-514.6484375,177.24609375,-309.5703125,-523.92578125,0.0,0,0
1772036061.2350578,1772036061.1727715,-726.07421875,-1000.0,-388.18359375,-804.19921875,0.0,0,0
1772036061.235101,1772036061.1766667,82.51953125,-810.546875,-13.18359375,18.06640625,0.0,0,0
1772036061.235144,1772036061.180562,649.4140625,549.31640625,225.5859375,715.8203125,0.0,0,0
1772036061.2351859,1772036061.1844573,398.92578125,-804.19921875,97.65625,488.28125,0.0,0,0
1772036061.235229,1772036061.1883523,-466.30859375,163.57421875,-283.203125,-464.84375,0.0,0,0
1772036061.235272,1772036061.1922476,-753.90625,-1000.0,-383.7890625,-821.2890625,0.0,0,0
1772036061.235313,1772036061.196143,-43.9453125,-961.42578125,-44.43359375,-136.71875,0.0,0,0
1772036061.235355,1772036061.2000382,621.58203125,319.82421875,228.515625,659.66796875,0.0,0,0
1772036061.235397,1772036061.2039332,497.55859375,-773.92578125,167.48046875,597.65625,0.0,0,0
1772036061.3113532,1772036061.2081602,-413.0859375,172.36328125,-221.6796875,-414.55078125,0.0,0,0
1772036061.3115342,1772036061.2120554,-770.01953125,-1000.0,-374.0234375,-841.796875,0.0,0,0
1772036061.311584,1772036061.2159507,-169.43359375,-1000.0,-92.7734375,-270.01953125,0.0,0,0
1772036061.311629,1772036061.219846,570.80078125,90.8203125,221.19140625,581.54296875,0.0,0,0
1772036061.311674,1772036061.2237413,581.54296875,-769.53125,202.1484375,688.96484375,0.0,0,0
1772036061.311718,1772036061.2276366,-331.0546875,403.3203125,-196.2890625,-292.48046875,0.0,0,0
1772036061.31176,1772036061.2315319,-772.4609375,-910.15625,-375.48828125,-835.9375,0.0,0,0
1772036061.3118021,1772036061.2354271,-276.3671875,-1000.0,-152.34375,-374.51171875,0.0,0,0
1772036061.3118432,1772036061.2393224,524.4140625,-121.09375,201.171875,520.01953125,0.0,0,0
1772036061.311886,1772036061.2432177,651.85546875,-837.890625,236.81640625,733.88671875,0.0,0,0
1772036061.311929,1772036061.247113,-208.49609375,603.515625,-155.2734375,-156.73828125,0.0,0,0
1772036061.3119721,1772036061.2510083,-746.58203125,-769.53125,-359.375,-814.94140625,0.0,0,0
1772036061.325696,1772036061.2550492,-387.6953125,-1000.0,-189.453125,-500.9765625,0.0,0,0
1772036061.325817,1772036061.2589445,440.4296875,-216.30859375,184.5703125,447.75390625,0.0,0,0
1772036061.325866,1772036061.2628398,668.45703125,-906.73828125,272.4609375,753.41796875,0.0,0,0
1772036061.325912,1772036061.2667353,-66.40625,769.04296875,-87.890625,-20.5078125,0.0,0,0
1772036061.325956,1772036061.2706306,-702.1484375,-601.07421875,-347.65625,-784.1796875,0.0,0,0
1772036061.326002,1772036061.274526,-482.91015625,-1000.0,-223.14453125,-615.234375,0.0,0,0
1772036061.326043,1772036061.2784212,388.671875,-187.98828125,165.52734375,388.18359375,0.0,0,0
1772036061.3260858,1772036061.2823164,672.36328125,-967.28515625,281.25,757.32421875,0.0,0,0
1772036061.32613,1772036061.2862117,46.875,967.28515625,-24.90234375,126.46484375,0.0,0,0
1772036061.326184,1772036061.290107,-662.109375,-280.76171875,-334.47265625,-688.96484375,0.0,0,0
1772036061.3262248,1772036061.2940023,-573.2421875,-1000.0,-278.3203125,-700.68359375,0.0,0,0
1772036061.326266,1772036061.2978976,329.1015625,-239.74609375,126.953125,300.29296875,0.0,0,0
1772036061.3854039,1772036061.3020074,674.8046875,967.28515625,268.5546875,760.7421875,0.0,0,0
1772036061.3855832,1772036061.3059027,205.078125,-927.24609375,41.50390625,294.921875,0.0,0,0
1772036061.385648,1772036061.309798,-543.45703125,47.8515625,-299.31640625,-557.12890625,0.0,0,0
1772036061.385709,1772036061.3136933,-644.04296875,-1000.0,-322.75390625,-756.8359375,0.0,0,0
1772036061.385768,1772036061.3175888,233.3984375,-512.20703125,85.44921875,181.15234375,0.0,0,0
1772036061.385828,1772036061.321484,699.21875,843.26171875,282.71484375,780.76171875,0.0,0,0
1772036061.385887,1772036061.3253794,315.91796875,-863.76953125,98.6328125,407.2265625,0.0,0,0
1772036061.385946,1772036061.3292747,-511.23046875,176.26953125,-277.34375,-514.16015625,0.0,0,0
1772036061.386007,1772036061.3331702,-711.9140625,-1000.0,-345.703125,-790.52734375,0.0,0,0
1772036061.3860638,1772036061.3370655,114.2578125,-733.88671875,35.15625,43.9453125,0.0,0,0
1772036061.386121,1772036061.3409607,673.828125,645.99609375,263.671875,750.0,0.0,0,0
1772036061.386186,1772036061.344856,414.55078125,-820.80078125,129.8828125,532.2265625,0.0,0,0
1772036061.414319,1772036061.3488667,-450.68359375,171.38671875,-260.25390625,-440.4296875,0.0,0,0
1772036061.414407,1772036061.352762,-741.69921875,-1000.0,-381.34765625,-811.5234375,0.0,0,0
1772036061.414453,1772036061.3566573,-11.71875,-914.0625,-31.25,-92.7734375,0.0,0,0
1772036061.414496,1772036061.3605525,648.92578125,390.625,263.18359375,704.58984375,0.0,0,0
1772036061.41454,1772036061.364448,494.62890625,-777.83203125,166.50390625,623.53515625,0.0,0,0
1772036061.4145842,1772036061.3683434,-405.76171875,234.86328125,-233.3984375,-378.41796875,0.0,0,0
1772036061.414628,1772036061.3722386,-751.953125,-990.72265625,-371.09375,-811.5234375,0.0,0,0
1772036061.414669,1772036061.3761342,-171.875,-1000.0,-90.33203125,-240.72265625,0.0,0,0
1772036061.414712,1772036061.3800294,541.50390625,-4.39453125,233.88671875,606.4453125,0.0,0,0
1772036061.414776,1772036061.3839247,555.6640625,-775.390625,214.35546875,706.54296875,0.0,0,0
1772036061.414828,1772036061.3878202,-345.21484375,298.33984375,-197.265625,-299.8046875,0.0,0,0
1772036061.41489,1772036061.3917155,-755.37109375,-965.8203125,-354.00390625,-823.73046875,0.0,0,0
1772036061.4595761,1772036061.3957167,-285.15625,-1000.0,-134.765625,-369.62890625,0.0,0,0
1772036061.459692,1772036061.399612,453.125,-194.82421875,206.0546875,502.44140625,0.0,0,0
1772036061.459738,1772036061.4035075,604.00390625,-832.51953125,273.92578125,735.3515625,0.0,0,0
1772036061.459778,1772036061.4074028,-220.21484375,527.83203125,-119.62890625,-171.875,0.0,0,0
1772036061.459816,1772036061.4112983,-763.18359375,-858.3984375,-350.5859375,-842.28515625,0.0,0,0
1772036061.4598532,1772036061.4151936,-410.64453125,-1000.0,-162.59765625,-524.90234375,0.0,0,0
1772036061.459889,1772036061.4190888,417.96875,-220.21484375,199.70703125,442.87109375,0.0,0,0
1772036061.4599261,1772036061.4229844,634.765625,-891.6015625,264.16015625,756.34765625,0.0,0,0
1772036061.459968,1772036061.4268796,-99.609375,714.84375,-88.37890625,-19.53125,0.0,0,0
1772036061.460004,1772036061.430775,-717.28515625,-667.96875,-344.7265625,-758.30078125,0.0,0,0
1772036061.460041,1772036061.4346704,-491.69921875,-1000.0,-219.7265625,-586.9140625,0.0,0,0
1772036061.4600792,1772036061.4385657,379.39453125,-179.6875,163.57421875,395.5078125,0.0,0,0
1772036061.504504,1772036061.4425545,662.59765625,-990.234375,277.34375,759.765625,0.0,0,0
1772036061.5046191,1772036061.44645,51.7578125,-977.05078125,-29.78515625,123.53515625,0.0,0,0
1772036061.5046499,1772036061.4503453,-650.390625,-152.34375,-337.40234375,-693.84765625,0.0,0,0
1772036061.5046809,1772036061.4542408,-588.8671875,-1000.0,-287.59765625,-692.3828125,0.0,0,0
1772036061.504713,1772036061.458136,320.80078125,-287.109375,118.1640625,335.9375,0.0,0,0
1772036061.50474,1772036061.4620316,684.5703125,961.9140625,276.85546875,782.71484375,0.0,0,0
1772036061.50491,1772036061.465927,184.08203125,-925.78125,42.96875,264.6484375,0.0,0,0
1772036061.504939,1772036061.4698222,-593.26171875,0.9765625,-316.40625,-598.6328125,0.0,0,0
1772036061.504967,1772036061.4737177,-683.59375,-1000.0,-340.33203125,-784.66796875,0.0,0,0
1772036061.5050082,1772036061.477613,210.9375,-454.1015625,83.984375,157.2265625,0.0,0,0
1772036061.505034,1772036061.4815085,668.9453125,871.58203125,274.90234375,738.76953125,0.0,0,0
1772036061.5050611,1772036061.4854038,286.62109375,-874.51171875,85.44921875,357.91015625,0.0,0,0
1772036061.550842,1772036061.489388,-509.27734375,188.4765625,-264.6484375,-527.83203125,0.0,0,0
1772036061.5509708,1772036061.4932835,-705.56640625,-1000.0,-325.1953125,-809.5703125,0.0,0,0
1772036061.551039,1772036061.4971788,106.93359375,-656.25,58.10546875,27.83203125,0.0,0,0
1772036061.5511,1772036061.5010743,656.73828125,738.76953125,285.64453125,724.609375,0.0,0,0
1772036061.55116,1772036061.5049696,382.32421875,-833.0078125,135.25390625,467.28515625,0.0,0,0
1772036061.551221,1772036061.508865,-466.30859375,161.62109375,-237.79296875,-470.703125,0.0,0,0
1772036061.551279,1772036061.5127604,-746.09375,-1000.0,-339.84375,-825.1953125,0.0,0,0
1772036061.5513349,1772036061.516656,-42.48046875,-1000.0,-17.08984375,-152.34375,0.0,0,0
1772036061.551391,1772036061.5205512,613.76953125,227.05078125,262.20703125,660.64453125,0.0,0,0
1772036061.551449,1772036061.5244467,493.1640625,-766.6015625,192.87109375,615.234375,0.0,0,0
1772036061.551507,1772036061.528342,-412.59765625,146.97265625,-200.68359375,-396.97265625,0.0,0,0
1772036061.5515661,1772036061.5322375,-769.53125,-1000.0,-357.421875,-833.984375,0.0,0,0
1772036061.609211,1772036061.5362947,-173.828125,-1000.0,-92.7734375,-278.3203125,0.0,0,0
1772036061.609288,1772036061.54019,560.05859375,67.3828125,232.421875,574.70703125,0.0,0,0
1772036061.609322,1772036061.5440855,578.61328125,-767.578125,215.33203125,671.875,0.0,0,0
1772036061.609357,1772036061.5479808,-322.265625,361.81640625,-195.80078125,-322.265625,0.0,0,0
1772036061.609387,1772036061.5518763,-743.65234375,-937.5,-370.1171875,-839.35546875,0.0,0,0
1772036061.609417,1772036061.5557718,-271.484375,-1000.0,-142.578125,-387.6953125,0.0,0,0
1772036061.609445,1772036061.559667,493.1640625,-100.5859375,210.9375,506.8359375,0.0,0,0
1772036061.609518,1772036061.5635626,619.62890625,-812.98828125,247.0703125,718.75,0.0,0,0
1772036061.6095831,1772036061.5674582,-222.65625,514.16015625,-156.25,-197.265625,0.0,0,0
1772036061.609619,1772036061.5713534,-749.51171875,-854.00390625,-364.74609375,-841.796875,0.0,0,0
1772036061.60971,1772036061.575249,-386.23046875,-1000.0,-191.89453125,-525.390625,0.0,0,0
1772036061.6097732,1772036061.5791442,450.68359375,-220.21484375,167.48046875,426.7578125,0.0,0,0
1772036061.6544142,1772036061.5831852,676.7578125,-909.66796875,260.25390625,750.0,0.0,0,0
1772036061.654471,1772036061.5870805,-77.1484375,778.3203125,-92.7734375,-26.3671875,0.0,0,0
1772036061.6544929,1772036061.590976,-702.1484375,-589.35546875,-353.515625,-774.90234375,0.0,0,0
1772036061.654513,1772036061.5948715,-479.98046875,-1000.0,-217.28515625,-605.46875,0.0,0,0
1772036061.654531,1772036061.598767,350.5859375,-190.91796875,148.92578125,382.8125,0.0,0,0
1772036061.654549,1772036061.6026623,637.6953125,-958.49609375,254.8828125,761.71875,0.0,0,0
1772036061.654568,1772036061.6065578,46.38671875,941.89453125,-44.43359375,109.86328125,0.0,0,0
1772036061.654586,1772036061.6104534,-650.390625,-323.2421875,-354.00390625,-708.0078125,0.0,0,0
1772036061.654607,1772036061.6143486,-570.80078125,-1000.0,-279.78515625,-703.61328125,0.0,0,0
1772036061.654624,1772036061.6182442,326.66015625,-256.8359375,121.58203125,309.08203125,0.0,0,0
1772036061.6546419,1772036061.6221397,666.9921875,966.796875,253.41796875,767.08984375,0.0,0,0
1772036061.65466,1772036061.626035,177.24609375,-930.17578125,18.5546875,255.859375,0.0,0,0
1772036061.701633,1772036061.6300735,-578.61328125,-8.7890625,-319.3359375,-599.12109375,0.0,0,0
1772036061.701683,1772036061.633969,-656.25,-1000.0,-325.1953125,-774.90234375,0.0,0,0
1772036061.701706,1772036061.6378644,230.46875,-404.296875,102.5390625,183.59375,0.0,0,0
1772036061.701726,1772036061.6417599,649.90234375,895.01953125,260.25390625,739.2578125,0.0,0,0
1772036061.701748,1772036061.6456554,278.80859375,-881.34765625,58.59375,360.83984375,0.0,0,0
1772036061.7017689,1772036061.649551,-486.81640625,205.078125,-271.484375,-509.27734375,0.0,0,0
1772036061.701789,1772036061.6534464,-676.26953125,-1000.0,-336.9140625,-790.0390625,0.0,0,0
1772036061.701809,1772036061.6573417,111.328125,-769.53125,29.296875,52.734375,0.0,0,0
1772036061.701828,1772036061.6612372,630.37109375,607.421875,234.375,735.3515625,0.0,0,0
1772036061.701849,1772036061.6651328,386.23046875,-812.98828125,104.4921875,499.0234375,0.0,0,0
1772036061.701869,1772036061.6690283,-437.5,162.59765625,-245.1171875,-438.96484375,0.0,0,0
1772036061.701889,1772036061.6729238,-720.21484375,-1000.0,-350.09765625,-801.7578125,0.0,0,0
1772036061.744707,1772036061.6769476,-27.34375,-981.4453125,-21.484375,-104.98046875,0.0,0,0
1772036061.744779,1772036061.680843,598.14453125,289.0625,240.72265625,664.0625,0.0,0,0
1772036061.744809,1772036061.6847384,473.14453125,-772.94921875,166.015625,584.47265625,0.0,0,0
1772036061.744838,1772036061.688634,-392.578125,151.3671875,-220.21484375,-404.296875,0.0,0,0
1772036061.744867,1772036061.6925294,-714.35546875,-1000.0,-353.515625,-819.3359375,0.0,0,0
1772036061.744898,1772036061.696425,-133.30078125,-1000.0,-65.4296875,-258.30078125,0.0,0,0
1772036061.744925,1772036061.7003205,547.36328125,143.06640625,223.14453125,569.3359375,0.0,0,0
1772036061.744954,1772036061.704216,544.43359375,-762.6953125,185.05859375,650.87890625,0.0,0,0
1772036061.744982,1772036061.7081115,-323.2421875,298.33984375,-209.47265625,-328.61328125,0.0,0,0
1772036061.74501,1772036061.712007,-722.65625,-964.35546875,-375.9765625,-838.37890625,0.0,0,0
1772036061.745037,1772036061.7159026,-242.1875,-1000.0,-140.625,-374.51171875,0.0,0,0
1772036061.745065,1772036061.7197978,498.53515625,-86.42578125,199.70703125,514.6484375,0.0,0,0
1772036061.789375,1772036061.7238057,617.1875,-807.12890625,237.79296875,753.90625,0.0,0,0
1772036061.7894661,1772036061.7277012,-225.5859375,504.8828125,-146.97265625,-137.6953125,0.0,0,0
1772036061.7894971,1772036061.7315967,-754.8828125,-857.91015625,-354.00390625,-800.78125,0.0,0,0
1772036061.789527,1772036061.7354922,-406.73828125,-1000.0,-176.7578125,-493.1640625,0.0,0,0
1772036061.789556,1772036061.7393878,391.11328125,-209.47265625,169.921875,441.40625,0.0,0,0
1772036061.7895849,1772036061.7432833,616.69921875,-940.91796875,250.0,746.58203125,0.0,0,0
1772036061.789624,1772036061.7471788,-88.8671875,884.27734375,-94.23828125,-21.484375,0.0,0,0
1772036061.789653,1772036061.7510743,-698.73046875,-434.5703125,-355.46875,-743.65234375,0.0,0,0
1772036061.789682,1772036061.7549698,-498.046875,-1000.0,-239.74609375,-587.40234375,0.0,0,0
1772036061.789709,1772036061.7588654,373.53515625,-183.59375,145.5078125,387.20703125,0.0,0,0
1772036061.789737,1772036061.7627609,667.96875,-970.703125,253.90625,758.30078125,0.0,0,0
1772036061.789769,1772036061.7666564,62.5,987.79296875,-35.64453125,117.67578125,0.0,0,0
1772036061.834052,1772036061.7706528,-634.765625,-237.3046875,-328.125,-684.08203125,0.0,0,0
1772036061.834126,1772036061.7745483,-564.453125,-1000.0,-278.80859375,-692.87109375,0.0,0,0
1772036061.834162,1772036061.7784438,339.84375,-285.15625,125.0,317.3828125,0.0,0,0
1772036061.834195,1772036061.7823393,688.4765625,957.03125,271.484375,777.83203125,0.0,0,0
1772036061.834228,1772036061.7862349,218.26171875,-925.29296875,29.78515625,262.20703125,0.0,0,0
1772036061.83426,1772036061.7901304,-561.5234375,0.9765625,-292.96875,-588.37890625,0.0,0,0
1772036061.834294,1772036061.794026,-684.5703125,-1000.0,-312.5,-764.6484375,0.0,0,0
1772036061.834325,1772036061.7979214,190.91796875,-471.19140625,90.33203125,183.10546875,0.0,0,0
1772036061.8343601,1772036061.801817,612.79296875,864.74609375,271.97265625,738.28125,0.0,0,0
1772036061.834392,1772036061.8057125,235.83984375,-873.046875,73.2421875,344.7265625,0.0,0,0
1772036061.83452,1772036061.809608,-524.90234375,161.62109375,-277.83203125,-526.3671875,0.0,0,0
1772036061.834552,1772036061.8135035,-694.82421875,-1000.0,-333.0078125,-793.9453125,0.0,0,0
1772036061.909533,1772036061.8176591,113.28125,-652.83203125,46.875,42.96875,0.0,0,0
1772036061.909589,1772036061.8215547,634.765625,736.328125,266.11328125,709.9609375,0.0,0,0
1772036061.909604,1772036061.8254502,372.55859375,-837.890625,131.8359375,468.26171875,0.0,0,0
1772036061.909617,1772036061.8293457,-433.10546875,182.6171875,-238.76953125,-464.35546875,0.0,0,0
1772036061.909633,1772036061.8332412,-708.0078125,-1000.0,-349.609375,-819.3359375,0.0,0,0
1772036061.909646,1772036061.837137,-11.23046875,-843.26171875,-7.8125,-107.421875,0.0,0,0
1772036061.9096599,1772036061.8410325,609.86328125,508.30078125,271.484375,655.2734375,0.0,0,0
1772036061.909673,1772036061.844928,460.44921875,-794.43359375,191.89453125,555.6640625,0.0,0,0
1772036061.909686,1772036061.8488235,-382.8125,146.484375,-190.91796875,-404.78515625,0.0,0,0
1772036061.9097002,1772036061.852719,-707.03125,-1000.0,-326.66015625,-830.078125,0.0,0,0
1772036061.9097128,1772036061.8566148,-133.7890625,-1000.0,-42.48046875,-272.94921875,0.0,0,0
1772036061.909726,1772036061.8605103,542.48046875,90.33203125,257.32421875,536.62109375,0.0,0,0
1772036061.923913,1772036061.864489,542.96875,-762.6953125,224.12109375,592.7734375,0.0,0,0
1772036061.923937,1772036061.8683848,-297.8515625,299.8046875,-173.33984375,-345.703125,0.0,0,0
1772036061.923952,1772036061.8722804,-693.359375,-963.37890625,-334.9609375,-818.359375,0.0,0,0
1772036061.923967,1772036061.8761759,-243.65234375,-1000.0,-108.88671875,-379.8828125,0.0,0,0
1772036061.923981,1772036061.8800716,483.3984375,-117.67578125,214.84375,475.5859375,0.0,0,0
1772036061.9239948,1772036061.8839672,607.91015625,-814.94140625,262.20703125,683.59375,0.0,0,0
1772036061.924008,1772036061.8878627,-191.40625,520.99609375,-112.3046875,-198.2421875,0.0,0,0
1772036061.9240232,1772036061.8917582,-676.26953125,-849.12109375,-324.70703125,-801.7578125,0.0,0,0
1772036061.9240372,1772036061.895654,-325.68359375,-1000.0,-151.85546875,-473.6328125,0.0,0,0
1772036061.9240499,1772036061.8995495,438.4765625,-211.9140625,189.94140625,424.31640625,0.0,0,0
1772036061.924064,1772036061.903445,619.62890625,-932.12890625,269.53125,693.84765625,0.0,0,0
1772036061.924078,1772036061.9073405,-74.21875,853.02734375,-59.08203125,-43.45703125,0.0,0,0
1772036061.984062,1772036061.9113884,-626.953125,-479.4921875,-297.8515625,-725.09765625,0.0,0,0
1772036061.984101,1772036061.915284,-424.8046875,-1000.0,-192.3828125,-572.75390625,0.0,0,0
1772036061.984121,1772036061.9191797,370.60546875,-195.80078125,152.83203125,350.09765625,0.0,0,0
1772036061.98414,1772036061.9230752,629.8828125,-942.3828125,261.71875,695.3125,0.0,0,0
1772036061.984159,1772036061.9269707,45.41015625,900.87890625,-25.87890625,79.1015625,0.0,0,0
1772036061.9841769,1772036061.9308665,-595.703125,-395.01953125,-300.29296875,-662.59765625,0.0,0,0
1772036061.984195,1772036061.934762,-508.7890625,-1000.0,-234.86328125,-622.55859375,0.0,0,0
1772036061.984214,1772036061.9386575,307.12890625,-269.04296875,106.93359375,294.43359375,0.0,0,0
1772036061.984231,1772036061.9425533,607.421875,959.47265625,222.65625,675.78125,0.0,0,0
1772036061.984249,1772036061.9464488,150.87890625,-931.640625,15.625,223.14453125,0.0,0,0
1772036061.984266,1772036061.9503446,-535.64453125,-17.08984375,-289.55078125,-559.5703125,0.0,0,0
1772036061.984284,1772036061.95424,-583.984375,-1000.0,-306.640625,-695.80078125,0.0,0,0
1772036062.031056,1772036061.9582825,223.6328125,-473.6328125,57.12890625,190.91796875,0.0,0,0
1772036062.031095,1772036061.962178,581.0546875,859.375,202.1484375,651.85546875,0.0,0,0
1772036062.0311182,1772036061.9660738,221.19140625,-871.09375,42.48046875,288.0859375,0.0,0,0
1772036062.031143,1772036061.9699693,-462.40234375,171.875,-253.41796875,-524.90234375,0.0,0,0
1772036062.031167,1772036061.973865,-613.28125,-1000.0,-312.01171875,-740.234375,0.0,0,0
1772036062.031189,1772036061.9777606,100.09765625,-571.2890625,34.1796875,62.5,0.0,0,0
1772036062.031211,1772036061.9816563,539.0625,818.84765625,223.14453125,610.3515625,0.0,0,0
1772036062.0312362,1772036061.9855518,295.8984375,-853.02734375,95.21484375,395.01953125,0.0,0,0
1772036062.0312588,1772036061.9894474,-444.82421875,177.734375,-229.00390625,-439.453125,0.0,0,0
1772036062.031283,1772036061.993343,-679.6875,-1000.0,-323.2421875,-763.671875,0.0,0,0
1772036062.031306,1772036061.9972386,-32.2265625,-930.17578125,-28.3203125,-87.40234375,0.0,0,0
1772036062.031328,1772036062.0011344,514.16015625,379.39453125,200.1953125,568.84765625,0.0,0,0
1772036062.074316,1772036062.0051613,386.23046875,-778.80859375,117.1875,482.91015625,0.0,0,0
1772036062.074375,1772036062.0090568,-371.58203125,144.53125,-210.44921875,-364.74609375,0.0,0,0
1772036062.0744052,1772036062.0129526,-639.6484375,-1000.0,-298.828125,-713.37890625,0.0,0,0
1772036062.0744362,1772036062.016848,-120.1171875,-1000.0,-61.03515625,-187.5,0.0,0,0
1772036062.074463,1772036062.0207438,466.30859375,68.359375,189.453125,514.6484375,0.0,0,0
1772036062.0744908,1772036062.0246396,463.8671875,-769.53125,178.22265625,561.5234375,0.0,0,0
1772036062.0745192,1772036062.0285351,-292.96875,393.5546875,-166.015625,-292.96875,0.0,0,0
1772036062.074548,1772036062.032431,-643.5546875,-905.76171875,-318.359375,-739.2578125,0.0,0,0
1772036062.0745752,1772036062.0363264,-232.421875,-1000.0,-128.90625,-325.1953125,0.0,0,0
1772036062.074602,1772036062.0402222,400.87890625,-222.65625,148.92578125,431.640625,0.0,0,0
1772036062.0746298,1772036062.0441177,496.58203125,-840.33203125,174.31640625,588.8671875,0.0,0,0
1772036062.0746582,1772036062.0480134,-216.796875,502.9296875,-152.83203125,-195.80078125,0.0,0,0
1772036062.119123,1772036062.0520306,-624.51171875,-881.8359375,-311.5234375,-693.84765625,0.0,0,0
1772036062.119178,1772036062.055926,-302.24609375,-1000.0,-159.66796875,-386.71875,0.0,0,0
1772036062.1192021,1772036062.0598218,368.1640625,-225.5859375,130.37109375,403.80859375,0.0,0,0
1772036062.1192262,1772036062.0637174,532.71484375,-898.92578125,193.359375,638.671875,0.0,0,0
1772036062.1192498,1772036062.0676131,-106.93359375,739.74609375,-103.515625,-45.8984375,0.0,0,0
1772036062.119274,1772036062.071509,-606.93359375,-637.6953125,-290.52734375,-625.0,0.0,0,0
1772036062.119297,1772036062.0754044,-373.046875,-1000.0,-178.22265625,-458.0078125,0.0,0,0
1772036062.1193202,1772036062.0793002,334.9609375,-178.7109375,104.4921875,302.24609375,0.0,0,0
1772036062.1194072,1772036062.083196,533.203125,-990.234375,187.01171875,572.75390625,0.0,0,0
1772036062.119457,1772036062.0870914,22.4609375,-978.02734375,-37.59765625,69.3359375,0.0,0,0
1772036062.119484,1772036062.0909872,-533.203125,-149.4140625,-249.0234375,-542.48046875,0.0,0,0
1772036062.119509,1772036062.0948827,-461.9140625,-1000.0,-202.1484375,-517.08984375,0.0,0,0
1772036062.208435,1772036062.098891,245.1171875,-294.921875,87.40234375,257.32421875,0.0,0,0
1772036062.208468,1772036062.1027868,512.20703125,948.73046875,192.87109375,565.91796875,0.0,0,0
1772036062.20848,1772036062.1066825,141.11328125,-909.1796875,18.5546875,174.8046875,0.0,0,0
1772036062.208491,1772036062.110578,-460.9375,71.77734375,-230.95703125,-461.42578125,0.0,0,0
1772036062.208502,1772036062.1144738,-513.671875,-1000.0,-240.234375,-554.6875,0.0,0,0
1772036062.208512,1772036062.1183696,219.23828125,-377.44140625,76.66015625,201.171875,0.0,0,0
1772036062.208529,1772036062.1222653,539.55078125,925.29296875,206.54296875,567.87109375,0.0,0,0
1772036062.2085729,1772036062.1261609,204.58984375,-895.5078125,56.15234375,252.44140625,0.0,0,0
1772036062.2086248,1772036062.1300566,-417.96875,160.15625,-211.9140625,-415.52734375,0.0,0,0
1772036062.208638,1772036062.1339524,-548.33984375,-1000.0,-243.65234375,-575.1953125,0.0,0,0
1772036062.208648,1772036062.137848,97.16796875,-684.5703125,56.640625,104.4921875,0.0,0,0
1772036062.208658,1772036062.1417437,487.79296875,698.73046875,202.1484375,540.0390625,0.0,0,0
1772036062.211812,1772036062.145749,261.23046875,-826.171875,88.37890625,341.796875,0.0,0,0
1772036062.211877,1772036062.1496449,-379.39453125,162.59765625,-178.22265625,-325.1953125,0.0,0,0
1772036062.211935,1772036062.1535406,-571.2890625,-1000.0,-243.65234375,-563.4765625,0.0,0,0
1772036062.2119548,1772036062.1574361,-19.04296875,-994.140625,5.859375,4.8828125,0.0,0,0
1772036062.211966,1772036062.161332,448.2421875,252.44140625,190.91796875,506.8359375,0.0,0,0
1772036062.211976,1772036062.1652277,339.35546875,-769.04296875,138.671875,408.69140625,0.0,0,0
1772036062.211987,1772036062.1691234,-319.82421875,237.3046875,-136.23046875,-269.53125,0.0,0,0
1772036062.211997,1772036062.1730192,-575.68359375,-1000.0,-243.65234375,-562.01171875,0.0,0,0
1772036062.2120261,1772036062.1769147,-95.21484375,-1000.0,-35.15625,-113.76953125,0.0,0,0
1772036062.212103,1772036062.1808105,439.94140625,111.328125,166.015625,435.05859375,0.0,0,0
1772036062.21212,1772036062.1847062,410.15625,-766.6015625,139.6484375,447.265625,0.0,0,0
1772036062.212132,1772036062.188602,-264.16015625,325.68359375,-136.23046875,-228.02734375,0.0,0,0
1772036062.25691,1772036062.19259,-575.68359375,-950.1953125,-250.48828125,-566.40625,0.0,0,0
1772036062.2569458,1772036062.1964858,-191.40625,-1000.0,-82.03125,-215.33203125,0.0,0,0
1772036062.256958,1772036062.2003813,372.55859375,-97.16796875,147.94921875,372.0703125,0.0,0,0
1772036062.256969,1772036062.204277,426.26953125,-855.95703125,146.484375,479.4921875,0.0,0,0
1772036062.25698,1772036062.2081728,-196.77734375,600.09765625,-141.6015625,-147.94921875,0.0,0,0
1772036062.25699,1772036062.2120686,-550.78125,-736.328125,-256.34765625,-545.41015625,0.0,0,0
1772036062.257001,1772036062.2159643,-268.5546875,-1000.0,-117.1875,-307.6171875,0.0,0,0
1772036062.25701,1772036062.21986,312.01171875,-204.58984375,97.65625,304.6875,0.0,0,0
1772036062.257021,1772036062.2237556,445.80078125,-905.2734375,123.53515625,475.5859375,0.0,0,0
1772036062.257031,1772036062.2276514,-88.37890625,771.97265625,-100.09765625,-41.015625,0.0,0,0
1772036062.257041,1772036062.231547,-525.390625,-594.23828125,-259.765625,-503.90625,0.0,0,0
1772036062.25705,1772036062.2354429,-336.9140625,-1000.0,-170.8984375,-371.58203125,0.0,0,0
1772036062.314177,1772036062.2394204,274.4140625,-177.734375,94.23828125,273.92578125,0.0,0,0
1772036062.3142269,1772036062.2433162,453.61328125,-990.234375,167.96875,490.72265625,0.0,0,0
1772036062.314244,1772036062.247212,19.04296875,-970.21484375,-45.41015625,57.6171875,0.0,0,0
1772036062.314259,1772036062.2511077,-464.84375,-153.80859375,-250.48828125,-461.9140625,0.0,0,0
1772036062.314274,1772036062.2550032,-389.6484375,-1000.0,-210.9375,-421.875,0.0,0,0
1772036062.3142872,1772036062.258899,270.99609375,-168.9453125,73.73046875,250.9765625,0.0,0,0
1772036062.314302,1772036062.2627947,479.00390625,997.0703125,140.625,466.796875,0.0,0,0
1772036062.314315,1772036062.2666905,107.421875,-935.546875,-32.71484375,85.9375,0.0,0,0
1772036062.3143291,1772036062.2705863,-400.87890625,73.2421875,-218.75,-445.80078125,0.0,0,0
1772036062.3143418,1772036062.274482,-434.5703125,-1000.0,-221.19140625,-505.37109375,0.0,0,0
1772036062.3143559,1772036062.2783778,211.42578125,-465.33203125,51.26953125,129.39453125,0.0,0,0
1772036062.314369,1772036062.2822735,502.44140625,873.53515625,171.38671875,427.24609375,0.0,0,0
1772036062.3586729,1772036062.286255,195.80078125,-874.51171875,31.73828125,164.55078125,0.0,0,0
1772036062.358712,1772036062.2901506,-353.02734375,190.4296875,-197.265625,-368.1640625,0.0,0,0
1772036062.358733,1772036062.2940464,-458.0078125,-1000.0,-223.6328125,-521.484375,0.0,0,0
1772036062.358752,1772036062.2979422,132.8125,-625.48828125,21.484375,20.01953125,0.0,0,0
1772036062.3587708,1772036062.3018377,483.88671875,768.06640625,160.15625,403.80859375,0.0,0,0
1772036062.3587892,1772036062.3057334,264.6484375,-840.33203125,76.171875,280.2734375,0.0,0,0
1772036062.358807,1772036062.3096292,-339.84375,164.55078125,-170.8984375,-292.96875,0.0,0,0
1772036062.358825,1772036062.313525,-523.4375,-1000.0,-235.83984375,-526.3671875,0.0,0,0
1772036062.3588421,1772036062.3174207,-14.6484375,-1000.0,-21.97265625,-80.078125,0.0,0,0
1772036062.358859,1772036062.3213165,404.78515625,248.046875,114.2578125,349.12109375,0.0,0,0
1772036062.358876,1772036062.3252122,294.43359375,-765.625,64.453125,288.57421875,0.0,0,0
1772036062.358892,1772036062.329108,-330.078125,147.94921875,-179.19921875,-317.3828125,0.0,0,0
1772036062.404398,1772036062.3331482,-557.12890625,-1000.0,-257.32421875,-566.89453125,0.0,0,0
1772036062.40445,1772036062.337044,-130.37109375,-1000.0,-70.80078125,-193.84765625,0.0,0,0
1772036062.404473,1772036062.3409398,370.60546875,-75.1953125,108.3984375,282.71484375,0.0,0,0
1772036062.404491,1772036062.3448355,384.765625,-783.203125,93.26171875,325.68359375,0.0,0,0
1772036062.4045088,1772036062.3487313,-274.4140625,319.82421875,-164.55078125,-282.2265625,0.0,0,0
1772036062.404526,1772036062.352627,-555.17578125,-958.49609375,-251.953125,-581.0546875,0.0,0,0
1772036062.404544,1772036062.3565228,-182.6171875,-1000.0,-105.46875,-275.390625,0.0,0,0
1772036062.404563,1772036062.3604186,314.453125,-242.1875,88.37890625,237.79296875,0.0,0,0
1772036062.40458,1772036062.3643143,387.20703125,-841.796875,109.375,349.12109375,0.0,0,0
1772036062.404597,1772036062.36821,-213.8671875,510.25390625,-125.48828125,-193.84765625,0.0,0,0
1772036062.404614,1772036062.3721058,-548.33984375,-879.39453125,-241.2109375,-525.390625,0.0,0,0
1772036062.4046311,1772036062.3760016,-267.578125,-1000.0,-126.46484375,-288.57421875,0.0,0,0
1772036062.450314,1772036062.380032,269.04296875,-219.23828125,83.0078125,269.04296875,0.0,0,0
1772036062.450366,1772036062.3839278,407.71484375,-916.50390625,130.37109375,438.4765625,0.0,0,0
1772036062.45039,1772036062.3878236,-110.3515625,802.24609375,-84.9609375,-48.33984375,0.0,0,0
1772036062.45041,1772036062.3917193,-505.859375,-553.7109375,-242.1875,-461.9140625,0.0,0,0
1772036062.45043,1772036062.3956153,-308.10546875,-1000.0,-147.4609375,-320.3125,0.0,0,0
1772036062.45045,1772036062.399511,274.90234375,-188.96484375,77.1484375,239.2578125,0.0,0,0
1772036062.45047,1772036062.4034069,418.45703125,-961.9140625,133.30078125,409.1796875,0.0,0,0
1772036062.45049,1772036062.4073026,-23.92578125,951.171875,-36.62109375,6.8359375,0.0,0,0
1772036062.45051,1772036062.4111984,-464.84375,-295.41015625,-224.609375,-452.63671875,0.0,0,0
1772036062.450529,1772036062.4150941,-385.25390625,-1000.0,-182.6171875,-395.99609375,0.0,0,0
1772036062.450549,1772036062.41899,214.35546875,-332.51953125,52.24609375,163.57421875,0.0,0,0
1772036062.450569,1772036062.4228857,406.73828125,928.22265625,114.2578125,363.76953125,0.0,0,0
1772036062.5093188,1772036062.4269822,56.15234375,-910.64453125,-10.25390625,107.421875,0.0,0,0
1772036062.509377,1772036062.430878,-420.8984375,45.41015625,-192.87109375,-342.7734375,0.0,0,0
1772036062.5094101,1772036062.4347737,-442.3828125,-1000.0,-195.3125,-416.015625,0.0,0,0
1772036062.509439,1772036062.4386697,148.4375,-562.01171875,36.62109375,97.65625,0.0,0,0
1772036062.509467,1772036062.4425654,419.43359375,803.22265625,138.18359375,349.609375,0.0,0,0
1772036062.509495,1772036062.4464612,150.390625,-854.00390625,34.1796875,127.9296875,0.0,0,0
1772036062.509525,1772036062.450357,-360.83984375,157.71484375,-184.08203125,-354.98046875,0.0,0,0
1772036062.509553,1772036062.454253,-458.0078125,-1000.0,-187.01171875,-462.890625,0.0,0,0
1772036062.5095801,1772036062.4581487,88.8671875,-805.17578125,47.36328125,4.39453125,0.0,0,0
1772036062.509612,1772036062.4620445,425.29296875,553.7109375,151.85546875,339.84375,0.0,0,0
1772036062.50964,1772036062.4659405,209.9609375,-804.19921875,61.5234375,191.40625,0.0,0,0
1772036062.509668,1772036062.4698362,-322.75390625,159.66796875,-154.78515625,-301.26953125,0.0,0,0
1772036062.539111,1772036062.4738407,-448.73046875,-1000.0,-195.80078125,-490.72265625,0.0,0,0
1772036062.5392,1772036062.4777367,14.6484375,-987.79296875,-6.34765625,-126.953125,0.0,0,0
1772036062.5392299,1772036062.4816325,392.08984375,266.6015625,137.6953125,308.10546875,0.0,0,0
1772036062.53926,1772036062.4855282,290.52734375,-770.01953125,70.3125,296.38671875,0.0,0,0
1772036062.539464,1772036062.4894242,-269.04296875,214.84375,-151.3671875,-257.8125,0.0,0,0
1772036062.5394938,1772036062.49332,-460.44921875,-1000.0,-207.03125,-477.5390625,0.0,0,0
1772036062.539522,1772036062.4972157,-71.77734375,-1000.0,-51.7578125,-143.06640625,0.0,0,0
1772036062.539569,1772036062.5011117,358.88671875,105.95703125,100.5859375,259.765625,0.0,0,0
1772036062.5396008,1772036062.5050075,349.609375,-763.671875,81.54296875,268.5546875,0.0,0,0
1772036062.539628,1772036062.5089033,-198.73046875,252.9296875,-131.34765625,-236.81640625,0.0,0,0
1772036062.539656,1772036062.5127993,-422.36328125,-974.609375,-211.42578125,-467.7734375,0.0,0,0
1772036062.539686,1772036062.516695,-125.0,-1000.0,-87.890625,-224.609375,0.0,0,0
1772036062.584032,1772036062.5206897,296.38671875,-182.6171875,83.49609375,187.98828125,0.0,0,0
1772036062.584089,1772036062.5245855,353.02734375,-836.42578125,104.98046875,264.6484375,0.0,0,0
1772036062.58412,1772036062.5284812,-145.5078125,562.5,-104.98046875,-167.96875,0.0,0,0
1772036062.584148,1772036062.5323772,-437.5,-818.84765625,-199.70703125,-433.10546875,0.0,0,0
1772036062.584176,1772036062.536273,-187.01171875,-1000.0,-99.12109375,-256.34765625,0.0,0,0
1772036062.584204,1772036062.5401688,292.96875,-212.890625,87.40234375,184.08203125,0.0,0,0
1772036062.5842319,1772036062.5440648,399.4140625,-923.828125,138.18359375,319.3359375,0.0,0,0
1772036062.584262,1772036062.5479605,-52.734375,826.66015625,-76.171875,-86.42578125,0.0,0,0
1772036062.58429,1772036062.5518565,-390.625,-518.06640625,-214.35546875,-423.828125,0.0,0,0
1772036062.584322,1772036062.5557523,-214.84375,-1000.0,-132.32421875,-301.7578125,0.0,0,0
1772036062.584349,1772036062.559648,280.76171875,-190.91796875,65.91796875,152.34375,0.0,0,0
1772036062.584377,1772036062.563544,409.1796875,-956.0546875,102.5390625,319.3359375,0.0,0,0
1772036062.630302,1772036062.5675294,27.83203125,936.03515625,-48.828125,-3.90625,0.0,0,0
1772036062.630453,1772036062.5714252,-354.00390625,-324.21875,-201.66015625,-379.39453125,0.0,0,0
1772036062.630521,1772036062.5753212,-289.0625,-1000.0,-178.7109375,-362.79296875,0.0,0,0
1772036062.630581,1772036062.579217,247.55859375,-299.31640625,41.9921875,114.74609375,0.0,0,0
1772036062.630642,1772036062.5831127,417.96875,922.8515625,96.19140625,303.22265625,0.0,0,0
1772036062.630701,1772036062.5870087,121.58203125,-897.94921875,-15.13671875,91.796875,0.0,0,0
1772036062.630762,1772036062.5909045,-277.83203125,181.640625,-164.55078125,-266.6015625,0.0,0,0
1772036062.63082,1772036062.5948005,-320.3125,-1000.0,-166.50390625,-327.63671875,0.0,0,0
1772036062.630878,1772036062.5986962,187.01171875,-767.578125,15.625,104.4921875,0.0,0,0
1772036062.6309361,1772036062.6025922,425.29296875,607.421875,93.75,346.6796875,0.0,0,0
1772036062.630992,1772036062.606488,233.88671875,-820.3125,0.48828125,187.01171875,0.0,0,0
1772036062.631053,1772036062.610384,-199.21875,164.55078125,-171.875,-277.34375,0.0,0,0
1772036062.674282,1772036062.6143584,-277.83203125,-1000.0,-196.77734375,-386.71875,0.0,0,0
1772036062.674416,1772036062.6182544,216.796875,-541.50390625,-22.94921875,48.33984375,0.0,0,0
1772036062.674468,1772036062.6221502,471.6796875,845.21484375,87.890625,252.44140625,0.0,0,0
1772036062.674516,1772036062.6260462,278.3203125,-855.46875,10.25390625,108.3984375,0.0,0,0
1772036062.674562,1772036062.629942,-193.359375,164.0625,-184.08203125,-269.04296875,0.0,0,0
1772036062.674606,1772036062.633838,-311.5234375,-1000.0,-208.49609375,-371.58203125,0.0,0,0
1772036062.674651,1772036062.6377337,52.24609375,-1000.0,-48.33984375,-78.125,0.0,0,0
1772036062.674714,1772036062.6416297,350.09765625,172.36328125,58.10546875,183.10546875,0.0,0,0
1772036062.674759,1772036062.6455255,302.734375,-762.20703125,35.64453125,134.27734375,0.0,0,0
1772036062.674811,1772036062.6494215,-144.04296875,179.6875,-154.78515625,-249.0234375,0.0,0,0
1772036062.674855,1772036062.6533172,-312.01171875,-1000.0,-207.51953125,-396.484375,0.0,0,0
1772036062.6749032,1772036062.6572132,34.1796875,-1000.0,-76.171875,-166.9921875,0.0,0,0
1772036062.734077,1772036062.6611757,382.32421875,-120.60546875,65.4296875,173.828125,0.0,0,0
1772036062.734218,1772036062.6650717,363.28125,-796.875,64.453125,243.65234375,0.0,0,0
1772036062.7342489,1772036062.6689675,-121.09375,383.30078125,-143.06640625,-159.1796875,0.0,0,0
1772036062.734279,1772036062.6728635,-336.9140625,-949.70703125,-203.125,-349.12109375,0.0,0,0
1772036062.734308,1772036062.6767592,-36.62109375,-1000.0,-98.14453125,-145.5078125,0.0,0,0
1772036062.734335,1772036062.6806552,343.75,-100.09765625,62.01171875,192.3828125,0.0,0,0
1772036062.7343628,1772036062.684551,350.09765625,-810.05859375,94.23828125,285.15625,0.0,0,0
1772036062.734391,1772036062.688447,-88.8671875,488.28125,-112.3046875,-87.40234375,0.0,0,0
1772036062.734429,1772036062.692343,-315.91796875,-871.09375,-199.70703125,-330.078125,0.0,0,0
1772036062.734464,1772036062.6962388,-127.9296875,-1000.0,-117.1875,-186.5234375,0.0,0,0
1772036062.734498,1772036062.7001348,272.4609375,-213.37890625,36.62109375,168.45703125,0.0,0,0
1772036062.7345269,1772036062.7040305,383.7890625,-933.59375,67.87109375,272.94921875,0.0,0,0
1772036062.809929,1772036062.7082293,19.04296875,859.375,-83.0078125,-11.71875,0.0,0,0
1772036062.810106,1772036062.712125,-267.578125,-469.23828125,-181.15234375,-266.11328125,0.0,0,0
1772036062.810154,1772036062.716021,-123.046875,-1000.0,-123.046875,-190.91796875,0.0,0,0
1772036062.810252,1772036062.719917,268.06640625,-166.50390625,44.921875,163.0859375,0.0,0,0
1772036062.81032,1772036062.723813,348.14453125,993.65234375,95.703125,277.83203125,0.0,0,0
1772036062.8103669,1772036062.7277088,35.64453125,-948.73046875,-21.484375,61.03515625,0.0,0,0
1772036062.810412,1772036062.7316048,-325.1953125,-5.37109375,-184.08203125,-250.48828125,0.0,0,0
1772036062.8104599,1772036062.7355008,-308.59375,-1000.0,-147.94921875,-246.09375,0.0,0,0
1772036062.810503,1772036062.7393968,117.67578125,-589.35546875,41.015625,145.99609375,0.0,0,0
1772036062.8105469,1772036062.7432926,266.11328125,788.0859375,75.68359375,302.734375,0.0,0,0
1772036062.810591,1772036062.7471886,20.99609375,-866.2109375,-36.62109375,117.67578125,0.0,0,0
1772036062.810633,1772036062.7510846,-349.609375,19.04296875,-160.64453125,-283.203125,0.0,0,0
1772036062.8252401,1772036062.755116,-358.3984375,-1000.0,-158.203125,-354.00390625,0.0,0,0
1772036062.825372,1772036062.7590117,70.3125,-550.78125,-4.8828125,64.453125,0.0,0,0
1772036062.825417,1772036062.7629077,232.91015625,809.5703125,87.890625,230.95703125,0.0,0,0
1772036062.825461,1772036062.7668037,48.828125,-855.46875,0.9765625,72.265625,0.0,0,0
1772036062.825504,1772036062.7706997,-291.015625,188.4765625,-173.828125,-247.55859375,0.0,0,0
1772036062.825546,1772036062.7745957,-355.95703125,-1000.0,-160.64453125,-290.0390625,0.0,0,0
1772036062.825589,1772036062.7784915,20.5078125,-627.44140625,0.9765625,18.06640625,0.0,0,0
1772036062.825631,1772036062.7823875,274.4140625,765.13671875,47.36328125,211.9140625,0.0,0,0
1772036062.8256729,1772036062.7862835,127.9296875,-837.890625,0.9765625,157.71484375,0.0,0,0
1772036062.82572,1772036062.7901795,-283.69140625,157.2265625,-125.48828125,-166.015625,0.0,0,0
1772036062.825762,1772036062.7940755,-375.48828125,-1000.0,-163.57421875,-256.8359375,0.0,0,0
1772036062.825804,1772036062.7979715,-62.01171875,-1000.0,-28.80859375,5.859375,0.0,0,0
1772036062.869573,1772036062.8019862,221.6796875,140.625,69.3359375,232.421875,0.0,0,0
1772036062.869725,1772036062.8058822,165.0390625,-765.625,35.15625,193.359375,0.0,0,0
1772036062.869772,1772036062.8097782,-231.4453125,255.859375,-135.25390625,-141.11328125,0.0,0,0
1772036062.869816,1772036062.813674,-387.6953125,-1000.0,-193.84765625,-288.57421875,0.0,0,0
1772036062.8698602,1772036062.81757,-89.84375,-1000.0,-73.73046875,-76.66015625,0.0,0,0
1772036062.869901,1772036062.821466,246.09375,51.26953125,54.19921875,239.2578125,0.0,0,0
1772036062.8699431,1772036062.825362,176.7578125,-769.04296875,37.59765625,220.21484375,0.0,0,0
1772036062.869986,1772036062.829258,-243.1640625,250.0,-130.37109375,-163.57421875,0.0,0,0
1772036062.8702562,1772036062.833154,-346.6796875,-976.5625,-166.9921875,-289.0625,0.0,0,0
1772036062.870305,1772036062.83705,-102.5390625,-1000.0,-66.89453125,-112.79296875,0.0,0,0
1772036062.870347,1772036062.840946,200.68359375,-220.21484375,54.6875,152.83203125,0.0,0,0
1772036062.87039,1772036062.844842,231.93359375,-832.03125,52.24609375,228.515625,0.0,0,0
1772036062.914992,1772036062.848847,-152.34375,494.62890625,-124.51171875,-88.8671875,0.0,0,0
1772036062.915138,1772036062.852743,-402.83203125,-884.27734375,-193.359375,-294.43359375,0.0,0,0
1772036062.915186,1772036062.856639,-230.46875,-1000.0,-100.5859375,-142.578125,0.0,0,0
1772036062.9152288,1772036062.860535,143.06640625,-187.5,47.8515625,165.52734375,0.0,0,0
1772036062.915275,1772036062.864431,204.1015625,-997.55859375,69.82421875,267.578125,0.0,0,0
1772036062.9153202,1772036062.868327,-126.953125,-960.44921875,-51.26953125,45.41015625,0.0,0,0
1772036062.915381,1772036062.872223,-373.046875,-116.69921875,-119.62890625,-214.35546875,0.0,0,0
1772036062.915433,1772036062.876119,-252.44140625,-1000.0,-115.72265625,-202.63671875,0.0,0,0
1772036062.915482,1772036062.880015,96.6796875,-238.76953125,11.71875,147.94921875,0.0,0,0
1772036062.9155421,1772036062.883911,193.359375,988.76953125,76.66015625,299.31640625,0.0,0,0
1772036062.915605,1772036062.887807,-42.96875,-940.91796875,-28.80859375,74.70703125,0.0,0,0
1772036062.915648,1772036062.891703,-346.6796875,-27.34375,-149.90234375,-189.453125,0.0,0,0
1772036062.95937,1772036062.895697,-313.96484375,-1000.0,-135.25390625,-170.8984375,0.0,0,0
1772036062.959527,1772036062.899593,86.42578125,-429.19921875,8.7890625,156.73828125,0.0,0,0
1772036062.9595761,1772036062.903489,218.26171875,882.8125,51.26953125,276.3671875,0.0,0,0
1772036062.959622,1772036062.907385,-33.69140625,-878.90625,-43.45703125,77.63671875,0.0,0,0
1772036062.959666,1772036062.911281,-310.05859375,184.5703125,-157.2265625,-162.109375,0.0,0,0
1772036062.95971,1772036062.915177,-300.29296875,-1000.0,-133.30078125,-154.296875,0.0,0,0
1772036062.959769,1772036062.919073,41.015625,-645.5078125,14.6484375,109.86328125,0.0,0,0
1772036062.959819,1772036062.9229693,204.58984375,746.58203125,42.48046875,239.2578125,0.0,0,0
1772036062.959871,1772036062.9268653,36.1328125,-843.26171875,-19.53125,149.90234375,0.0,0,0
1772036062.9599411,1772036062.9307613,-269.04296875,189.94140625,-126.953125,-83.984375,0.0,0,0
1772036062.9599931,1772036062.9346573,-340.8203125,-1000.0,-148.92578125,-160.15625,0.0,0,0
1772036062.960056,1772036062.9385533,-24.4140625,-668.9453125,12.6953125,62.98828125,0.0,0,0
1772036063.0046751,1772036062.942536,199.70703125,723.6328125,55.6640625,243.1640625,0.0,0,0
1772036063.004779,1772036062.946432,93.26171875,-829.1015625,-19.53125,181.15234375,0.0,0,0
1772036063.004826,1772036062.950328,-233.88671875,160.64453125,-119.62890625,-102.5390625,0.0,0,0
1772036063.004871,1772036062.954224,-317.87109375,-1000.0,-140.625,-209.47265625,0.0,0,0
1772036063.0049138,1772036062.95812,-35.15625,-1000.0,-45.8984375,6.34765625,0.0,0,0
1772036063.004958,1772036062.962016,179.6875,126.46484375,30.76171875,199.70703125,0.0,0,0
1772036063.005002,1772036062.965912,146.97265625,-770.5078125,22.94921875,170.8984375,0.0,0,0
1772036063.005045,1772036062.969808,-171.875,393.5546875,-112.79296875,-108.88671875,0.0,0,0
1772036063.00509,1772036062.973704,-304.6875,-930.6640625,-152.83203125,-200.1953125,0.0,0,0
1772036063.005142,1772036062.9776003,-68.359375,-1000.0,-39.55078125,-15.625,0.0,0,0
1772036063.0052018,1772036062.9814963,143.5546875,-0.9765625,61.03515625,191.40625,0.0,0,0
1772036063.005246,1772036062.9853923,89.84375,-784.1796875,59.5703125,188.96484375,0.0,0,0
1772036063.050292,1772036062.9893668,-235.83984375,353.515625,-73.73046875,-113.76953125,0.0,0,0
1772036063.050497,1772036062.9932628,-328.125,-941.89453125,-136.23046875,-178.22265625,0.0,0,0
1772036063.050581,1772036062.9971588,-102.5390625,-1000.0,-48.33984375,0.9765625,0.0,0,0
1772036063.050647,1772036063.0010548,109.375,-149.4140625,77.1484375,192.3828125,0.0,0,0
1772036063.050713,1772036063.0049508,114.74609375,-915.0390625,74.70703125,207.03125,0.0,0,0
1772036063.050768,1772036063.0088468,-161.1328125,858.3984375,-67.87109375,-33.203125,0.0,0,0
1772036063.050812,1772036063.012743,-359.86328125,-451.171875,-119.62890625,-173.828125,0.0,0,0
1772036063.050855,1772036063.016639,-223.14453125,-1000.0,-58.10546875,-83.49609375,0.0,0,0
1772036063.050897,1772036063.020535,111.328125,-186.5234375,20.99609375,126.953125,0.0,0,0
1772036063.0509398,1772036063.024431,184.5703125,-964.35546875,34.66796875,203.125,0.0,0,0
1772036063.050982,1772036063.028327,-125.0,972.16796875,-61.03515625,3.41796875,0.0,0,0
1772036063.051024,1772036063.032223,-371.09375,-280.76171875,-126.46484375,-210.9375,0.0,0,0
1772036063.109469,1772036063.0362687,-273.4375,-1000.0,-82.03125,-197.265625,0.0,0,0
1772036063.109622,1772036063.040165,115.72265625,-183.10546875,12.6953125,68.84765625,0.0,0,0
1772036063.1096718,1772036063.044061,208.0078125,-972.16796875,41.50390625,170.41015625,0.0,0,0
1772036063.109719,1772036063.047957,-71.77734375,-993.65234375,-45.8984375,-3.90625,0.0,0,0
1772036063.1097758,1772036063.051853,-300.78125,-204.1015625,-138.671875,-208.49609375,0.0,0,0
1772036063.109819,1772036063.055749,-257.32421875,-1000.0,-111.81640625,-185.05859375,0.0,0,0
1772036063.109879,1772036063.0596452,108.3984375,-174.31640625,23.4375,101.07421875,0.0,0,0
1772036063.10993,1772036063.0635412,199.21875,-992.67578125,50.29296875,149.4140625,0.0,0,0
1772036063.109972,1772036063.0674372,-40.0390625,-955.078125,-30.2734375,17.08984375,0.0,0,0
1772036063.1100328,1772036063.0713332,-278.80859375,-32.2265625,-105.95703125,-143.06640625,0.0,0,0
1772036063.110095,1772036063.0752294,-265.13671875,-1000.0,-75.68359375,-181.640625,0.0,0,0
1772036063.110144,1772036063.0791254,49.31640625,-496.09375,51.7578125,39.55078125,0.0,0,0
1772036063.154901,1772036063.0831609,204.58984375,837.890625,70.80078125,171.38671875,0.0,0,0
1772036063.155071,1772036063.087057,49.31640625,-859.86328125,-1.46484375,81.0546875,0.0,0,0
1772036063.1551201,1772036063.090953,-251.46484375,187.98828125,-102.5390625,-124.0234375,0.0,0,0
1772036063.1551669,1772036063.094849,-282.2265625,-1000.0,-114.2578125,-112.79296875,0.0,0,0
1772036063.155213,1772036063.0987453,11.71875,-864.74609375,-5.859375,91.30859375,0.0,0,0
1772036063.155257,1772036063.1026413,133.30078125,475.09765625,49.8046875,156.25,0.0,0,0
1772036063.1552992,1772036063.1065373,25.87890625,-789.55078125,17.578125,97.65625,0.0,0,0
1772036063.155361,1772036063.1104336,-279.296875,141.6015625,-88.37890625,-120.1171875,0.0,0,0
1772036063.155416,1772036063.1143296,-332.51953125,-1000.0,-105.46875,-182.6171875,0.0,0,0
1772036063.155477,1772036063.1182256,-69.82421875,-1000.0,-5.37109375,-4.39453125,0.0,0,0
1772036063.155518,1772036063.1221218,156.25,29.296875,74.21875,141.6015625,0.0,0,0
1772036063.1555781,1772036063.1260178,165.0390625,-770.01953125,42.48046875,153.80859375,0.0,0,0
1772036063.200293,1772036063.1300418,-223.6328125,228.515625,-94.23828125,-105.95703125,0.0,0,0
1772036063.200459,1772036063.1339378,-347.16796875,-1000.0,-101.5625,-212.890625,0.0,0,0
1772036063.20052,1772036063.137834,-46.875,-1000.0,-18.06640625,-41.50390625,0.0,0,0
1772036063.200578,1772036063.14173,182.6171875,3.41796875,53.7109375,153.80859375,0.0,0,0
1772036063.2006369,1772036063.1456263,139.6484375,-807.12890625,58.59375,156.73828125,0.0,0,0
1772036063.2007282,1772036063.1495223,-176.26953125,574.70703125,-82.03125,-75.1953125,0.0,0,0
1772036063.2008011,1772036063.1534183,-291.9921875,-771.484375,-128.41796875,-177.734375,0.0,0,0
1772036063.200844,1772036063.1573145,-104.00390625,-1000.0,-61.03515625,-71.77734375,0.0,0,0
1772036063.20089,1772036063.1612105,174.31640625,-219.7265625,38.0859375,115.72265625,0.0,0,0
1772036063.200934,1772036063.1651068,208.984375,-897.94921875,50.29296875,150.390625,0.0,0,0
1772036063.2009852,1772036063.1690028,-118.1640625,733.3984375,-82.03125,-49.31640625,0.0,0,0
1772036063.201036,1772036063.1728988,-296.38671875,-645.5078125,-109.375,-193.359375,0.0,0,0
1772036063.244663,1772036063.176912,-118.65234375,-1000.0,-54.6875,-74.21875,0.0,0,0
1772036063.244828,1772036063.1808083,175.78125,-169.43359375,28.3203125,158.69140625,0.0,0,0
1772036063.2448761,1772036063.1847043,195.80078125,-979.4921875,37.59765625,172.36328125,0.0,0,0
1772036063.2449229,1772036063.1886005,-51.26953125,-977.5390625,-83.49609375,-1.953125,0.0,0,0
1772036063.2449658,1772036063.1924965,-250.9765625,-274.90234375,-123.046875,-149.90234375,0.0,0,0
1772036063.24501,1772036063.1963925,-108.88671875,-1000.0,-36.62109375,-80.078125,0.0,0,0
1772036063.2450519,1772036063.2002888,192.3828125,212.890625,58.10546875,136.23046875,0.0,0,0
1772036063.245095,1772036063.2041848,225.5859375,-911.1328125,41.9921875,173.828125,0.0,0,0
1772036063.245137,1772036063.208081,-7.32421875,956.54296875,-55.17578125,7.8125,0.0,0,0
1772036063.24518,1772036063.211977,-244.62890625,-151.85546875,-143.06640625,-198.73046875,0.0,0,0
1772036063.245229,1772036063.2158732,-169.43359375,-1000.0,-106.4453125,-163.57421875,0.0,0,0
1772036063.245271,1772036063.2197692,135.25390625,-476.5625,19.04296875,42.96875,0.0,0,0
1772036063.289762,1772036063.2237735,226.5625,871.58203125,32.71484375,84.47265625,0.0,0,0
1772036063.2899232,1772036063.2276697,-0.48828125,-896.484375,-45.41015625,-32.71484375,0.0,0,0
1772036063.28997,1772036063.2315657,-252.9296875,-65.4296875,-138.18359375,-187.98828125,0.0,0,0
1772036063.290015,1772036063.235462,-262.20703125,-1000.0,-129.8828125,-216.30859375,0.0,0,0
1772036063.290058,1772036063.2393582,3.90625,-810.546875,-12.20703125,-35.15625,0.0,0,0
1772036063.290102,1772036063.2432542,212.890625,489.2578125,11.71875,95.703125,0.0,0,0
1772036063.290165,1772036063.2471504,48.828125,-793.45703125,-36.1328125,3.41796875,0.0,0,0
1772036063.290217,1772036063.2510464,-279.78515625,147.4609375,-146.97265625,-220.21484375,0.0,0,0
1772036063.290268,1772036063.2549427,-267.08984375,-1000.0,-155.2734375,-256.34765625,0.0,0,0
1772036063.29031,1772036063.2588387,20.99609375,-1000.0,-26.3671875,-69.3359375,0.0,0,0
1772036063.2903712,1772036063.262735,189.94140625,240.72265625,29.296875,78.61328125,0.0,0,0
1772036063.29042,1772036063.266631,73.2421875,-770.99609375,-28.80859375,16.11328125,0.0,0,0
1772036063.335238,1772036063.2706249,-259.765625,156.73828125,-152.34375,-217.28515625,0.0,0,0
1772036063.33537,1772036063.274521,-329.1015625,-1000.0,-149.4140625,-255.859375,0.0,0,0
1772036063.335433,1772036063.278417,-21.97265625,-1000.0,-35.64453125,-48.828125,0.0,0,0
1772036063.3354912,1772036063.2823133,204.58984375,197.265625,-1.46484375,101.5625,0.0,0,0
1772036063.33555,1772036063.2862093,120.60546875,-764.16015625,-17.578125,42.48046875,0.0,0,0
1772036063.3356092,1772036063.2901056,-204.1015625,269.04296875,-117.67578125,-175.29296875,0.0,0,0
1772036063.33567,1772036063.2940018,-307.6171875,-968.26171875,-167.48046875,-220.703125,0.0,0,0
1772036063.335747,1772036063.2978978,-93.75,-1000.0,-66.89453125,-80.078125,0.0,0,0
1772036063.335802,1772036063.301794,161.62109375,-125.9765625,18.06640625,72.265625,0.0,0,0
1772036063.335881,1772036063.3056903,166.50390625,-802.734375,9.765625,78.61328125,0.0,0,0
1772036063.335938,1772036063.3095863,-169.921875,399.90234375,-104.98046875,-130.37109375,0.0,0,0
1772036063.3360052,1772036063.3134825,-311.5234375,-930.6640625,-156.73828125,-215.33203125,0.0,0,0
1772036063.4094331,1772036063.3176243,-89.35546875,-1000.0,-79.1015625,-107.91015625,0.0,0,0
1772036063.409577,1772036063.3215206,195.3125,-197.75390625,23.92578125,87.890625,0.0,0,0
1772036063.409624,1772036063.3254166,211.42578125,-837.40234375,40.0390625,137.20703125,0.0,0,0
1772036063.4096699,1772036063.3293128,-126.46484375,521.97265625,-85.9375,-103.515625,0.0,0,0
1772036063.4097128,1772036063.333209,-301.26953125,-861.328125,-140.13671875,-238.76953125,0.0,0,0
1772036063.4097579,1772036063.3371053,-124.0234375,-1000.0,-57.12890625,-114.2578125,0.0,0,0
1772036063.409812,1772036063.3410013,170.8984375,-227.5390625,34.1796875,66.40625,0.0,0,0
1772036063.409871,1772036063.3448975,231.93359375,-888.671875,24.90234375,92.7734375,0.0,0,0
1772036063.4099221,1772036063.3487937,-66.40625,692.87109375,-61.5234375,-83.0078125,0.0,0,0
1772036063.409963,1772036063.35269,-293.45703125,-681.15234375,-110.3515625,-233.88671875,0.0,0,0
1772036063.4100091,1772036063.356586,-190.91796875,-1000.0,-82.51953125,-191.40625,0.0,0,0
1772036063.410069,1772036063.3604822,146.97265625,-276.85546875,11.23046875,47.8515625,0.0,0,0
1772036063.425229,1772036063.3644614,279.296875,954.58984375,62.01171875,165.52734375,0.0,0,0
1772036063.425335,1772036063.3683577,-17.578125,-928.22265625,-32.71484375,-27.34375,0.0,0,0
1772036063.425398,1772036063.372254,-341.796875,-43.9453125,-137.6953125,-223.14453125,0.0,0,0
1772036063.425458,1772036063.3761501,-220.703125,-1000.0,-104.98046875,-177.24609375,0.0,0,0
1772036063.425518,1772036063.3800461,170.8984375,-298.33984375,16.6015625,56.640625,0.0,0,0
1772036063.425581,1772036063.3839424,233.3984375,975.5859375,41.50390625,118.1640625,0.0,0,0
1772036063.425645,1772036063.3878386,13.671875,-939.94140625,-41.015625,-1.953125,0.0,0,0
1772036063.4257019,1772036063.3917348,-266.11328125,-51.7578125,-147.4609375,-197.75390625,0.0,0,0
1772036063.425754,1772036063.395631,-272.4609375,-1000.0,-137.20703125,-224.609375,0.0,0,0
1772036063.425796,1772036063.3995273,92.7734375,-553.22265625,18.5546875,33.69140625,0.0,0,0
1772036063.425847,1772036063.4034233,248.046875,792.96875,75.68359375,161.62109375,0.0,0,0
1772036063.425898,1772036063.4073195,70.80078125,-852.5390625,-25.87890625,38.0859375,0.0,0,0
1772036063.484416,1772036063.4112825,-245.1171875,165.0390625,-147.4609375,-191.40625,0.0,0,0
1772036063.4845738,1772036063.4151788,-294.921875,-1000.0,-146.97265625,-222.65625,0.0,0,0
1772036063.484633,1772036063.419075,46.38671875,-747.0703125,-21.97265625,0.0,0.0,0,0
1772036063.484691,1772036063.4229712,260.25390625,614.2578125,42.48046875,127.9296875,0.0,0,0
1772036063.48475,1772036063.4268675,121.58203125,-809.5703125,-20.99609375,74.21875,0.0,0,0
1772036063.484809,1772036063.4307637,-220.703125,245.1171875,-123.046875,-141.6015625,0.0,0,0
1772036063.484868,1772036063.4346597,-282.2265625,-994.140625,-144.04296875,-238.28125,0.0,0,0
1772036063.484926,1772036063.438556,-13.671875,-1000.0,-49.31640625,-62.5,0.0,0,0
1772036063.484999,1772036063.4424522,220.703125,82.03125,40.52734375,145.5078125,0.0,0,0
1772036063.4850738,1772036063.4463484,176.26953125,-770.01953125,2.9296875,128.41796875,0.0,0,0
1772036063.4851332,1772036063.4502447,-218.75,158.69140625,-117.67578125,-174.31640625,0.0,0,0
1772036063.48519,1772036063.454141,-332.03125,-1000.0,-141.6015625,-250.48828125,0.0,0,0
1772036063.5297248,1772036063.4581745,-35.15625,-1000.0,-54.19921875,-58.10546875,0.0,0,0
1772036063.5298932,1772036063.4620707,254.39453125,-13.671875,43.45703125,159.66796875,0.0,0,0
1772036063.529941,1772036063.465967,235.3515625,-780.76171875,20.99609375,194.82421875,0.0,0,0
1772036063.529985,1772036063.4698632,-188.4765625,414.55078125,-116.69921875,-104.00390625,0.0,0,0
1772036063.53003,1772036063.4737594,-351.5625,-914.55078125,-166.015625,-248.046875,0.0,0,0
1772036063.530088,1772036063.4776556,-85.44921875,-1000.0,-91.30859375,-80.078125,0.0,0,0
1772036063.5301309,1772036063.481552,204.58984375,-131.34765625,9.765625,150.87890625,0.0,0,0
1772036063.530182,1772036063.4854481,242.67578125,-816.89453125,5.37109375,206.0546875,0.0,0,0
1772036063.530224,1772036063.4893444,-139.6484375,467.7734375,-126.953125,-71.2890625,0.0,0,0
1772036063.530266,1772036063.4932406,-337.40234375,-888.671875,-171.38671875,-249.51171875,0.0,0,0
1772036063.530327,1772036063.4971366,-122.55859375,-1000.0,-93.26171875,-130.37109375,0.0,0,0
1772036063.530368,1772036063.5010328,192.87109375,-213.37890625,-1.46484375,131.34765625,0.0,0,0
1772036063.574518,1772036063.5050545,248.53515625,-938.96484375,43.9453125,189.94140625,0.0,0,0
1772036063.574621,1772036063.5089507,-86.9140625,880.37109375,-75.1953125,-47.36328125,0.0,0,0
1772036063.574672,1772036063.5128472,-329.1015625,-438.96484375,-180.17578125,-197.265625,0.0,0,0
1772036063.574931,1772036063.5167434,-198.2421875,-1000.0,-115.72265625,-126.46484375,0.0,0,0
1772036063.574977,1772036063.5206397,178.7109375,-169.921875,15.13671875,148.92578125,0.0,0,0
1772036063.5750191,1772036063.524536,276.3671875,-999.0234375,54.19921875,236.81640625,0.0,0,0
1772036063.575062,1772036063.5284321,-30.2734375,-954.1015625,-64.453125,29.296875,0.0,0,0
1772036063.575103,1772036063.5323284,-314.453125,-50.78125,-188.4765625,-200.68359375,0.0,0,0
1772036063.575148,1772036063.5362246,-256.8359375,-1000.0,-156.25,-184.5703125,0.0,0,0
1772036063.5751948,1772036063.5401208,151.85546875,-348.14453125,-1.46484375,123.046875,0.0,0,0
1772036063.575238,1772036063.544017,290.0390625,921.875,47.8515625,248.046875,0.0,0,0
1772036063.575279,1772036063.5479133,28.80859375,-894.04296875,-48.33984375,62.5,0.0,0,0
1772036063.6200519,1772036063.5519254,-289.0625,161.62109375,-178.7109375,-227.5390625,0.0,0,0
1772036063.6201742,1772036063.5558217,-278.80859375,-1000.0,-166.015625,-262.6953125,0.0,0,0
1772036063.620239,1772036063.559718,122.0703125,-791.9921875,-15.13671875,55.17578125,0.0,0,0
1772036063.6203,1772036063.5636141,314.453125,567.3828125,45.41015625,219.23828125,0.0,0,0
1772036063.62036,1772036063.5675104,122.0703125,-810.05859375,-21.484375,79.1015625,0.0,0,0
1772036063.620419,1772036063.5714066,-268.5546875,178.7109375,-139.6484375,-243.65234375,0.0,0,0
1772036063.620487,1772036063.5753028,-312.01171875,-1000.0,-148.4375,-282.2265625,0.0,0,0
1772036063.620545,1772036063.579199,95.703125,-834.9609375,1.46484375,43.45703125,0.0,0,0
1772036063.620615,1772036063.5830953,301.7578125,519.04296875,63.96484375,228.515625,0.0,0,0
1772036063.620672,1772036063.5869915,156.73828125,-800.78125,11.23046875,137.20703125,0.0,0,0
1772036063.620735,1772036063.590888,-251.953125,162.109375,-115.72265625,-191.89453125,0.0,0,0
1772036063.6207979,1772036063.5947843,-375.48828125,-1000.0,-146.484375,-276.85546875,0.0,0,0
1772036063.7105439,1772036063.5987885,-17.578125,-966.796875,0.0,1.953125,0.0,0,0
1772036063.710697,1772036063.6026847,245.1171875,296.38671875,92.28515625,226.07421875,0.0,0,0
1772036063.710762,1772036063.6065812,170.8984375,-771.97265625,34.1796875,181.640625,0.0,0,0
1772036063.7108212,1772036063.6104774,-246.09375,258.30078125,-125.0,-169.43359375,0.0,0,0
1772036063.710881,1772036063.6143737,-397.94921875,-990.72265625,-172.8515625,-303.7109375,0.0,0,0
1772036063.7109408,1772036063.61827,-67.87109375,-1000.0,-47.36328125,-79.1015625,0.0,0,0
1772036063.710998,1772036063.6221662,271.484375,39.55078125,53.7109375,187.98828125,0.0,0,0
1772036063.711055,1772036063.6260624,226.07421875,-770.5078125,13.18359375,181.640625,0.0,0,0
1772036063.711113,1772036063.6299589,-257.32421875,208.49609375,-150.87890625,-202.1484375,0.0,0,0
1772036063.7111712,1772036063.633855,-409.1796875,-997.0703125,-192.87109375,-329.58984375,0.0,0,0
1772036063.7112288,1772036063.6377513,-127.9296875,-1000.0,-85.9375,-100.5859375,0.0,0,0
1772036063.711286,1772036063.6416476,227.05078125,-201.66015625,42.48046875,200.68359375,0.0,0,0
1772036063.71299,1772036063.645661,266.6015625,-848.6328125,42.48046875,238.76953125,0.0,0,0
1772036063.713075,1772036063.6495574,-166.50390625,609.86328125,-117.1875,-98.14453125,0.0,0,0
1772036063.713185,1772036063.6534536,-404.296875,-774.90234375,-187.01171875,-297.36328125,0.0,0,0
1772036063.713225,1772036063.65735,-171.38671875,-1000.0,-107.91015625,-137.6953125,0.0,0,0
1772036063.71326,1772036063.6612463,241.69921875,-206.0546875,31.25,207.03125,0.0,0,0
1772036063.713294,1772036063.6651425,326.171875,-937.5,63.96484375,278.3203125,0.0,0,0
1772036063.7133372,1772036063.6690388,-86.9140625,872.55859375,-85.44921875,-53.22265625,0.0,0,0
1772036063.7133708,1772036063.672935,-409.66796875,-450.68359375,-206.0546875,-310.05859375,0.0,0,0
1772036063.713411,1772036063.6768315,-251.953125,-1000.0,-143.5546875,-209.47265625,0.0,0,0
1772036063.7134552,1772036063.6807277,206.54296875,-184.08203125,34.1796875,168.9453125,0.0,0,0
1772036063.7134879,1772036063.684624,332.03125,-970.703125,78.61328125,279.296875,0.0,0,0
1772036063.713521,1772036063.6885202,-9.27734375,988.28125,-70.3125,-7.32421875,0.0,0,0
1772036063.768356,1772036063.6925032,-372.55859375,-245.1171875,-178.7109375,-302.24609375,0.0,0,0
1772036063.7684999,1772036063.6963995,-291.015625,-1000.0,-129.39453125,-250.48828125,0.0,0,0
1772036063.768563,1772036063.7002957,222.16796875,-212.40234375,38.57421875,164.55078125,0.0,0,0
1772036063.768623,1772036063.7041922,370.1171875,976.5625,84.47265625,276.85546875,0.0,0,0
1772036063.768682,1772036063.7080884,65.4296875,-924.8046875,-37.109375,46.38671875,0.0,0,0
1772036063.7687411,1772036063.7119846,-329.1015625,64.453125,-163.0859375,-266.11328125,0.0,0,0
1772036063.768807,1772036063.715881,-329.1015625,-1000.0,-139.6484375,-279.296875,0.0,0,0
1772036063.7688708,1772036063.7197773,184.08203125,-372.0703125,26.85546875,97.16796875,0.0,0,0
1772036063.76895,1772036063.7236736,363.28125,921.875,66.89453125,256.34765625,0.0,0,0
1772036063.769006,1772036063.7275698,105.46875,-890.625,-18.06640625,107.421875,0.0,0,0
1772036063.7690701,1772036063.7314663,-303.22265625,172.36328125,-162.59765625,-253.41796875,0.0,0,0
1772036063.7691362,1772036063.7353625,-383.7890625,-1000.0,-175.78125,-330.56640625,0.0,0,0
1772036063.813271,1772036063.739336,88.8671875,-871.58203125,15.13671875,66.89453125,0.0,0,0
1772036063.813451,1772036063.7432323,372.55859375,458.49609375,88.8671875,292.48046875,0.0,0,0
1772036063.813517,1772036063.7471285,205.078125,-796.875,14.6484375,177.24609375,0.0,0,0
1772036063.81358,1772036063.751025,-281.25,180.17578125,-146.484375,-211.9140625,0.0,0,0
1772036063.813641,1772036063.7549212,-420.41015625,-1000.0,-193.84765625,-321.77734375,0.0,0,0
1772036063.8137002,1772036063.7588174,25.390625,-817.3828125,-23.4375,27.83203125,0.0,0,0
1772036063.813758,1772036063.762714,341.30859375,543.9453125,84.47265625,282.2265625,0.0,0,0
1772036063.813835,1772036063.7666101,204.58984375,-799.31640625,31.25,198.2421875,0.0,0,0
1772036063.81392,1772036063.7705064,-277.34375,145.99609375,-139.6484375,-203.61328125,0.0,0,0
1772036063.813997,1772036063.7744029,-432.12890625,-1000.0,-202.63671875,-354.98046875,0.0,0,0
1772036063.814053,1772036063.778299,-87.890625,-1000.0,-62.98828125,-67.3828125,0.0,0,0
1772036063.814108,1772036063.7821953,282.2265625,79.1015625,73.2421875,253.90625,0.0,0,0
1772036063.859647,1772036063.7861571,266.11328125,-765.625,46.875,237.3046875,0.0,0,0
1772036063.8598158,1772036063.7900534,-249.51171875,325.1953125,-142.578125,-184.08203125,0.0,0,0
1772036063.859877,1772036063.7939498,-464.35546875,-952.63671875,-188.4765625,-331.0546875,0.0,0,0
1772036063.859937,1772036063.797846,-135.7421875,-1000.0,-54.19921875,-78.61328125,0.0,0,0
1772036063.859997,1772036063.8017423,309.5703125,-108.88671875,78.61328125,237.79296875,0.0,0,0
1772036063.8600562,1772036063.8056388,374.0234375,-836.9140625,81.0546875,289.0625,0.0,0,0
1772036063.860115,1772036063.809535,-119.140625,623.046875,-89.84375,-113.28125,0.0,0,0
1772036063.860172,1772036063.8134313,-400.87890625,-746.09375,-175.78125,-358.3984375,0.0,0,0
1772036063.860236,1772036063.8173277,-166.50390625,-1000.0,-88.37890625,-158.203125,0.0,0,0
1772036063.8602922,1772036063.821224,269.53125,-220.703125,64.453125,249.51171875,0.0,0,0
1772036063.8603609,1772036063.8251204,351.5625,-890.625,91.30859375,357.421875,0.0,0,0
1772036063.860474,1772036063.8290167,-95.21484375,706.0546875,-70.3125,-20.01953125,0.0,0,0
1772036063.905134,1772036063.8330486,-440.91796875,-678.22265625,-188.96484375,-322.75390625,0.0,0,0
1772036063.9052951,1772036063.836945,-252.44140625,-1000.0,-104.00390625,-179.19921875,0.0,0,0
1772036063.905356,1772036063.8408413,262.20703125,-184.5703125,86.9140625,277.34375,0.0,0,0
1772036063.905418,1772036063.8447375,389.6484375,-979.4921875,116.69921875,398.92578125,0.0,0,0
1772036063.905478,1772036063.848634,-16.6015625,992.1875,-51.26953125,59.5703125,0.0,0,0
1772036063.905535,1772036063.8525302,-428.7109375,-210.9375,-198.73046875,-306.15234375,0.0,0,0
1772036063.905594,1772036063.8564267,-326.66015625,-1000.0,-151.3671875,-255.859375,0.0,0,0
1772036063.905911,1772036063.860323,235.83984375,-364.74609375,35.64453125,190.4296875,0.0,0,0
1772036063.905973,1772036063.8642194,421.38671875,932.12890625,90.33203125,345.21484375,0.0,0,0
1772036063.906032,1772036063.8681157,121.58203125,-920.41015625,-28.80859375,96.6796875,0.0,0,0
1772036063.906102,1772036063.8720121,-272.94921875,-57.12890625,-179.19921875,-267.08984375,0.0,0,0
1772036063.9061592,1772036063.8759084,-259.765625,-1000.0,-156.73828125,-253.41796875,0.0,0,0
1772036063.9493902,1772036063.8799298,260.25390625,-399.90234375,47.36328125,192.87109375,0.0,0,0
1772036063.9495199,1772036063.8838263,457.51953125,894.53125,107.421875,342.7734375,0.0,0,0
1772036063.949564,1772036063.8877225,197.265625,-883.30078125,10.7421875,145.99609375,0.0,0,0
1772036063.9496078,1772036063.891619,-286.62109375,188.4765625,-167.96875,-251.46484375,0.0,0,0
1772036063.949652,1772036063.8955152,-381.34765625,-1000.0,-190.4296875,-352.5390625,0.0,0,0
1772036063.949694,1772036063.8994117,135.7421875,-689.453125,12.20703125,59.5703125,0.0,0,0
1772036063.9497359,1772036063.903308,444.82421875,699.70703125,89.84375,316.89453125,0.0,0,0
1772036063.949787,1772036063.9072044,251.46484375,-829.58984375,33.69140625,184.08203125,0.0,0,0
1772036063.9498408,1772036063.9111006,-292.48046875,172.36328125,-134.765625,-250.9765625,0.0,0,0
1772036063.949898,1772036063.914997,-422.36328125,-1000.0,-181.640625,-388.18359375,0.0,0,0
1772036063.9499571,1772036063.9188933,67.87109375,-917.96875,-6.34765625,-31.73828125,0.0,0,0
1772036063.950017,1772036063.9227898,418.45703125,381.8359375,97.65625,290.0390625,0.0,0,0
1772036064.0094101,1772036063.9268782,293.45703125,-778.80859375,44.921875,237.79296875,0.0,0,0
1772036064.0095239,1772036063.9307747,-250.48828125,257.8125,-141.11328125,-229.98046875,0.0,0,0
1772036064.0095732,1772036063.9346712,-426.7578125,-992.67578125,-200.1953125,-402.83203125,0.0,0,0
1772036064.009619,1772036063.9385674,-23.4375,-1000.0,-35.64453125,-56.640625,0.0,0,0
1772036064.009662,1772036063.9424639,395.5078125,66.40625,112.3046875,305.17578125,0.0,0,0
1772036064.009705,1772036063.9463603,381.8359375,-768.5546875,101.5625,320.80078125,0.0,0,0
1772036064.009748,1772036063.9502566,-221.19140625,303.22265625,-109.86328125,-168.45703125,0.0,0,0
1772036064.009791,1772036063.954153,-498.53515625,-959.9609375,-199.70703125,-405.2734375,0.0,0,0
1772036064.0098538,1772036063.9580495,-146.484375,-1000.0,-69.3359375,-134.27734375,0.0,0,0
1772036064.0098948,1772036063.9619458,339.84375,-161.1328125,90.33203125,254.39453125,0.0,0,0
1772036064.0099368,1772036063.9658422,380.859375,-818.359375,96.19140625,319.3359375,0.0,0,0
1772036064.0099788,1772036063.9697387,-201.66015625,471.19140625,-119.62890625,-145.5078125,0.0,0,0
1772036064.04025,1772036063.9737403,-499.51171875,-889.6484375,-201.171875,-400.87890625,0.0,0,0
1772036064.040422,1772036063.9776368,-212.890625,-1000.0,-90.33203125,-196.2890625,0.0,0,0
1772036064.0404868,1772036063.981533,279.78515625,-233.3984375,63.4765625,194.82421875,0.0,0,0
1772036064.040559,1772036063.9854295,380.859375,-879.8828125,98.6328125,293.45703125,0.0,0,0
1772036064.040632,1772036063.989326,-112.79296875,667.96875,-93.26171875,-114.2578125,0.0,0,0
1772036064.040704,1772036063.9932225,-481.4453125,-726.07421875,-210.44921875,-452.1484375,0.0,0,0
1772036064.0407732,1772036063.9971187,-293.9453125,-1000.0,-136.23046875,-303.22265625,0.0,0,0
1772036064.04084,1772036064.0010152,251.953125,-179.6875,41.50390625,185.546875,0.0,0,0
1772036064.0408971,1772036064.0049117,394.04296875,-994.140625,97.16796875,340.8203125,0.0,0,0
1772036064.0409548,1772036064.008808,-19.53125,-969.23828125,-52.24609375,20.5078125,0.0,0,0
1772036064.0410318,1772036064.0127044,-461.42578125,-136.71875,-198.73046875,-375.0,0.0,0,0
1772036064.041107,1772036064.0166008,-378.90625,-1000.0,-165.52734375,-324.21875,0.0,0,0
1772036064.084411,1772036064.0205925,235.83984375,-233.3984375,45.41015625,189.94140625,0.0,0,0
1772036064.084567,1772036064.0244887,427.734375,988.76953125,116.2109375,366.69921875,0.0,0,0
1772036064.0846138,1772036064.0283852,47.8515625,-934.5703125,-19.53125,79.58984375,0.0,0,0
1772036064.084658,1772036064.0322816,-431.15234375,-29.78515625,-179.19921875,-363.28125,0.0,0,0
1772036064.0847008,1772036064.036178,-415.52734375,-1000.0,-165.0390625,-418.45703125,0.0,0,0
1772036064.084743,1772036064.0400743,208.984375,-280.76171875,63.96484375,106.93359375,0.0,0,0
1772036064.084786,1772036064.0439708,453.61328125,959.9609375,141.6015625,349.609375,0.0,0,0
1772036064.084828,1772036064.0478673,142.578125,-914.0625,13.18359375,117.67578125,0.0,0,0
1772036064.0848699,1772036064.0517638,-370.1171875,123.53515625,-175.78125,-351.5625,0.0,0,0
1772036064.0849202,1772036064.0556602,-476.07421875,-1000.0,-187.5,-449.21875,0.0,0,0
1772036064.08498,1772036064.0595565,86.42578125,-649.4140625,37.109375,70.3125,0.0,0,0
1772036064.085021,1772036064.063453,451.66015625,726.5625,142.08984375,383.30078125,0.0,0,0
1772036064.129487,1772036064.0674338,221.19140625,-835.9375,51.7578125,209.9609375,0.0,0,0
1772036064.129594,1772036064.0713303,-364.2578125,184.08203125,-152.83203125,-299.8046875,0.0,0,0
1772036064.129653,1772036064.0752268,-505.37109375,-1000.0,-200.68359375,-456.54296875,0.0,0,0
1772036064.1297102,1772036064.0791233,22.94921875,-826.171875,6.8359375,-8.30078125,0.0,0,0
1772036064.1297731,1772036064.0830197,407.2265625,523.92578125,135.25390625,319.3359375,0.0,0,0
1772036064.1298282,1772036064.0869162,275.390625,-793.45703125,76.66015625,210.44921875,0.0,0,0
1772036064.1298711,1772036064.0908124,-304.19921875,195.80078125,-118.65234375,-289.0625,0.0,0,0
1772036064.129913,1772036064.094709,-519.04296875,-1000.0,-190.91796875,-490.72265625,0.0,0,0
1772036064.129955,1772036064.0986054,-83.0078125,-1000.0,-34.66796875,-140.625,0.0,0,0
1772036064.129996,1772036064.1025019,400.87890625,-17.08984375,127.44140625,269.53125,0.0,0,0
1772036064.1300428,1772036064.1063983,374.0234375,-775.87890625,100.09765625,267.578125,0.0,0,0
1772036064.1301,1772036064.1102948,-285.15625,228.515625,-129.8828125,-257.32421875,0.0,0,0
1772036064.188127,1772036064.1142664,-541.9921875,-1000.0,-207.03125,-486.81640625,0.0,0,0
1772036064.18828,1772036064.1181629,-154.296875,-1000.0,-62.98828125,-191.89453125,0.0,0,0
1772036064.1883452,1772036064.122059,334.47265625,-100.5859375,122.0703125,251.46484375,0.0,0,0
1772036064.18841,1772036064.1259556,395.5078125,-803.22265625,130.37109375,310.546875,0.0,0,0
1772036064.188479,1772036064.129852,-187.01171875,482.421875,-96.19140625,-200.1953125,0.0,0,0
1772036064.188542,1772036064.1337485,-508.30078125,-873.53515625,-195.3125,-494.62890625,0.0,0,0
1772036064.1886,1772036064.137645,-202.63671875,-1000.0,-94.23828125,-279.296875,0.0,0,0
1772036064.188669,1772036064.1415415,360.83984375,-220.21484375,80.56640625,226.07421875,0.0,0,0
1772036064.188736,1772036064.145438,487.3046875,-899.90234375,107.91015625,380.859375,0.0,0,0
1772036064.188813,1772036064.1493344,-74.70703125,747.0703125,-94.7265625,-80.56640625,0.0,0,0
1772036064.188889,1772036064.1532307,-480.95703125,-626.46484375,-217.7734375,-430.17578125,0.0,0,0
1772036064.188975,1772036064.1571271,-274.4140625,-1000.0,-130.859375,-257.8125,0.0,0,0
1772036064.234858,1772036064.161089,296.38671875,-190.4296875,72.265625,244.62890625,0.0,0,0
1772036064.235019,1772036064.1649854,459.9609375,-962.40234375,135.7421875,413.0859375,0.0,0,0
1772036064.235083,1772036064.168882,2.44140625,954.58984375,-35.64453125,49.31640625,0.0,0,0
1772036064.235144,1772036064.1727784,-481.93359375,-312.5,-205.56640625,-392.08984375,0.0,0,0
1772036064.235204,1772036064.1766748,-393.06640625,-1000.0,-148.4375,-347.16796875,0.0,0,0
1772036064.235262,1772036064.1805713,224.609375,-175.78125,74.70703125,203.61328125,0.0,0,0
1772036064.23532,1772036064.1844678,429.6875,-987.3046875,139.6484375,397.4609375,0.0,0,0
1772036064.235379,1772036064.1883643,48.828125,-971.6796875,-9.27734375,68.84765625,0.0,0,0
1772036064.2354372,1772036064.1922607,-475.5859375,-109.86328125,-208.0078125,-410.64453125,0.0,0,0
1772036064.235496,1772036064.1961572,-458.49609375,-1000.0,-194.3359375,-433.59375,0.0,0,0
1772036064.235744,1772036064.2000535,187.5,-495.1171875,47.36328125,117.1875,0.0,0,0
1772036064.2358148,1772036064.20395,463.8671875,837.40234375,131.8359375,365.72265625,0.0,0,0
1772036064.3094022,1772036064.208133,163.57421875,-866.2109375,4.39453125,117.1875,0.0,0,0
1772036064.309553,1772036064.2120295,-401.85546875,135.7421875,-191.89453125,-370.1171875,0.0,0,0
1772036064.309603,1772036064.215926,-484.86328125,-1000.0,-208.49609375,-465.8203125,0.0,0,0
1772036064.3096478,1772036064.2198224,106.93359375,-721.19140625,9.27734375,39.55078125,0.0,0,0
1772036064.3096929,1772036064.223719,449.21875,650.390625,130.37109375,359.375,0.0,0,0
1772036064.30974,1772036064.2276156,250.48828125,-819.3359375,58.10546875,205.078125,0.0,0,0
1772036064.3097851,1772036064.231512,-353.02734375,163.57421875,-164.0625,-334.9609375,0.0,0,0
1772036064.309856,1772036064.2354085,-535.64453125,-1000.0,-215.33203125,-484.375,0.0,0,0
1772036064.3099148,1772036064.239305,1.953125,-980.46875,-12.6953125,-20.01953125,0.0,0,0
1772036064.309957,1772036064.2432015,411.62109375,289.0625,124.51171875,342.7734375,0.0,0,0
1772036064.310018,1772036064.247098,277.83203125,-770.01953125,70.3125,279.296875,0.0,0,0
1772036064.310078,1772036064.2509944,-308.10546875,141.6015625,-146.97265625,-249.0234375,0.0,0,0
1772036064.3250701,1772036064.255018,-515.13671875,-1000.0,-217.7734375,-457.03125,0.0,0,0
1772036064.325183,1772036064.2589147,-104.00390625,-1000.0,-52.24609375,-93.26171875,0.0,0,0
1772036064.3252459,1772036064.2628112,348.14453125,-0.48828125,113.76953125,332.51953125,0.0,0,0
1772036064.325309,1772036064.2667077,334.47265625,-773.4375,93.26171875,336.9140625,0.0,0,0
1772036064.325376,1772036064.2706041,-275.87890625,319.82421875,-138.671875,-224.609375,0.0,0,0
1772036064.3254468,1772036064.2745006,-539.0625,-969.23828125,-229.00390625,-477.5390625,0.0,0,0
1772036064.325506,1772036064.278397,-165.52734375,-1000.0,-87.890625,-169.43359375,0.0,0,0
1772036064.325571,1772036064.2822938,324.21875,-78.61328125,88.8671875,293.9453125,0.0,0,0
1772036064.3256278,1772036064.2861903,383.30078125,-804.6875,101.07421875,371.58203125,0.0,0,0
1772036064.325697,1772036064.2900867,-209.47265625,488.76953125,-121.09375,-156.73828125,0.0,0,0
1772036064.325755,1772036064.2939832,-557.12890625,-868.65234375,-221.6796875,-468.26171875,0.0,0,0
1772036064.325842,1772036064.2978797,-265.625,-1000.0,-99.609375,-244.140625,0.0,0,0
1772036064.3694348,1772036064.301889,290.0390625,-214.84375,102.05078125,255.859375,0.0,0,0
1772036064.3695402,1772036064.3057857,419.921875,-883.7890625,134.27734375,388.671875,0.0,0,0
1772036064.3695848,1772036064.3096821,-118.1640625,691.40625,-76.171875,-73.73046875,0.0,0,0
1772036064.369627,1772036064.3135786,-520.01953125,-692.87109375,-203.61328125,-448.73046875,0.0,0,0
1772036064.36967,1772036064.317475,-303.22265625,-1000.0,-123.046875,-305.6640625,0.0,0,0
1772036064.369712,1772036064.3213718,289.0625,-194.82421875,97.16796875,231.4453125,0.0,0,0
1772036064.3697531,1772036064.3252683,436.03515625,-957.03125,142.08984375,388.671875,0.0,0,0
1772036064.369796,1772036064.3291647,-25.390625,935.546875,-56.15234375,-4.8828125,0.0,0,0
1772036064.369837,1772036064.3330612,-480.95703125,-342.7734375,-208.984375,-426.26953125,0.0,0,0
1772036064.369879,1772036064.336958,-373.53515625,-1000.0,-145.5078125,-355.95703125,0.0,0,0
1772036064.369921,1772036064.3408544,244.62890625,-194.3359375,80.078125,203.125,0.0,0,0
1772036064.3699799,1772036064.344751,442.3828125,990.72265625,141.11328125,397.94921875,0.0,0,0
1772036064.4145558,1772036064.3487504,86.42578125,-945.3125,-8.30078125,86.9140625,0.0,0,0
1772036064.414658,1772036064.3526468,-402.34375,-20.99609375,-195.3125,-374.0234375,0.0,0,0
1772036064.414706,1772036064.3565435,-414.55078125,-1000.0,-190.91796875,-411.1328125,0.0,0,0
1772036064.4147542,1772036064.36044,189.94140625,-431.640625,44.43359375,145.99609375,0.0,0,0
1772036064.414797,1772036064.3643365,446.77734375,879.39453125,122.55859375,396.97265625,0.0,0,0
1772036064.414849,1772036064.3682332,158.203125,-875.48828125,13.671875,140.625,0.0,0,0
1772036064.4149,1772036064.3721297,-363.28125,195.80078125,-170.8984375,-329.1015625,0.0,0,0
1772036064.414942,1772036064.3760262,-461.9140625,-1000.0,-216.796875,-446.2890625,0.0,0,0
1772036064.415002,1772036064.3799229,84.47265625,-789.0625,-8.7890625,25.390625,0.0,0,0
1772036064.415052,1772036064.3838193,407.2265625,581.0546875,111.81640625,345.703125,0.0,0,0
1772036064.415103,1772036064.3877158,200.68359375,-812.01171875,29.78515625,180.17578125,0.0,0,0
1772036064.415149,1772036064.3916123,-341.796875,175.29296875,-185.546875,-334.47265625,0.0,0,0
1772036064.460168,1772036064.3956022,-474.609375,-1000.0,-234.375,-474.609375,0.0,0,0
1772036064.460298,1772036064.399499,22.4609375,-869.140625,-20.5078125,-29.78515625,0.0,0,0
1772036064.460362,1772036064.4033954,400.390625,469.23828125,112.3046875,306.15234375,0.0,0,0
1772036064.4604359,1772036064.407292,258.7890625,-787.59765625,40.0390625,199.70703125,0.0,0,0
1772036064.460497,1772036064.4111886,-324.70703125,137.6953125,-174.8046875,-300.29296875,0.0,0,0
1772036064.460563,1772036064.415085,-508.30078125,-1000.0,-221.6796875,-472.65625,0.0,0,0
1772036064.46062,1772036064.4189816,-82.51953125,-1000.0,-53.7109375,-131.34765625,0.0,0,0
1772036064.4606762,1772036064.4228783,343.26171875,-28.80859375,82.03125,261.71875,0.0,0,0
1772036064.460753,1772036064.4267747,309.5703125,-778.80859375,62.5,272.4609375,0.0,0,0
1772036064.46081,1772036064.4306712,-283.69140625,367.1875,-149.4140625,-237.3046875,0.0,0,0
1772036064.460886,1772036064.434568,-544.921875,-937.01171875,-236.328125,-482.91015625,0.0,0,0
1772036064.460953,1772036064.4384644,-187.98828125,-1000.0,-96.19140625,-202.1484375,0.0,0,0
1772036064.5046551,1772036064.442445,282.2265625,-165.0390625,87.40234375,229.4921875,0.0,0,0
1772036064.504808,1772036064.4463415,353.515625,-837.40234375,94.23828125,309.08203125,0.0,0,0
1772036064.5048718,1772036064.4502382,-175.78125,565.4296875,-130.37109375,-164.55078125,0.0,0,0
1772036064.504947,1772036064.4541347,-511.71875,-817.3828125,-230.95703125,-475.09765625,0.0,0,0
1772036064.5050108,1772036064.4580312,-240.72265625,-1000.0,-118.1640625,-263.671875,0.0,0,0
1772036064.5051231,1772036064.461928,284.66796875,-208.984375,70.80078125,214.35546875,0.0,0,0
1772036064.505186,1772036064.4658244,404.78515625,-870.1171875,104.00390625,343.75,0.0,0,0
1772036064.505238,1772036064.469721,-85.44921875,643.06640625,-104.4921875,-87.890625,0.0,0,0
1772036064.505281,1772036064.4736176,-457.03125,-750.48828125,-237.3046875,-437.5,0.0,0,0
1772036064.505344,1772036064.477514,-255.37109375,-1000.0,-132.8125,-266.11328125,0.0,0,0
1772036064.505395,1772036064.4814107,257.8125,-194.82421875,78.61328125,210.9375,0.0,0,0
1772036064.5054562,1772036064.4853072,388.18359375,-961.9140625,136.71875,343.26171875,0.0,0,0
1772036064.549335,1772036064.4892786,3.90625,944.3359375,-21.97265625,30.2734375,0.0,0,0
1772036064.549433,1772036064.493175,-401.85546875,-320.80078125,-179.19921875,-325.1953125,0.0,0,0
1772036064.549481,1772036064.4970717,-298.33984375,-1000.0,-129.39453125,-258.7890625,0.0,0,0
1772036064.549533,1772036064.5009682,206.54296875,-224.12109375,65.91796875,196.77734375,0.0,0,0
1772036064.549578,1772036064.504865,356.4453125,964.84375,111.81640625,358.88671875,0.0,0,0
1772036064.549621,1772036064.5087614,66.89453125,-921.875,2.9296875,128.41796875,0.0,0,0
1772036064.549664,1772036064.512658,-363.76953125,89.35546875,-145.99609375,-246.09375,0.0,0,0
1772036064.549706,1772036064.5165546,-383.7890625,-1000.0,-156.25,-298.828125,0.0,0,0
1772036064.549748,1772036064.5204513,79.1015625,-717.7734375,26.85546875,69.3359375,0.0,0,0
1772036064.549792,1772036064.5243478,262.6953125,640.13671875,94.7265625,232.421875,0.0,0,0
1772036064.549845,1772036064.5282443,60.546875,-822.75390625,9.765625,97.65625,0.0,0,0
1772036064.5498922,1772036064.532141,-285.15625,167.48046875,-121.58203125,-175.78125,0.0,0,0
1772036064.610292,1772036064.536179,-320.80078125,-1000.0,-124.0234375,-219.23828125,0.0,0,0
1772036064.610454,1772036064.5400758,65.4296875,-781.25,20.01953125,63.4765625,0.0,0,0
1772036064.610702,1772036064.5439723,278.80859375,587.40234375,104.98046875,228.02734375,0.0,0,0
1772036064.6107671,1772036064.547869,143.06640625,-812.98828125,58.10546875,142.08984375,0.0,0,0
1772036064.610826,1772036064.5517654,-229.4921875,175.78125,-105.46875,-172.8515625,0.0,0,0
1772036064.610871,1772036064.5556622,-317.87109375,-1000.0,-128.90625,-283.203125,0.0,0,0
1772036064.6109262,1772036064.5595586,16.6015625,-861.328125,6.34765625,-45.41015625,0.0,0,0
1772036064.610968,1772036064.5634553,270.99609375,469.7265625,83.984375,146.97265625,0.0,0,0
1772036064.61101,1772036064.5673518,222.16796875,-788.0859375,49.31640625,90.8203125,0.0,0,0
1772036064.611052,1772036064.5712485,-155.76171875,211.9140625,-100.5859375,-209.9609375,0.0,0,0
1772036064.611093,1772036064.575145,-276.3671875,-1000.0,-135.25390625,-289.0625,0.0,0,0
1772036064.611134,1772036064.5790417,7.32421875,-1000.0,-21.97265625,-79.1015625,0.0,0,0
1772036064.655336,1772036064.583069,285.15625,26.85546875,69.3359375,139.16015625,0.0,0,0
1772036064.655513,1772036064.5869658,268.5546875,-772.94921875,48.828125,146.97265625,0.0,0,0
1772036064.655561,1772036064.5908625,-133.7890625,303.22265625,-100.5859375,-150.87890625,0.0,0,0
1772036064.655606,1772036064.594759,-292.48046875,-975.09765625,-152.83203125,-277.83203125,0.0,0,0
1772036064.655659,1772036064.5986557,-43.45703125,-1000.0,-63.4765625,-117.1875,0.0,0,0
1772036064.655713,1772036064.6025522,228.02734375,-73.2421875,40.0390625,88.37890625,0.0,0,0
1772036064.6557739,1772036064.606449,239.2578125,-798.828125,29.296875,108.3984375,0.0,0,0
1772036064.65584,1772036064.6103456,-95.21484375,445.80078125,-116.2109375,-132.32421875,0.0,0,0
1772036064.6558888,1772036064.614242,-259.765625,-891.6015625,-151.85546875,-243.65234375,0.0,0,0
1772036064.655942,1772036064.6181388,-39.55078125,-1000.0,-76.66015625,-132.32421875,0.0,0,0
1772036064.656003,1772036064.6220353,305.6640625,-234.375,22.4609375,51.26953125,0.0,0,0
1772036064.656064,1772036064.625932,370.1171875,-877.9296875,40.52734375,93.75,0.0,0,0
1772036064.699602,1772036064.6299498,27.83203125,657.2265625,-87.890625,-115.234375,0.0,0,0
1772036064.699766,1772036064.6338465,-218.26171875,-732.421875,-162.59765625,-275.390625,0.0,0,0
1772036064.6998332,1772036064.6377432,-82.03125,-1000.0,-98.6328125,-206.0546875,0.0,0,0
1772036064.699894,1772036064.6416397,318.359375,-183.59375,20.5078125,16.11328125,0.0,0,0
1772036064.6999528,1772036064.6455364,403.80859375,971.19140625,34.1796875,79.1015625,0.0,0,0
1772036064.700012,1772036064.6494331,56.15234375,-926.26953125,-55.17578125,-54.19921875,0.0,0,0
1772036064.7000582,1772036064.6533296,-252.44140625,96.6796875,-130.859375,-214.35546875,0.0,0,0
1772036064.7001011,1772036064.6572263,-201.66015625,-1000.0,-117.1875,-218.75,0.0,0,0
1772036064.700145,1772036064.661123,200.1953125,-418.9453125,-14.16015625,-4.8828125,0.0,0,0
1772036064.700206,1772036064.6650195,294.43359375,905.76171875,18.5546875,45.8984375,0.0,0,0
1772036064.700247,1772036064.6689162,26.3671875,-887.20703125,-45.41015625,-63.4765625,0.0,0,0
1772036064.700317,1772036064.672813,-290.52734375,166.9921875,-131.34765625,-207.03125,0.0,0,0
1772036064.745279,1772036064.6768215,-309.5703125,-1000.0,-142.578125,-221.6796875,0.0,0,0
1772036064.745441,1772036064.6807182,82.51953125,-528.80859375,-22.94921875,-32.71484375,0.0,0,0
1772036064.745505,1772036064.684615,239.74609375,849.609375,33.69140625,31.73828125,0.0,0,0
1772036064.745567,1772036064.6885114,29.78515625,-861.328125,-24.90234375,-46.875,0.0,0,0
1772036064.745625,1772036064.692408,-311.5234375,180.17578125,-118.65234375,-168.45703125,0.0,0,0
1772036064.745685,1772036064.6963048,-292.96875,-1000.0,-109.375,-167.48046875,0.0,0,0
1772036064.745743,1772036064.7002015,120.1171875,-927.24609375,-24.4140625,-65.91796875,0.0,0,0
1772036064.745811,1772036064.704098,328.61328125,378.90625,5.859375,-18.5546875,0.0,0,0
1772036064.745868,1772036064.7079947,189.94140625,-788.0859375,-28.80859375,-47.36328125,0.0,0,0
1772036064.745944,1772036064.7118914,-233.88671875,175.78125,-133.7890625,-198.73046875,0.0,0,0
1772036064.746015,1772036064.7157881,-278.80859375,-1000.0,-143.06640625,-219.7265625,0.0,0,0
1772036064.7460842,1772036064.7196846,170.41015625,-852.5390625,-45.8984375,-86.42578125,0.0,0,0
1772036064.789734,1772036064.7236845,398.4375,485.83984375,-21.97265625,-39.55078125,0.0,0,0
1772036064.7898922,1772036064.7275813,249.51171875,-789.55078125,-36.62109375,-66.89453125,0.0,0,0
1772036064.7899399,1772036064.731478,-186.03515625,183.10546875,-87.890625,-163.0859375,0.0,0,0
1772036064.789995,1772036064.7353745,-303.7109375,-1000.0,-104.4921875,-181.640625,0.0,0,0
1772036064.790038,1772036064.7392712,29.78515625,-1000.0,-52.24609375,-97.16796875,0.0,0,0
1772036064.790081,1772036064.7431679,273.4375,-9.27734375,-7.32421875,0.0,0.0,0,0
1772036064.790123,1772036064.7470646,225.09765625,-778.80859375,-11.71875,22.4609375,0.0,0,0
1772036064.790177,1772036064.7509613,-191.89453125,385.25390625,-111.328125,-127.9296875,0.0,0,0
1772036064.7902389,1772036064.754858,-324.21875,-916.50390625,-138.671875,-167.48046875,0.0,0,0
1772036064.790299,1772036064.7587545,-36.62109375,-1000.0,-73.73046875,-105.46875,0.0,0,0
1772036064.790346,1772036064.7626512,257.32421875,-244.140625,-39.55078125,-63.96484375,0.0,0,0
1772036064.7903948,1772036064.766548,287.59765625,-857.91015625,-42.48046875,-43.45703125,0.0,0,0
1772036064.834643,1772036064.7705374,-129.39453125,574.21875,-97.65625,-110.3515625,0.0,0,0
1772036064.834759,1772036064.774434,-331.54296875,-845.21484375,-118.1640625,-143.5546875,0.0,0,0
1772036064.8348072,1772036064.7783308,-36.62109375,-1000.0,-55.17578125,-73.2421875,0.0,0,0
1772036064.834852,1772036064.7822275,315.91796875,-18.06640625,6.8359375,-25.87890625,0.0,0,0
1772036064.8348951,1772036064.7861242,301.26953125,-983.88671875,-3.41796875,-49.31640625,0.0,0,0
1772036064.8349388,1772036064.790021,17.08984375,-951.171875,-61.03515625,-45.8984375,0.0,0,0
1772036064.834982,1772036064.7939174,-241.2109375,79.58984375,-113.28125,-70.80078125,0.0,0,0
1772036064.835026,1772036064.7978141,-145.99609375,-1000.0,-92.28515625,-58.59375,0.0,0,0
1772036064.835077,1772036064.8017108,297.8515625,-346.6796875,-28.3203125,-4.8828125,0.0,0,0
1772036064.835119,1772036064.8056076,394.53125,965.8203125,-11.71875,-25.390625,0.0,0,0
1772036064.83516,1772036064.8095043,67.3828125,-931.15234375,-52.734375,-62.01171875,0.0,0,0
1772036064.835202,1772036064.813401,-257.32421875,-42.48046875,-97.65625,-94.23828125,0.0,0,0
1772036064.910579,1772036064.8175364,-167.48046875,-1000.0,-66.89453125,-63.96484375,0.0,0,0
1772036064.910768,1772036064.821433,220.21484375,-478.515625,-17.08984375,-38.57421875,0.0,0,0
1772036064.910835,1772036064.8253298,302.24609375,850.09765625,-15.13671875,-61.03515625,0.0,0,0
1772036064.910898,1772036064.8292265,84.47265625,-851.07421875,-43.9453125,-60.546875,0.0,0,0
1772036064.910959,1772036064.8331232,-235.83984375,184.08203125,-83.0078125,-65.91796875,0.0,0,0
1772036064.911019,1772036064.83702,-224.12109375,-1000.0,-69.3359375,-32.2265625,0.0,0,0
1772036064.911076,1772036064.8409166,150.390625,-233.3984375,-17.08984375,-8.7890625,0.0,0,0
1772036064.911137,1772036064.8448133,214.35546875,-871.58203125,-17.578125,-52.734375,0.0,0,0
1772036064.9111838,1772036064.84871,1.953125,793.45703125,-53.22265625,-66.40625,0.0,0,0
1772036064.911226,1772036064.8526068,-257.8125,-582.51953125,-71.2890625,-53.22265625,0.0,0,0
1772036064.911286,1772036064.8565035,-185.546875,-1000.0,-55.17578125,-5.859375,0.0,0,0
1772036064.9113312,1772036064.8604002,36.62109375,-1000.0,-30.2734375,-53.22265625,0.0,0,0
1772036064.925243,1772036064.8643756,179.6875,3.41796875,-20.01953125,-101.5625,0.0,0,0
1772036064.925353,1772036064.8682723,130.37109375,-764.6484375,-31.73828125,-70.80078125,0.0,0,0
1772036064.92542,1772036064.872169,-227.05078125,259.27734375,-64.94140625,-61.03515625,0.0,0,0
1772036064.925482,1772036064.8760657,-261.71875,-1000.0,-69.3359375,-31.73828125,0.0,0,0
1772036064.9255419,1772036064.8799624,25.390625,-1000.0,-41.9921875,-57.12890625,0.0,0,0
1772036064.9255989,1772036064.8838592,160.15625,15.13671875,-18.5546875,-104.00390625,0.0,0,0
1772036064.925828,1772036064.8877559,97.65625,-778.3203125,-26.3671875,-63.4765625,0.0,0,0
1772036064.925875,1772036064.8916526,-232.421875,373.046875,-65.4296875,-37.109375,0.0,0,0
1772036064.925919,1772036064.8955493,-271.484375,-920.8984375,-62.5,-8.7890625,0.0,0,0
1772036064.925981,1772036064.899446,11.23046875,-1000.0,-43.9453125,-36.62109375,0.0,0,0
1772036064.926021,1772036064.9033427,171.38671875,-208.49609375,-40.0390625,-105.95703125,0.0,0,0
1772036064.926064,1772036064.9072394,167.48046875,-934.5703125,-22.94921875,-78.125,0.0,0,0
1772036064.984489,1772036064.9112,-99.609375,862.3046875,-43.9453125,-11.71875,0.0,0,0
1772036064.984643,1772036064.9150968,-238.28125,-424.31640625,-63.96484375,17.08984375,0.0,0,0
1772036064.984705,1772036064.9189935,-71.2890625,-1000.0,-38.57421875,-17.578125,0.0,0,0
1772036064.984763,1772036064.9228902,130.37109375,-442.87109375,-31.25,-104.98046875,0.0,0,0
1772036064.984829,1772036064.926787,159.1796875,841.796875,-25.390625,-103.515625,0.0,0,0
1772036064.9848871,1772036064.9306839,-6.34765625,-853.02734375,-19.04296875,25.87890625,0.0,0,0
1772036064.984946,1772036064.9345806,-199.70703125,138.671875,-44.921875,58.10546875,0.0,0,0
1772036064.9850109,1772036064.9384773,-146.97265625,-1000.0,-57.12890625,-19.53125,0.0,0,0
1772036064.9850838,1772036064.942374,37.59765625,-921.38671875,-57.6171875,-122.55859375,0.0,0,0
1772036064.985142,1772036064.9462707,38.57421875,-1000.0,-51.26953125,-138.671875,0.0,0,0
1772036064.985198,1772036064.9501674,65.91796875,-57.6171875,-37.109375,39.55078125,0.0,0,0
1772036064.9852748,1772036064.9540641,-137.6953125,399.90234375,-52.24609375,75.68359375,0.0,0,0
1772036065.030132,1772036064.95809,-191.89453125,-1000.0,-60.05859375,-2.44140625,0.0,0,0
1772036065.0302641,1772036064.9619868,121.58203125,-533.203125,-31.73828125,-69.3359375,0.0,0,0
1772036065.030328,1772036064.9658837,179.6875,890.13671875,-36.1328125,-106.4453125,0.0,0,0
1772036065.030389,1772036064.9697804,-8.7890625,-875.0,-59.08203125,-32.71484375,0.0,0,0
1772036065.030446,1772036064.9736772,-232.91015625,136.23046875,-77.1484375,11.71875,0.0,0,0
1772036065.030505,1772036064.9775739,-166.015625,-1000.0,-59.5703125,19.04296875,0.0,0,0
1772036065.0305622,1772036064.9814706,107.91015625,-930.17578125,-29.296875,-51.26953125,0.0,0,0
1772036065.030632,1772036064.9853673,181.640625,354.4921875,-40.52734375,-104.98046875,0.0,0,0
1772036065.0306969,1772036064.9892642,77.1484375,-784.66796875,-40.0390625,-21.484375,0.0,0,0
1772036065.030755,1772036064.993161,-210.44921875,169.43359375,-64.453125,11.71875,0.0,0,0
1772036065.030824,1772036064.9970577,-195.3125,-1000.0,-61.5234375,17.08984375,0.0,0,0
1772036065.030891,1772036065.0009544,101.5625,-908.69140625,-31.73828125,-47.36328125,0.0,0,0
1772036065.074341,1772036065.0049713,206.54296875,375.0,-26.85546875,-84.9609375,0.0,0,0
1772036065.0744908,1772036065.008868,114.74609375,-788.57421875,-25.390625,-12.20703125,0.0,0,0
1772036065.0745258,1772036065.0127647,-209.47265625,417.48046875,-48.33984375,11.71875,0.0,0,0
1772036065.074562,1772036065.0166616,-263.18359375,-902.83203125,-59.5703125,10.25390625,0.0,0,0
1772036065.0745962,1772036065.0205584,31.25,-1000.0,-39.0625,-57.6171875,0.0,0,0
1772036065.074632,1772036065.024455,202.1484375,6.34765625,-17.08984375,-93.26171875,0.0,0,0
1772036065.074666,1772036065.0283518,134.765625,-780.76171875,-19.53125,-52.24609375,0.0,0,0
1772036065.074707,1772036065.0322487,-235.83984375,191.40625,-55.6640625,-30.76171875,0.0,0,0
1772036065.074751,1772036065.0361454,-283.203125,-1000.0,-53.22265625,11.23046875,0.0,0,0
1772036065.074795,1772036065.0400422,-44.921875,-1000.0,-36.62109375,-54.19921875,0.0,0,0
1772036065.074826,1772036065.0439389,126.46484375,-261.71875,-35.15625,-112.3046875,0.0,0,0
1772036065.074861,1772036065.0478358,126.953125,-832.03125,-23.4375,-51.26953125,0.0,0,0
1772036065.119332,1772036065.0518425,-235.3515625,416.015625,-57.6171875,-27.34375,0.0,0,0
1772036065.1194408,1772036065.0557392,-325.68359375,-935.546875,-55.17578125,11.23046875,0.0,0,0
1772036065.119528,1772036065.0596359,-75.1953125,-1000.0,-32.2265625,-16.6015625,0.0,0,0
1772036065.119591,1772036065.0635328,139.6484375,-176.7578125,-30.76171875,-91.796875,0.0,0,0
1772036065.119638,1772036065.0674295,130.859375,974.609375,-28.3203125,-74.70703125,0.0,0,0
1772036065.1196811,1772036065.0713263,-122.55859375,-915.52734375,-47.8515625,8.30078125,0.0,0,0
1772036065.119725,1772036065.0752232,-246.58203125,135.7421875,-49.31640625,47.8515625,0.0,0,0
1772036065.119767,1772036065.07912,-121.09375,-1000.0,-42.96875,-7.8125,0.0,0,0
1772036065.119806,1772036065.0830166,138.671875,-257.32421875,-29.78515625,-74.21875,0.0,0,0
1772036065.1198668,1772036065.0869133,150.87890625,-860.3515625,-32.2265625,-79.58984375,0.0,0,0
1772036065.119918,1772036065.0908103,-125.48828125,713.37890625,-64.94140625,12.6953125,0.0,0,0
1772036065.1199841,1772036065.094707,-302.734375,-656.25,-67.87109375,56.640625,0.0,0,0
1772036065.224052,1772036065.0987065,-157.2265625,-1000.0,-50.78125,12.6953125,0.0,0,0
1772036065.224233,1772036065.1026032,107.91015625,-202.1484375,-32.2265625,-62.5,0.0,0,0
1772036065.2242959,1772036065.1065,125.9765625,967.28515625,-34.66796875,-84.9609375,0.0,0,0
1772036065.2243562,1772036065.1103969,-89.35546875,-906.73828125,-57.6171875,-17.08984375,0.0,0,0
1772036065.224416,1772036065.1142936,-282.2265625,34.1796875,-74.21875,26.85546875,0.0,0,0
1772036065.2244742,1772036065.1181903,-179.6875,-1000.0,-51.7578125,21.484375,0.0,0,0
1772036065.2245288,1772036065.1220872,75.68359375,-2.44140625,-40.0390625,-65.91796875,0.0,0,0
1772036065.224587,1772036065.125984,18.5546875,-956.0546875,-62.01171875,-144.04296875,0.0,0,0
1772036065.2246451,1772036065.129881,-110.3515625,-942.87109375,-51.26953125,-33.69140625,0.0,0,0
1772036065.224703,1772036065.1337776,-284.66796875,75.1953125,-55.6640625,41.015625,0.0,0,0
1772036065.224851,1772036065.1376743,-232.421875,-1000.0,-50.78125,12.6953125,0.0,0,0
1772036065.224949,1772036065.1415713,-28.80859375,-1000.0,-31.73828125,-119.140625,0.0,0,0
1772036065.227086,1772036065.145646,45.41015625,-222.65625,-40.52734375,-147.4609375,0.0,0,0
1772036065.2271419,1772036065.1495428,-8.30078125,-811.5234375,-39.0625,-30.2734375,0.0,0,0
1772036065.227184,1772036065.1534398,-184.5703125,281.73828125,-28.80859375,80.56640625,0.0,0,0
1772036065.227227,1772036065.1573365,-121.58203125,-989.74609375,-11.23046875,142.08984375,0.0,0,0
1772036065.22727,1772036065.1612334,-120.60546875,-1000.0,-45.41015625,-114.74609375,0.0,0,0
1772036065.227319,1772036065.1651301,-73.73046875,-192.87109375,-66.40625,-248.53515625,0.0,0,0
1772036065.227361,1772036065.169027,14.6484375,987.79296875,-42.48046875,-84.9609375,0.0,0,0
1772036065.227403,1772036065.1729238,-111.328125,-929.6875,-30.2734375,101.5625,0.0,0,0
1772036065.227444,1772036065.1768208,-137.6953125,-1.953125,-28.80859375,133.7890625,0.0,0,0
1772036065.227493,1772036065.1807175,-160.64453125,-1000.0,-60.546875,-138.18359375,0.0,0,0
1772036065.227535,1772036065.1846144,-159.66796875,-1000.0,-84.9609375,-305.6640625,0.0,0,0
1772036065.227582,1772036065.1885111,-46.875,19.04296875,-60.546875,-153.80859375,0.0,0,0
1772036065.255213,1772036065.1924958,-54.6875,-776.85546875,-29.296875,88.8671875,0.0,0,0
1772036065.255299,1772036065.1963925,-175.78125,207.51953125,-26.85546875,96.6796875,0.0,0,0
1772036065.2553458,1772036065.2002895,-225.5859375,-1000.0,-65.91796875,-158.69140625,0.0,0,0
1772036065.25539,1772036065.2041862,-65.4296875,-414.0625,-79.58984375,-247.0703125,0.0,0,0
1772036065.255434,1772036065.2080832,16.11328125,919.921875,-61.5234375,-129.39453125,0.0,0,0
1772036065.255488,1772036065.2119799,-154.296875,-875.0,-63.96484375,8.30078125,0.0,0,0
1772036065.255529,1772036065.2158768,-237.3046875,145.5078125,-56.15234375,63.96484375,0.0,0,0
1772036065.255571,1772036065.2197735,-154.296875,-995.60546875,-68.359375,-56.15234375,0.0,0,0
1772036065.2556238,1772036065.2236705,-42.48046875,-1000.0,-80.56640625,-187.01171875,0.0,0,0
1772036065.2556648,1772036065.2275672,25.87890625,-223.14453125,-56.15234375,-130.859375,0.0,0,0
1772036065.2558951,1772036065.2314641,-84.9609375,-839.84375,-50.78125,54.19921875,0.0,0,0
1772036065.255939,1772036065.2353609,-242.67578125,61.5234375,-53.22265625,84.47265625,0.0,0,0
1772036065.3002791,1772036065.2393348,-128.90625,-1000.0,-46.38671875,-14.6484375,0.0,0,0
1772036065.300447,1772036065.2432318,38.0859375,-213.37890625,-62.98828125,-123.046875,0.0,0,0
1772036065.300559,1772036065.2471285,31.73828125,-928.7109375,-52.24609375,-128.41796875,0.0,0,0
1772036065.300649,1772036065.2510254,-134.765625,993.1640625,-53.7109375,-0.48828125,0.0,0,0
1772036065.300714,1772036065.2549222,-263.18359375,-550.78125,-66.40625,58.59375,0.0,0,0
1772036065.3007941,1772036065.258819,-31.73828125,-343.75,-29.78515625,64.94140625,0.0,0,0
1772036065.300853,1772036065.2627158,92.7734375,-969.7265625,-48.33984375,-66.89453125,0.0,0,0
1772036065.30092,1772036065.2666128,-5.859375,-939.453125,-74.70703125,-148.92578125,0.0,0,0
1772036065.300991,1772036065.2705097,-125.48828125,573.73046875,-57.12890625,-7.8125,0.0,0,0
1772036065.301048,1772036065.2744064,-254.39453125,-811.5234375,-52.734375,74.70703125,0.0,0,0
1772036065.301118,1772036065.2783034,-94.7265625,-1000.0,-59.5703125,60.546875,0.0,0,0
1772036065.301195,1772036065.2822,35.15625,-1000.0,-65.91796875,-100.09765625,0.0,0,0
1772036065.359478,1772036065.2861638,62.98828125,0.48828125,-64.94140625,-153.3203125,0.0,0,0
1772036065.3596401,1772036065.2900605,6.34765625,-763.671875,-54.19921875,-15.625,0.0,0,0
1772036065.359702,1772036065.2939575,-192.87109375,216.796875,-47.36328125,44.43359375,0.0,0,0
1772036065.359773,1772036065.2978544,-139.6484375,-1000.0,-33.203125,32.71484375,0.0,0,0
1772036065.359843,1772036065.3017511,48.828125,-1000.0,-34.66796875,-102.05078125,0.0,0,0
1772036065.3599,1772036065.305648,77.63671875,-122.55859375,-32.2265625,-191.89453125,0.0,0,0
1772036065.359958,1772036065.3095448,42.48046875,-814.94140625,0.9765625,-52.24609375,0.0,0,0
1772036065.3600159,1772036065.3134418,-172.36328125,493.1640625,-17.578125,69.3359375,0.0,0,0
1772036065.360092,1772036065.3173387,-170.8984375,-843.26171875,-20.5078125,73.73046875,0.0,0,0
1772036065.360162,1772036065.3212354,-32.71484375,-1000.0,-9.27734375,-87.890625,0.0,0,0
1772036065.360217,1772036065.3251324,7.8125,-645.99609375,-17.578125,-191.89453125,0.0,0,0
1772036065.3602839,1772036065.329029,76.171875,904.296875,6.34765625,-62.98828125,0.0,0,0
1772036065.420663,1772036065.3330603,-129.8828125,661.62109375,3.90625,57.6171875,0.0,0,0
1772036065.420825,1772036065.336957,-175.78125,-841.796875,8.7890625,83.984375,0.0,0,0
1772036065.420892,1772036065.340854,-21.97265625,-1000.0,12.20703125,-61.03515625,0.0,0,0
1772036065.420952,1772036065.344751,27.83203125,-161.1328125,-12.20703125,-186.03515625,0.0,0,0
1772036065.421014,1772036065.3486476,16.11328125,967.28515625,0.0,-102.05078125,0.0,0,0
1772036065.4210718,1772036065.3525445,-98.14453125,-920.8984375,23.4375,81.0546875,0.0,0,0
1772036065.42113,1772036065.3564415,-129.8828125,208.49609375,17.578125,124.51171875,0.0,0,0
1772036065.421189,1772036065.3603382,-90.8203125,-1000.0,-7.8125,-73.2421875,0.0,0,0
1772036065.4212449,1772036065.3642352,21.484375,-550.29296875,-20.01953125,-200.68359375,0.0,0,0
1772036065.421304,1772036065.368132,55.6640625,-921.38671875,-14.16015625,-139.6484375,0.0,0,0
1772036065.421361,1772036065.3720288,-165.0390625,428.7109375,-7.32421875,-2.44140625,0.0,0,0
1772036065.421419,1772036065.3759258,-161.62109375,-990.234375,11.23046875,96.19140625,0.0,0,0
1772036065.4659781,1772036065.3799536,-15.13671875,-1000.0,-2.44140625,-25.87890625,0.0,0,0
1772036065.466169,1772036065.3838503,-23.4375,-923.828125,-37.59765625,-232.91015625,0.0,0,0
1772036065.466232,1772036065.3877473,57.12890625,354.00390625,-20.01953125,-183.10546875,0.0,0,0
1772036065.466295,1772036065.3916442,-6.34765625,-903.80859375,0.0,44.43359375,0.0,0,0
1772036065.466354,1772036065.3955412,-64.94140625,907.2265625,10.25390625,163.57421875,0.0,0,0
1772036065.466413,1772036065.399438,-1.46484375,915.52734375,11.71875,58.10546875,0.0,0,0
1772036065.466492,1772036065.4033349,-41.50390625,-889.6484375,-27.83203125,-195.80078125,0.0,0,0
1772036065.466569,1772036065.4072318,-171.875,188.96484375,-54.6875,-284.1796875,0.0,0,0
1772036065.466638,1772036065.4111288,-148.92578125,-1000.0,-22.4609375,-11.23046875,0.0,0,0
1772036065.4666948,1772036065.4150255,-46.875,-1000.0,9.765625,193.359375,0.0,0,0
1772036065.466757,1772036065.4189224,91.796875,-242.67578125,4.39453125,131.34765625,0.0,0,0
1772036065.4668229,1772036065.4228194,52.734375,-918.9453125,-39.0625,-147.94921875,0.0,0,0
1772036065.510883,1772036065.4269023,-141.6015625,835.9375,-62.98828125,-289.0625,0.0,0,0
1772036065.510997,1772036065.4307992,-110.3515625,-499.51171875,-16.6015625,-7.32421875,0.0,0,0
1772036065.511062,1772036065.4346962,-23.92578125,-1000.0,21.97265625,203.125,0.0,0,0
1772036065.511123,1772036065.4385931,106.4453125,-151.85546875,15.13671875,152.83203125,0.0,0,0
1772036065.511184,1772036065.44249,39.0625,969.7265625,-30.76171875,-144.53125,0.0,0,0
1772036065.511243,1772036065.446387,-133.30078125,-905.76171875,-54.19921875,-309.08203125,0.0,0,0
1772036065.511303,1772036065.450284,-105.46875,163.0859375,-8.7890625,-71.77734375,0.0,0,0
1772036065.511363,1772036065.454181,-37.109375,-1000.0,36.62109375,170.8984375,0.0,0,0
1772036065.5114188,1772036065.4580777,53.7109375,-913.57421875,31.73828125,166.015625,0.0,0,0
1772036065.511477,1772036065.4619746,-68.359375,-1000.0,-30.2734375,-156.25,0.0,0,0
1772036065.511533,1772036065.4658716,-99.12109375,-619.140625,-51.7578125,-297.36328125,0.0,0,0
1772036065.511591,1772036065.4697685,30.76171875,837.890625,-21.484375,-69.3359375,0.0,0,0
1772036065.54067,1772036065.4737716,36.62109375,973.14453125,14.6484375,190.91796875,0.0,0,0
1772036065.540801,1772036065.4776685,124.0234375,973.6328125,38.57421875,257.8125,0.0,0,0
1772036065.54086,1772036065.4815655,-62.01171875,818.84765625,-29.296875,-118.65234375,0.0,0,0
1772036065.5409222,1772036065.4854624,-298.33984375,-541.015625,-93.75,-393.06640625,0.0,0,0
1772036065.540981,1772036065.4893594,-137.6953125,-1000.0,-44.921875,-173.828125,0.0,0,0
1772036065.541039,1772036065.4932563,162.109375,-225.5859375,39.0625,236.81640625,0.0,0,0
1772036065.541096,1772036065.4971533,292.48046875,-854.00390625,57.12890625,346.19140625,0.0,0,0
1772036065.541155,1772036065.50105,-92.7734375,551.7578125,-57.12890625,-127.9296875,0.0,0,0
1772036065.541224,1772036065.504947,-351.07421875,-834.47265625,-129.39453125,-447.75390625,0.0,0,0
1772036065.541302,1772036065.508844,-168.9453125,-1000.0,-73.2421875,-262.6953125,0.0,0,0
1772036065.541373,1772036065.5127409,176.26953125,-244.140625,29.78515625,208.49609375,0.0,0,0
1772036065.54143,1772036065.5166378,341.796875,987.3046875,60.05859375,397.4609375,0.0,0,0
1772036065.584927,1772036065.520625,-12.20703125,-962.40234375,-50.29296875,-28.3203125,0.0,0,0
1772036065.5850618,1772036065.524522,-381.34765625,-149.90234375,-141.11328125,-442.3828125,0.0,0,0
1772036065.585122,1772036065.528419,-300.78125,-1000.0,-108.3984375,-345.21484375,0.0,0,0
1772036065.585182,1772036065.532316,214.84375,-213.8671875,26.3671875,254.39453125,0.0,0,0
1772036065.5852401,1772036065.536213,433.10546875,994.140625,84.47265625,519.04296875,0.0,0,0
1772036065.585307,1772036065.5401099,38.0859375,-944.82421875,-30.2734375,76.66015625,0.0,0,0
1772036065.585366,1772036065.5440068,-407.71484375,-15.625,-148.4375,-440.91796875,0.0,0,0
1772036065.585432,1772036065.5479038,-385.25390625,-1000.0,-128.41796875,-437.01171875,0.0,0,0
1772036065.5854888,1772036065.5518007,162.59765625,-507.32421875,9.765625,175.29296875,0.0,0,0
1772036065.585542,1772036065.5556977,423.828125,837.890625,71.2890625,489.74609375,0.0,0,0
1772036065.5855832,1772036065.5595946,150.87890625,-863.28125,-6.8359375,171.38671875,0.0,0,0
1772036065.5856252,1772036065.5634916,-393.06640625,162.59765625,-157.2265625,-410.64453125,0.0,0,0
1772036065.6295931,1772036065.5674694,-502.44140625,-1000.0,-179.6875,-534.1796875,0.0,0,0
1772036065.62972,1772036065.5713663,140.625,-752.44140625,-9.27734375,101.07421875,0.0,0,0
1772036065.629916,1772036065.5752633,484.86328125,618.65234375,82.03125,498.046875,0.0,0,0
1772036065.629963,1772036065.5791602,277.34375,-820.3125,22.4609375,270.5078125,0.0,0,0
1772036065.630007,1772036065.5830572,-332.51953125,195.3125,-144.53125,-374.0234375,0.0,0,0
1772036065.6300511,1772036065.586954,-541.015625,-1000.0,-181.15234375,-587.890625,0.0,0,0
1772036065.6300921,1772036065.590851,106.4453125,-641.11328125,-13.18359375,31.73828125,0.0,0,0
1772036065.630135,1772036065.594748,516.6015625,754.39453125,68.84765625,483.88671875,0.0,0,0
1772036065.630178,1772036065.598645,354.00390625,-831.0546875,26.85546875,331.54296875,0.0,0,0
1772036065.63022,1772036065.602542,-298.828125,140.13671875,-122.0703125,-321.2890625,0.0,0,0
1772036065.630262,1772036065.6064389,-603.515625,-1000.0,-194.3359375,-610.83984375,0.0,0,0
1772036065.630304,1772036065.6103358,-95.21484375,-1000.0,-62.5,-106.93359375,0.0,0,0
1772036065.675742,1772036065.6143095,413.0859375,-91.30859375,62.01171875,429.6875,0.0,0,0
1772036065.67587,1772036065.6182065,456.54296875,-786.62109375,59.5703125,424.31640625,0.0,0,0
1772036065.6759171,1772036065.6221035,-243.65234375,295.41015625,-96.6796875,-252.9296875,0.0,0,0
1772036065.675961,1772036065.6260004,-631.8359375,-978.515625,-185.05859375,-624.51171875,0.0,0,0
1772036065.6760051,1772036065.6298974,-225.09765625,-1000.0,-94.23828125,-241.2109375,0.0,0,0
1772036065.6760478,1772036065.6337943,370.1171875,-166.015625,66.89453125,377.44140625,0.0,0,0
1772036065.67609,1772036065.6376913,536.1328125,-842.7734375,88.8671875,519.53125,0.0,0,0
1772036065.676161,1772036065.6415882,-182.6171875,601.07421875,-113.28125,-173.33984375,0.0,0,0
1772036065.676212,1772036065.6454852,-647.4609375,-776.85546875,-211.42578125,-613.76953125,0.0,0,0
1772036065.676256,1772036065.6493824,-349.12109375,-1000.0,-129.8828125,-321.2890625,0.0,0,0
1772036065.676297,1772036065.6532793,301.7578125,-222.65625,43.45703125,347.16796875,0.0,0,0
1772036065.676339,1772036065.6571763,575.1953125,-889.6484375,110.3515625,595.703125,0.0,0,0
1772036065.7356591,1772036065.6612134,-104.98046875,700.1953125,-85.44921875,-70.3125,0.0,0,0
1772036065.735858,1772036065.6651103,-649.90234375,-679.19921875,-217.7734375,-610.83984375,0.0,0,0
1772036065.735926,1772036065.6690075,-444.3359375,-1000.0,-160.64453125,-436.03515625,0.0,0,0
1772036065.735986,1772036065.6729045,264.6484375,-213.37890625,4.8828125,267.578125,0.0,0,0
1772036065.7360551,1772036065.6768014,638.671875,970.703125,103.02734375,613.28125,0.0,0,0
1772036065.736114,1772036065.6806984,72.265625,-937.5,-41.9921875,66.89453125,0.0,0,0
1772036065.7361689,1772036065.6845953,-570.80078125,20.01953125,-208.0078125,-545.41015625,0.0,0,0
1772036065.736212,1772036065.6884923,-542.96875,-1000.0,-190.91796875,-505.37109375,0.0,0,0
1772036065.736254,1772036065.6923892,159.1796875,-603.515625,-11.71875,191.89453125,0.0,0,0
1772036065.736296,1772036065.6962864,606.4453125,755.859375,98.14453125,605.95703125,0.0,0,0
1772036065.7363389,1772036065.7001834,212.40234375,-846.6796875,-18.5546875,196.77734375,0.0,0,0
1772036065.736383,1772036065.7040803,-473.14453125,141.11328125,-177.24609375,-461.9140625,0.0,0,0
1772036065.7798789,1772036065.7081041,-587.40234375,-1000.0,-193.84765625,-562.01171875,0.0,0,0
1772036065.7800262,1772036065.712001,81.0546875,-739.2578125,-28.3203125,102.5390625,0.0,0,0
1772036065.780073,1772036065.715898,534.66796875,630.37109375,89.84375,554.19921875,0.0,0,0
1772036065.780118,1772036065.7197952,277.83203125,-815.4296875,-1.953125,270.01953125,0.0,0,0
1772036065.780164,1772036065.7236922,-377.44140625,160.15625,-170.8984375,-398.92578125,0.0,0,0
1772036065.7802072,1772036065.7275891,-584.9609375,-1000.0,-199.70703125,-577.63671875,0.0,0,0
1772036065.780249,1772036065.731486,-3.90625,-1000.0,-45.41015625,36.62109375,0.0,0,0
1772036065.780295,1772036065.7353833,423.33984375,249.51171875,56.15234375,488.28125,0.0,0,0
1772036065.7803378,1772036065.7392802,313.96484375,-768.06640625,15.625,329.58984375,0.0,0,0
1772036065.78038,1772036065.7431772,-336.9140625,142.08984375,-133.7890625,-333.49609375,0.0,0,0
1772036065.780431,1772036065.7470741,-635.7421875,-1000.0,-207.03125,-611.328125,0.0,0,0
1772036065.78049,1772036065.7509713,-99.12109375,-1000.0,-63.96484375,-55.6640625,0.0,0,0
1772036065.824577,1772036065.754985,388.18359375,-0.9765625,66.40625,461.42578125,0.0,0,0
1772036065.8246882,1772036065.758882,416.015625,-779.296875,48.828125,425.78125,0.0,0,0
