timestamp,lsl_timestamp,TP9,AF7,AF8,TP10,Right AUX,keypress_A,keypress_B
1772286673.1843321,1772286673.1169853,982.421875,-93.75,-272.4609375,-1000.0,0.0,0,0
1772286673.184461,1772286673.1208818,-574.21875,56.640625,-33.203125,-54.6875,0.0,0,0
1772286673.184509,1772286673.1247783,-1000.0,174.8046875,82.51953125,-806.640625,0.0,0,0
1772286673.184545,1772286673.1286747,-1000.0,67.3828125,-73.73046875,437.98828125,0.0,0,0
1772286673.184577,1772286673.1325712,-9.27734375,-52.734375,-247.0703125,-889.6484375,0.0,0,0
1772286673.184607,1772286673.1364677,-761.71875,54.6875,-214.84375,-1000.0,0.0,0,0
1772286673.1846359,1772286673.1403644,228.02734375,118.1640625,28.3203125,-133.30078125,0.0,0,0
1772286673.1846669,1772286673.144261,-995.1171875,170.8984375,167.48046875,-865.72265625,0.0,0,0
1772286673.1846972,1772286673.1481574,-1000.0,155.2734375,17.578125,663.0859375,0.0,0,0
1772286673.184726,1772286673.1520538,-152.83203125,57.12890625,-160.15625,-681.640625,0.0,0,0
1772286673.184756,1772286673.1559503,-807.6171875,79.1015625,-159.1796875,-1000.0,0.0,0,0
1772286673.184785,1772286673.1598468,418.9453125,155.76171875,51.26953125,-178.22265625,0.0,0,0
1772286673.2307642,1772286673.1637843,-918.9453125,293.45703125,234.86328125,-939.453125,0.0,0,0
1772286673.230877,1772286673.1676807,-1000.0,280.76171875,162.59765625,886.23046875,0.0,0,0
1772286673.230926,1772286673.1715772,-232.421875,121.58203125,-69.3359375,-385.25390625,0.0,0,0
1772286673.230965,1772286673.1754737,-895.5078125,97.16796875,-138.671875,-1000.0,0.0,0,0
1772286673.231005,1772286673.1793702,729.00390625,179.19921875,86.42578125,-213.37890625,0.0,0,0
1772286673.231045,1772286673.1832666,-649.90234375,291.9921875,283.69140625,-991.69921875,0.0,0,0
1772286673.2310889,1772286673.187163,-1000.0,201.171875,189.453125,-990.72265625,0.0,0,0
1772286673.2311249,1772286673.1910596,-192.3828125,62.01171875,-42.96875,-142.578125,0.0,0,0
1772286673.231164,1772286673.194956,-961.42578125,69.82421875,-83.0078125,-1000.0,0.0,0,0
1772286673.231206,1772286673.1988528,945.3125,185.546875,138.671875,-301.26953125,0.0,0,0
1772286673.231244,1772286673.2027493,-320.3125,311.5234375,334.9609375,946.77734375,0.0,0,0
1772286673.2312891,1772286673.2066457,-1000.0,284.1796875,281.73828125,-914.0625,0.0,0,0
1772286673.3213172,1772286673.2109554,-217.7734375,189.453125,39.0625,86.42578125,0.0,0,0
1772286673.32146,1772286673.2148519,981.93359375,50.78125,-82.03125,-1000.0,0.0,0,0
1772286673.3215191,1772286673.2187486,-934.08203125,134.27734375,78.125,-502.44140625,0.0,0,0
1772286673.321598,1772286673.222645,-46.38671875,275.87890625,289.0625,858.88671875,0.0,0,0
1772286673.321654,1772286673.2265418,-1000.0,226.07421875,266.6015625,-925.78125,0.0,0,0
1772286673.3217092,1772286673.2304382,-301.26953125,137.20703125,13.671875,72.75390625,0.0,0,0
1772286673.32176,1772286673.234335,895.01953125,-0.48828125,-153.3203125,-1000.0,0.0,0,0
1772286673.321811,1772286673.2382314,-886.71875,94.23828125,-27.83203125,-729.98046875,0.0,0,0
1772286673.321863,1772286673.242128,135.25390625,248.53515625,202.1484375,641.6015625,0.0,0,0
1772286673.321913,1772286673.2460246,-1000.0,159.1796875,177.734375,-877.44140625,0.0,0,0
1772286673.321963,1772286673.249921,-563.96484375,102.5390625,-86.42578125,82.51953125,0.0,0,0
1772286673.322013,1772286673.2538178,758.7890625,-15.13671875,-255.37109375,-1000.0,0.0,0,0
1772286673.324669,1772286673.257847,-844.7265625,-49.31640625,-180.17578125,-960.9375,0.0,0,0
1772286673.3247411,1772286673.2617435,187.01171875,72.265625,47.36328125,275.390625,0.0,0,0
1772286673.324783,1772286673.2656403,-1000.0,73.73046875,99.609375,-780.76171875,0.0,0,0
1772286673.324822,1772286673.2695367,-828.61328125,54.19921875,-127.9296875,249.51171875,0.0,0,0
1772286673.324865,1772286673.2734334,528.80859375,-21.97265625,-297.8515625,-1000.0,0.0,0,0
1772286673.3249018,1772286673.27733,-799.8046875,-10.7421875,-229.4921875,-1000.0,0.0,0,0
1772286673.324938,1772286673.2812266,152.83203125,85.44921875,7.32421875,55.6640625,0.0,0,0
1772286673.324975,1772286673.285123,-1000.0,135.25390625,92.28515625,-792.48046875,0.0,0,0
1772286673.325015,1772286673.2890198,-1000.0,67.3828125,-107.421875,400.390625,0.0,0,0
1772286673.3250601,1772286673.2929163,178.7109375,-82.03125,-304.19921875,-906.25,0.0,0,0
1772286673.3250968,1772286673.296813,-762.20703125,-83.984375,-289.0625,-1000.0,0.0,0,0
1772286673.3251321,1772286673.3007095,202.1484375,48.828125,-28.80859375,-111.81640625,0.0,0,0
1772286673.365897,1772286673.3047044,-1000.0,160.15625,118.1640625,-847.16796875,0.0,0,0
1772286673.366008,1772286673.3086011,-1000.0,44.921875,-72.75390625,594.23828125,0.0,0,0
1772286673.3660648,1772286673.3124979,-77.63671875,-128.41796875,-310.546875,-748.53515625,0.0,0,0
1772286673.366125,1772286673.3163943,-791.50390625,-156.73828125,-343.75,-1000.0,0.0,0,0
1772286673.366185,1772286673.320291,403.80859375,-43.9453125,-105.95703125,-190.91796875,0.0,0,0
1772286673.3662379,1772286673.3241875,-917.48046875,95.703125,80.078125,-917.96875,0.0,0,0
1772286673.366289,1772286673.3280842,-1000.0,-17.578125,-44.43359375,809.08203125,0.0,0,0
1772286673.366338,1772286673.3319807,-227.5390625,-153.80859375,-287.59765625,-501.953125,0.0,0,0
1772286673.366393,1772286673.3358774,-865.72265625,-137.20703125,-328.61328125,-1000.0,0.0,0,0
1772286673.366462,1772286673.3397741,621.09375,-56.640625,-89.35546875,-212.40234375,0.0,0,0
1772286673.366512,1772286673.3436706,-773.4375,77.63671875,97.65625,-979.98046875,0.0,0,0
1772286673.366563,1772286673.3475673,-1000.0,39.55078125,1.46484375,974.609375,0.0,0,0
1772286673.412117,1772286673.351561,-205.078125,-102.5390625,-265.625,-217.28515625,0.0,0,0
1772286673.4122381,1772286673.3554578,-939.94140625,-181.640625,-377.9296875,-1000.0,0.0,0,0
1772286673.412291,1772286673.3593545,877.9296875,-84.9609375,-172.36328125,-305.17578125,0.0,0,0
1772286673.41234,1772286673.363251,-442.3828125,94.23828125,47.36328125,950.68359375,0.0,0,0
1772286673.4123788,1772286673.3671477,-1000.0,102.05078125,23.4375,-930.17578125,0.0,0,0
1772286673.4124181,1772286673.3710442,-178.22265625,41.50390625,-191.40625,16.6015625,0.0,0,0
1772286673.412454,1772286673.3749409,-992.1875,-97.65625,-311.03515625,-1000.0,0.0,0,0
1772286673.41249,1772286673.3788376,-969.7265625,-83.0078125,-149.4140625,-500.0,0.0,0,0
1772286673.4125261,1772286673.382734,-119.62890625,80.56640625,69.3359375,835.44921875,0.0,0,0
1772286673.412572,1772286673.3866308,-1000.0,64.94140625,65.91796875,-874.0234375,0.0,0,0
1772286673.412617,1772286673.3905275,-371.58203125,-18.5546875,-157.2265625,112.3046875,0.0,0,0
1772286673.4126542,1772286673.394424,911.1328125,-93.75,-289.0625,-1000.0,0.0,0,0
1772286673.457381,1772286673.398401,-896.97265625,14.16015625,-122.55859375,-745.60546875,0.0,0,0
1772286673.457479,1772286673.4022977,102.05078125,145.99609375,129.8828125,594.23828125,0.0,0,0
1772286673.457537,1772286673.4061942,-1000.0,95.21484375,159.66796875,-817.3828125,0.0,0,0
1772286673.457587,1772286673.410091,-533.69140625,-6.34765625,-59.5703125,152.83203125,0.0,0,0
1772286673.457651,1772286673.4139876,836.42578125,-138.18359375,-235.3515625,-1000.0,0.0,0,0
1772286673.457705,1772286673.417884,-860.3515625,-43.9453125,-140.625,-921.875,0.0,0,0
1772286673.4577549,1772286673.4217808,191.89453125,86.9140625,107.421875,344.7265625,0.0,0,0
1772286673.4578052,1772286673.4256775,-1000.0,58.59375,164.0625,-783.69140625,0.0,0,0
1772286673.457856,1772286673.4295743,-811.03515625,-17.578125,-44.921875,198.2421875,0.0,0,0
1772286673.457909,1772286673.4334707,554.6875,-155.76171875,-226.07421875,-1000.0,0.0,0,0
1772286673.457962,1772286673.4373674,-803.7109375,-126.46484375,-178.7109375,-1000.0,0.0,0,0
1772286673.458011,1772286673.4412642,155.2734375,9.765625,52.24609375,57.12890625,0.0,0,0
1772286673.501974,1772286673.445234,-1000.0,99.12109375,152.34375,-782.71484375,0.0,0,0
1772286673.502076,1772286673.4491305,-1000.0,31.73828125,-42.96875,316.89453125,0.0,0,0
1772286673.5021179,1772286673.4530272,211.42578125,-103.515625,-232.91015625,-953.61328125,0.0,0,0
1772286673.5021582,1772286673.456924,-763.18359375,-31.25,-198.73046875,-1000.0,0.0,0,0
1772286673.5036511,1772286673.4608207,221.6796875,124.0234375,48.33984375,-133.7890625,0.0,0,0
1772286673.503715,1772286673.4647174,-998.046875,223.6328125,186.03515625,-832.03125,0.0,0,0
1772286673.503747,1772286673.4686139,-1000.0,88.37890625,-11.23046875,509.27734375,0.0,0,0
1772286673.503776,1772286673.4725106,-41.015625,-111.81640625,-248.046875,-829.58984375,0.0,0,0
1772286673.5038059,1772286673.4764073,-786.62109375,-51.7578125,-244.62890625,-1000.0,0.0,0,0
1772286673.5038369,1772286673.480304,407.2265625,17.08984375,-0.9765625,-193.359375,0.0,0,0
1772286673.503867,1772286673.4842005,-912.59765625,115.234375,176.7578125,-908.203125,0.0,0,0
1772286673.503896,1772286673.4880972,-1000.0,57.6171875,47.8515625,777.34375,0.0,0,0
1772286673.559372,1772286673.4920547,-214.84375,-99.609375,-188.96484375,-545.41015625,0.0,0,0
1772286673.559505,1772286673.4959514,-868.65234375,-50.78125,-237.79296875,-1000.0,0.0,0,0
1772286673.5595698,1772286673.499848,645.5078125,40.52734375,-10.25390625,-199.70703125,0.0,0,0
1772286673.559623,1772286673.5037446,-746.58203125,136.71875,178.22265625,-971.19140625,0.0,0,0
1772286673.559674,1772286673.5076413,-1000.0,92.28515625,58.10546875,960.9375,0.0,0,0
1772286673.559726,1772286673.511538,-206.54296875,-41.9921875,-193.359375,-244.140625,0.0,0,0
1772286673.559776,1772286673.5154347,-931.640625,-173.33984375,-286.62109375,-1000.0,0.0,0,0
1772286673.559824,1772286673.5193312,850.09765625,-86.42578125,-96.6796875,-309.5703125,0.0,0,0
1772286673.559874,1772286673.523228,-483.3984375,134.27734375,106.93359375,958.49609375,0.0,0,0
1772286673.559944,1772286673.5271246,-1000.0,136.23046875,54.6875,-949.21875,0.0,0,0
1772286673.559992,1772286673.5310214,-173.828125,18.5546875,-194.82421875,-51.7578125,0.0,0,0
1772286673.560041,1772286673.534918,-994.62890625,-85.44921875,-324.70703125,-1000.0,0.0,0,0
1772286673.620534,1772286673.539045,-961.42578125,15.625,-132.8125,-480.95703125,0.0,0,0
1772286673.620669,1772286673.5429418,-105.95703125,175.29296875,96.19140625,844.23828125,0.0,0,0
1772286673.620706,1772286673.5468385,-1000.0,125.48828125,96.6796875,-875.9765625,0.0,0,0
1772286673.620736,1772286673.5507352,-288.57421875,34.1796875,-106.93359375,112.79296875,0.0,0,0
1772286673.620766,1772286673.554632,953.61328125,-84.9609375,-242.67578125,-1000.0,0.0,0,0
1772286673.620797,1772286673.5585287,-916.015625,25.87890625,-96.19140625,-695.3125,0.0,0,0
1772286673.620827,1772286673.5624254,78.61328125,157.2265625,125.48828125,653.80859375,0.0,0,0
1772286673.620857,1772286673.566322,-1000.0,68.84765625,125.9765625,-826.66015625,0.0,0,0
1772286673.620885,1772286673.5702188,-603.515625,2.9296875,-101.5625,126.953125,0.0,0,0
1772286673.620914,1772286673.5741155,-986.328125,-85.44921875,-266.11328125,-1000.0,0.0,0,0
1772286673.620943,1772286673.5780122,568.84765625,-141.6015625,-167.96875,-993.1640625,0.0,0,0
1772286673.620973,1772286673.581909,-1000.0,2.9296875,83.984375,210.9375,0.0,0,0
1772286673.650847,1772286673.585927,-906.73828125,174.31640625,163.0859375,-775.390625,0.0,0,0
1772286673.650956,1772286673.5898237,538.0859375,28.80859375,-50.78125,191.40625,0.0,0,0
1772286673.651018,1772286673.5937207,-848.14453125,-210.44921875,-234.86328125,-1000.0,0.0,0,0
1772286673.651072,1772286673.5976174,-85.9375,-180.17578125,-175.29296875,-1000.0,0.0,0,0
1772286673.651127,1772286673.601514,-1000.0,70.80078125,74.21875,29.78515625,0.0,0,0
1772286673.651178,1772286673.6054108,-497.55859375,207.51953125,166.015625,-784.1796875,0.0,0,0
1772286673.651228,1772286673.6093075,875.0,-50.78125,-58.10546875,277.83203125,0.0,0,0
1772286673.651285,1772286673.6132042,-902.83203125,-308.10546875,-280.2734375,-974.609375,0.0,0,0
1772286673.651335,1772286673.617101,-73.2421875,-232.421875,-274.4140625,-1000.0,0.0,0,0
1772286673.6514251,1772286673.6209977,-1000.0,-34.1796875,-11.71875,-143.06640625,0.0,0,0
1772286673.651485,1772286673.6248944,-564.94140625,138.671875,138.671875,-827.63671875,0.0,0,0
1772286673.6515431,1772286673.628791,808.59375,-35.15625,-57.12890625,467.28515625,0.0,0,0
1772286673.696244,1772286673.6327963,-875.9765625,-304.19921875,-276.85546875,-859.86328125,0.0,0,0
1772286673.696349,1772286673.636693,-16.11328125,-294.921875,-283.69140625,-1000.0,0.0,0,0
1772286673.6964102,1772286673.6405897,-1000.0,-87.40234375,-31.73828125,-203.125,0.0,0,0
1772286673.6964638,1772286673.6444864,-575.1953125,130.37109375,144.53125,-886.23046875,0.0,0,0
1772286673.696515,1772286673.6483831,797.36328125,-23.4375,-20.99609375,665.52734375,0.0,0,0
1772286673.696567,1772286673.6522799,-862.3046875,-269.53125,-272.94921875,-659.66796875,0.0,0,0
1772286673.696617,1772286673.6561768,62.01171875,-328.61328125,-317.3828125,-1000.0,0.0,0,0
1772286673.696667,1772286673.6600735,-1000.0,-78.61328125,-64.94140625,-224.609375,0.0,0,0
1772286673.696717,1772286673.6639702,-668.45703125,173.828125,129.39453125,-956.54296875,0.0,0,0
1772286673.69677,1772286673.667867,718.75,7.32421875,-22.4609375,896.484375,0.0,0,0
1772286673.6968188,1772286673.6717637,-845.703125,-347.65625,-314.94140625,-352.5390625,0.0,0,0
1772286673.696867,1772286673.6756604,57.6171875,-455.078125,-390.13671875,-1000.0,0.0,0,0
1772286673.740968,1772286673.6796548,-1000.0,-124.0234375,-135.25390625,-289.55078125,0.0,0,0
1772286673.741071,1772286673.6835515,-716.30859375,140.13671875,74.21875,959.47265625,0.0,0,0
1772286673.741109,1772286673.6874483,646.484375,42.48046875,-16.6015625,-947.265625,0.0,0,0
1772286673.7411468,1772286673.6913452,-825.68359375,-305.6640625,-296.875,-25.390625,0.0,0,0
1772286673.741183,1772286673.695242,148.92578125,-500.9765625,-408.203125,-1000.0,0.0,0,0
1772286673.7412212,1772286673.6991386,-1000.0,-151.85546875,-179.6875,-426.7578125,0.0,0,0
1772286673.741256,1772286673.7030354,-770.5078125,131.34765625,60.546875,877.44140625,0.0,0,0
1772286673.741292,1772286673.7069323,610.3515625,45.8984375,7.8125,-886.71875,0.0,0,0
1772286673.741332,1772286673.710829,-825.68359375,-248.53515625,-278.3203125,115.72265625,0.0,0,0
1772286673.74139,1772286673.7147257,114.2578125,-503.41796875,-423.33984375,-1000.0,0.0,0,0
1772286673.741428,1772286673.7186224,-1000.0,-284.1796875,-250.9765625,-624.51171875,0.0,0,0
1772286673.741463,1772286673.7225194,-608.3984375,72.75390625,7.8125,709.9609375,0.0,0,0
1772286673.786887,1772286673.7265093,801.7578125,90.8203125,-7.32421875,-842.28515625,0.0,0,0
1772286673.787009,1772286673.730406,-866.2109375,-261.71875,-302.734375,156.73828125,0.0,0,0
1772286673.787051,1772286673.7343028,-31.73828125,-531.25,-499.0234375,-1000.0,0.0,0,0
1772286673.7870889,1772286673.7381997,-1000.0,-272.4609375,-333.0078125,-853.02734375,0.0,0,0
1772286673.787127,1772286673.7420964,-233.3984375,191.40625,-29.296875,421.38671875,0.0,0,0
1772286673.787164,1772286673.7459931,989.74609375,203.61328125,3.90625,-800.78125,0.0,0,0
1772286673.7872021,1772286673.74989,-929.6875,-243.1640625,-273.92578125,213.8671875,0.0,0,0
1772286673.787238,1772286673.7537868,53.7109375,-553.7109375,-497.55859375,-1000.0,0.0,0,0
1772286673.787275,1772286673.7576835,-1000.0,-394.53125,-427.734375,-989.74609375,0.0,0,0
1772286673.787315,1772286673.7615805,-405.76171875,19.53125,-165.52734375,178.22265625,0.0,0,0
1772286673.787364,1772286673.7654772,906.73828125,202.1484375,-62.5,-801.26953125,0.0,0,0
1772286673.787404,1772286673.769374,-887.6953125,-212.40234375,-298.828125,349.609375,0.0,0,0
1772286673.831316,1772286673.7733483,167.48046875,-559.08203125,-602.5390625,-956.54296875,0.0,0,0
1772286673.831454,1772286673.777245,-1000.0,-332.03125,-646.484375,-1000.0,0.0,0,0
1772286673.831497,1772286673.7811418,-482.91015625,143.5546875,-381.34765625,47.36328125,0.0,0,0
1772286673.831536,1772286673.7850387,876.953125,313.4765625,-235.3515625,-847.16796875,0.0,0,0
1772286673.831574,1772286673.7889354,-875.9765625,-62.5,-432.6171875,549.31640625,0.0,0,0
1772286673.8316119,1772286673.7928321,208.0078125,-423.33984375,-659.1796875,-766.6015625,0.0,0,0
1772286673.83165,1772286673.796729,-1000.0,-394.53125,-644.04296875,-1000.0,0.0,0,0
1772286673.8316858,1772286673.8006258,-669.921875,40.0390625,-371.58203125,-92.28515625,0.0,0,0
1772286673.831858,1772286673.8045225,728.02734375,330.56640625,-208.984375,-891.6015625,0.0,0,0
1772286673.8319,1772286673.8084195,-836.9140625,-37.59765625,-403.80859375,697.265625,0.0,0,0
1772286673.831948,1772286673.8123162,178.7109375,-458.49609375,-659.66796875,-580.56640625,0.0,0,0
1772286673.831986,1772286673.8162131,-1000.0,-449.21875,-672.36328125,-1000.0,0.0,0,0
1772286673.875505,1772286673.820174,-869.62890625,52.24609375,-395.99609375,-164.0625,0.0,0,0
1772286673.875629,1772286673.824071,465.8203125,338.8671875,-245.1171875,-931.15234375,0.0,0,0
1772286673.8756568,1772286673.8279676,-791.015625,-48.828125,-448.73046875,794.921875,0.0,0,0
1772286673.875683,1772286673.8318646,172.8515625,-530.2734375,-719.7265625,-408.203125,0.0,0,0
1772286673.8757079,1772286673.8357613,-1000.0,-580.56640625,-768.5546875,-1000.0,0.0,0,0
1772286673.875733,1772286673.839658,-1000.0,-168.45703125,-559.08203125,-348.6328125,0.0,0,0
1772286673.8757582,1772286673.843555,128.90625,120.1171875,-403.80859375,964.84375,0.0,0,0
1772286673.8757918,1772286673.8474517,-764.6484375,-55.6640625,-471.6796875,923.33984375,0.0,0,0
1772286673.875828,1772286673.8513486,305.6640625,-552.24609375,-685.546875,-235.3515625,0.0,0,0
1772286673.87587,1772286673.8552454,-971.19140625,-754.39453125,-749.0234375,-1000.0,0.0,0,0
1772286673.875902,1772286673.859142,-1000.0,-250.48828125,-497.55859375,-470.703125,0.0,0,0
1772286673.875935,1772286673.863039,-21.484375,196.2890625,-277.83203125,851.5625,0.0,0,0
1772286673.934612,1772286673.866996,-796.875,59.5703125,-341.30859375,-995.1171875,0.0,0,0
1772286673.9347908,1772286673.870893,498.53515625,-424.8046875,-594.7265625,-121.58203125,0.0,0,0
1772286673.93485,1772286673.8747897,-856.93359375,-637.20703125,-724.12109375,-1000.0,0.0,0,0
1772286673.934902,1772286673.8786867,-1000.0,-204.58984375,-531.25,-656.25,0.0,0,0
1772286673.934952,1772286673.8825834,-185.546875,255.37109375,-260.25390625,626.953125,0.0,0,0
1772286673.935004,1772286673.8864803,-892.578125,208.0078125,-244.140625,-891.6015625,0.0,0,0
1772286673.935055,1772286673.890377,743.65234375,-394.53125,-503.41796875,25.390625,0.0,0,0
1772286673.935104,1772286673.894274,-623.046875,-735.83984375,-652.83203125,-1000.0,0.0,0,0
1772286673.935153,1772286673.8981707,-1000.0,-335.9375,-493.65234375,-812.01171875,0.0,0,0
1772286673.935203,1772286673.9020677,-190.91796875,202.1484375,-214.84375,390.625,0.0,0,0
1772286673.935252,1772286673.9059644,-961.9140625,221.6796875,-175.78125,-840.8203125,0.0,0,0
1772286673.9353018,1772286673.909861,951.66015625,-329.1015625,-419.43359375,190.4296875,0.0,0,0
1772286673.980772,1772286673.9137974,-319.3359375,-659.66796875,-586.42578125,-1000.0,0.0,0,0
1772286673.980905,1772286673.917694,-1000.0,-333.984375,-476.5625,-906.25,0.0,0,0
1772286673.980938,1772286673.921591,-171.875,268.06640625,-197.75390625,254.8828125,0.0,0,0
1772286673.980991,1772286673.9254878,-995.1171875,370.1171875,-111.81640625,-834.9609375,0.0,0,0
1772286673.98105,1772286673.9293847,-954.58984375,-229.00390625,-335.9375,311.03515625,0.0,0,0
1772286673.9810839,1772286673.9332814,-63.4765625,-572.265625,-541.015625,-946.2890625,0.0,0,0
1772286673.9811149,1772286673.9371781,-1000.0,-384.765625,-491.2109375,-1000.0,0.0,0,0
1772286673.981143,1772286673.941075,-328.125,200.1953125,-231.4453125,44.921875,0.0,0,0
1772286673.981171,1772286673.9449718,937.98828125,437.01171875,-123.046875,-855.95703125,0.0,0,0
1772286673.981214,1772286673.9488688,-906.25,-123.046875,-321.77734375,489.2578125,0.0,0,0
1772286673.9812381,1772286673.9527655,102.5390625,-499.51171875,-516.6015625,-786.1328125,0.0,0,0
1772286673.9812632,1772286673.9566624,-1000.0,-340.33203125,-492.1875,-1000.0,0.0,0,0
1772286674.027037,1772286673.9606802,-518.06640625,270.99609375,-248.046875,-65.91796875,0.0,0,0
1772286674.027146,1772286673.964577,845.21484375,563.96484375,-88.8671875,-899.90234375,0.0,0,0
1772286674.0272,1772286673.968474,-864.2578125,78.61328125,-243.65234375,637.6953125,0.0,0,0
1772286674.027252,1772286673.9723706,196.2890625,-433.59375,-482.91015625,-618.1640625,0.0,0,0
1772286674.027303,1772286673.9762676,-1000.0,-375.48828125,-494.140625,-1000.0,0.0,0,0
1772286674.027354,1772286673.9801645,-772.4609375,238.76953125,-228.515625,-192.3828125,0.0,0,0
1772286674.027405,1772286673.9840612,604.4921875,478.02734375,-63.96484375,-951.171875,0.0,0,0
1772286674.027515,1772286673.9879582,-812.5,55.6640625,-216.30859375,735.83984375,0.0,0,0
1772286674.0276039,1772286673.991855,159.66796875,-430.17578125,-447.75390625,-477.5390625,0.0,0,0
1772286674.0276659,1772286673.9957519,-1000.0,-433.10546875,-479.00390625,-1000.0,0.0,0,0
1772286674.027719,1772286673.9996486,-997.0703125,176.26953125,-227.5390625,-378.41796875,0.0,0,0
1772286674.027771,1772286674.0035455,251.953125,542.48046875,-31.25,927.24609375,0.0,0,0
1772286674.0709949,1772286674.007552,-767.578125,209.47265625,-120.60546875,848.14453125,0.0,0,0
1772286674.071136,1772286674.0114489,208.49609375,-367.1875,-375.0,-325.1953125,0.0,0,0
1772286674.07118,1772286674.0153456,-1000.0,-485.83984375,-460.44921875,-1000.0,0.0,0,0
1772286674.0712168,1772286674.0192425,-1000.0,111.81640625,-210.44921875,-473.6328125,0.0,0,0
1772286674.0712562,1772286674.0231395,30.2734375,526.85546875,18.5546875,823.73046875,0.0,0,0
1772286674.071294,1772286674.0270362,-777.34375,321.77734375,-29.296875,-986.328125,0.0,0,0
1772286674.071332,1772286674.0309331,408.69140625,-253.90625,-259.765625,-111.328125,0.0,0,0
1772286674.071368,1772286674.0348299,-912.109375,-476.5625,-363.28125,-1000.0,0.0,0,0
1772286674.071424,1772286674.0387268,-1000.0,68.359375,-156.25,-629.39453125,0.0,0,0
1772286674.071459,1772286674.0426238,-134.765625,542.96875,70.3125,666.50390625,0.0,0,0
1772286674.0714939,1772286674.0465205,-848.6328125,394.04296875,40.52734375,-927.24609375,0.0,0,0
1772286674.0715399,1772286674.0504174,633.30078125,-176.7578125,-186.5234375,-16.6015625,0.0,0,0
1772286674.115403,1772286674.05441,-741.2109375,-418.9453125,-313.4765625,-1000.0,0.0,0,0
1772286674.115461,1772286674.058307,-1000.0,-19.04296875,-156.25,-766.11328125,0.0,0,0
1772286674.115478,1772286674.062204,-203.61328125,481.4453125,88.8671875,483.88671875,0.0,0,0
1772286674.1154938,1772286674.0661008,-940.4296875,465.33203125,101.5625,-877.44140625,0.0,0,0
1772286674.115509,1772286674.0699975,879.8828125,-114.2578125,-154.296875,43.45703125,0.0,0,0
1772286674.115573,1772286674.0738945,-440.4296875,-437.01171875,-330.56640625,-1000.0,0.0,0,0
1772286674.115641,1772286674.0777915,-1000.0,-185.05859375,-212.890625,-923.828125,0.0,0,0
1772286674.11569,1772286674.0816882,-174.8046875,322.265625,51.26953125,229.98046875,0.0,0,0
1772286674.1157079,1772286674.085585,-991.69921875,428.7109375,92.28515625,-834.47265625,0.0,0,0
1772286674.115825,1772286674.089482,-964.35546875,-129.8828125,-174.8046875,156.25,0.0,0,0
1772286674.11585,1772286674.093379,-119.62890625,-517.08984375,-370.60546875,-1000.0,0.0,0,0
1772286674.1158662,1772286674.0972757,-1000.0,-276.3671875,-281.25,-1000.0,0.0,0,0
1772286674.16011,1772286674.1012554,-273.92578125,378.41796875,11.23046875,55.6640625,0.0,0,0
1772286674.160208,1772286674.1051524,958.984375,541.9921875,120.1171875,-827.1484375,0.0,0,0
1772286674.160224,1772286674.1090493,-916.50390625,-66.89453125,-110.3515625,337.40234375,0.0,0,0
1772286674.1602392,1772286674.112946,78.61328125,-470.703125,-305.6640625,-920.41015625,0.0,0,0
1772286674.1602519,1772286674.116843,-1000.0,-353.515625,-252.44140625,-1000.0,0.0,0,0
1772286674.160265,1772286674.12074,-455.078125,289.55078125,24.90234375,-109.86328125,0.0,0,0
1772286674.160279,1772286674.124637,879.39453125,573.73046875,166.50390625,-862.79296875,0.0,0,0
1772286674.1602921,1772286674.1285336,-876.46484375,15.625,-39.55078125,544.921875,0.0,0,0
1772286674.1603048,1772286674.1324306,207.03125,-446.2890625,-264.16015625,-744.140625,0.0,0,0
1772286674.160318,1772286674.1363275,-1000.0,-378.41796875,-259.27734375,-1000.0,0.0,0,0
1772286674.16033,1772286674.1402245,-702.1484375,244.140625,21.484375,-173.33984375,0.0,0,0
1772286674.160343,1772286674.1441214,692.3828125,548.33984375,203.61328125,-912.59765625,0.0,0,0
1772286674.2202492,1772286674.148182,-828.61328125,110.3515625,44.921875,683.10546875,0.0,0,0
1772286674.220282,1772286674.1520789,170.8984375,-438.96484375,-208.0078125,-565.91796875,0.0,0,0
1772286674.220294,1772286674.1559758,-1000.0,-444.3359375,-230.95703125,-1000.0,0.0,0,0
1772286674.220306,1772286674.1598728,-926.7578125,151.3671875,30.76171875,-294.43359375,0.0,0,0
1772286674.220317,1772286674.1637697,376.953125,534.66796875,214.35546875,-994.62890625,0.0,0,0
1772286674.220329,1772286674.1676667,-778.3203125,233.3984375,112.3046875,835.44921875,0.0,0,0
1772286674.22034,1772286674.1715636,188.4765625,-428.7109375,-154.78515625,-350.09765625,0.0,0,0
1772286674.2203531,1772286674.1754606,-1000.0,-588.8671875,-239.74609375,-1000.0,0.0,0,0
1772286674.220364,1772286674.1793575,-1000.0,32.2265625,16.6015625,-441.89453125,0.0,0,0
1772286674.220375,1772286674.1832542,62.01171875,433.10546875,218.75,891.11328125,0.0,0,0
1772286674.220386,1772286674.1871512,-770.5078125,203.125,145.01953125,929.19921875,0.0,0,0
1772286674.220397,1772286674.1910481,369.140625,-379.8828125,-113.76953125,-233.3984375,0.0,0,0
1772286674.2503018,1772286674.1950052,-931.640625,-575.68359375,-236.81640625,-1000.0,0.0,0,0
1772286674.250335,1772286674.1989021,-1000.0,-36.1328125,-19.53125,-589.35546875,0.0,0,0
1772286674.2503512,1772286674.202799,-120.60546875,460.44921875,224.12109375,736.81640625,0.0,0,0
1772286674.250365,1772286674.206696,-827.63671875,303.7109375,210.9375,-958.984375,0.0,0,0
1772286674.250379,1772286674.210593,561.03515625,-367.1875,-42.96875,-98.14453125,0.0,0,0
1772286674.250392,1772286674.21449,-812.5,-611.81640625,-178.7109375,-1000.0,0.0,0,0
1772286674.250405,1772286674.218387,-1000.0,-127.9296875,0.0,-748.046875,0.0,0,0
1772286674.250417,1772286674.2222838,-214.84375,418.45703125,247.0703125,520.99609375,0.0,0,0
1772286674.2504299,1772286674.2261808,-919.921875,376.46484375,260.7421875,-874.51171875,0.0,0,0
1772286674.250443,1772286674.2300777,810.546875,-295.8984375,1.46484375,30.2734375,0.0,0,0
1772286674.2504551,1772286674.2339747,-543.45703125,-673.828125,-171.875,-1000.0,0.0,0,0
1772286674.250468,1772286674.2378714,-1000.0,-261.71875,-30.2734375,-849.12109375,0.0,0,0
1772286674.296128,1772286674.241817,-179.19921875,429.6875,248.53515625,378.41796875,0.0,0,0
1772286674.296157,1772286674.245714,-986.328125,444.82421875,286.62109375,-861.81640625,0.0,0,0
1772286674.296174,1772286674.249611,-980.95703125,-248.046875,41.015625,-4.8828125,0.0,0,0
1772286674.296191,1772286674.2535079,-174.8046875,-593.26171875,-125.48828125,-1000.0,0.0,0,0
1772286674.296208,1772286674.2574048,-1000.0,-298.33984375,-24.90234375,-979.98046875,0.0,0,0
1772286674.296224,1772286674.2613018,-237.3046875,365.72265625,267.578125,165.52734375,0.0,0,0
1772286674.2962408,1772286674.2651987,974.609375,467.28515625,367.67578125,-793.9453125,0.0,0,0
1772286674.296257,1772286674.2690957,-929.19921875,-139.16015625,131.8359375,166.50390625,0.0,0,0
1772286674.296274,1772286674.2729926,33.69140625,-473.6328125,-61.03515625,-1000.0,0.0,0,0
1772286674.296318,1772286674.2768896,-1000.0,-298.828125,-4.39453125,-1000.0,0.0,0,0
1772286674.296355,1772286674.2807865,-448.2421875,352.5390625,273.4375,-14.16015625,0.0,0,0
1772286674.296374,1772286674.2846835,877.9296875,657.2265625,413.0859375,-814.94140625,0.0,0,0
1772286674.354551,1772286674.2886164,-876.953125,94.7265625,206.54296875,355.46875,0.0,0,0
1772286674.354609,1772286674.2925134,196.77734375,-380.37109375,-15.625,-926.26953125,0.0,0,0
1772286674.3546398,1772286674.2964103,-1000.0,-280.2734375,4.39453125,-1000.0,0.0,0,0
1772286674.354666,1772286674.3003073,-674.8046875,359.86328125,270.01953125,-144.04296875,0.0,0,0
1772286674.354692,1772286674.3042042,719.7265625,688.96484375,417.48046875,-854.98046875,0.0,0,0
1772286674.354717,1772286674.3081012,-833.984375,151.3671875,238.28125,535.64453125,0.0,0,0
1772286674.354741,1772286674.3119981,171.38671875,-442.87109375,-8.7890625,-769.04296875,0.0,0,0
1772286674.354765,1772286674.315895,-1000.0,-423.33984375,-37.109375,-1000.0,0.0,0,0
1772286674.354787,1772286674.319792,-934.08203125,215.8203125,215.8203125,-204.58984375,0.0,0,0
1772286674.354811,1772286674.323689,370.60546875,586.42578125,405.2734375,-915.52734375,0.0,0,0
1772286674.354836,1772286674.327586,-778.80859375,219.7265625,296.875,728.02734375,0.0,0,0
1772286674.35486,1772286674.331483,160.15625,-338.8671875,65.4296875,-531.73828125,0.0,0,0
1772286674.4008389,1772286674.3354974,-1000.0,-383.30078125,15.625,-1000.0,0.0,0,0
1772286674.400921,1772286674.3393943,-1000.0,215.8203125,263.18359375,-265.625,0.0,0,0
1772286674.400954,1772286674.3432915,75.1953125,623.53515625,466.30859375,-979.98046875,0.0,0,0
1772286674.400991,1772286674.3471885,-765.625,378.41796875,381.34765625,893.06640625,0.0,0,0
1772286674.401022,1772286674.3510854,317.87109375,-247.0703125,100.5859375,-290.0390625,0.0,0,0
1772286674.401052,1772286674.3549824,-956.0546875,-449.21875,-19.53125,-1000.0,0.0,0,0
1772286674.4010801,1772286674.3588793,-1000.0,86.42578125,193.84765625,-432.12890625,0.0,0,0
1772286674.401108,1772286674.3627763,-120.60546875,548.828125,400.390625,921.38671875,0.0,0,0
1772286674.4011362,1772286674.3666732,-815.4296875,318.84765625,335.9375,965.33203125,0.0,0,0
1772286674.401165,1772286674.3705702,513.18359375,-331.0546875,49.8046875,-187.98828125,0.0,0,0
1772286674.401193,1772286674.3744671,-857.91015625,-589.84375,-91.30859375,-1000.0,0.0,0,0
1772286674.401221,1772286674.378364,-1000.0,-93.26171875,119.140625,-587.40234375,0.0,0,0
1772286674.446829,1772286674.3823707,-219.23828125,473.6328125,399.4140625,750.48828125,0.0,0,0
1772286674.446969,1772286674.386268,-914.0625,394.04296875,419.43359375,-905.76171875,0.0,0,0
1772286674.447028,1772286674.3901649,790.0390625,-249.51171875,161.62109375,-15.625,0.0,0,0
1772286674.447082,1772286674.3940618,-572.75390625,-586.9140625,11.23046875,-1000.0,0.0,0,0
1772286674.4471328,1772286674.3979588,-1000.0,-187.01171875,188.96484375,-773.92578125,0.0,0,0
1772286674.447186,1772286674.4018557,-182.6171875,423.828125,501.953125,528.80859375,0.0,0,0
1772286674.447247,1772286674.4057527,-979.98046875,412.109375,537.109375,-834.47265625,0.0,0,0
1772286674.447299,1772286674.4096498,-996.58203125,-245.1171875,233.3984375,67.3828125,0.0,0,0
1772286674.447349,1772286674.4135468,-216.30859375,-583.49609375,27.83203125,-1000.0,0.0,0,0
1772286674.4474099,1772286674.4174438,-1000.0,-293.45703125,137.6953125,-921.38671875,0.0,0,0
1772286674.4474602,1772286674.4213407,-222.16796875,314.453125,437.5,276.85546875,0.0,0,0
1772286674.4475121,1772286674.4252377,981.4453125,412.59765625,507.8125,-798.828125,0.0,0,0
1772286674.521735,1772286674.4294143,-936.03515625,-161.62109375,248.53515625,187.98828125,0.0,0,0
1772286674.521898,1772286674.4333115,4.39453125,-556.640625,46.38671875,-1000.0,0.0,0,0
1772286674.521966,1772286674.4372084,-1000.0,-352.5390625,97.16796875,-1000.0,0.0,0,0
1772286674.522017,1772286674.4411054,-426.7578125,296.38671875,380.37109375,13.18359375,0.0,0,0
1772286674.522072,1772286674.4450026,886.23046875,520.99609375,509.27734375,-805.6640625,0.0,0,0
1772286674.5221329,1772286674.4488995,-880.37109375,4.8828125,285.64453125,337.40234375,0.0,0,0
1772286674.522182,1772286674.4527965,191.89453125,-471.6796875,57.12890625,-943.359375,0.0,0,0
1772286674.522232,1772286674.4566936,-1000.0,-422.8515625,61.5234375,-1000.0,0.0,0,0
1772286674.52228,1772286674.4605906,-667.96875,196.2890625,336.42578125,-117.67578125,0.0,0,0
1772286674.522333,1772286674.4644878,726.07421875,516.11328125,505.37109375,-850.09765625,0.0,0,0
1772286674.522382,1772286674.4683847,-835.44921875,61.03515625,330.078125,517.578125,0.0,0,0
1772286674.522431,1772286674.4722817,174.31640625,-442.3828125,75.68359375,-794.43359375,0.0,0,0
1772286674.5372128,1772286674.4762762,-1000.0,-372.55859375,63.4765625,-1000.0,0.0,0,0
1772286674.537279,1772286674.480173,-914.0625,234.86328125,363.76953125,-146.484375,0.0,0,0
1772286674.53733,1772286674.4840703,403.80859375,570.3125,543.45703125,-896.484375,0.0,0,0
1772286674.53738,1772286674.4879673,-782.71484375,251.46484375,397.94921875,687.01171875,0.0,0,0
1772286674.5376709,1772286674.4918642,145.01953125,-317.3828125,126.46484375,-583.49609375,0.0,0,0
1772286674.53772,1772286674.4957614,-1000.0,-360.3515625,65.4296875,-1000.0,0.0,0,0
1772286674.537756,1772286674.4996583,-1000.0,122.0703125,314.453125,-274.90234375,0.0,0,0
1772286674.537792,1772286674.5035555,80.078125,447.75390625,504.8828125,-967.28515625,0.0,0,0
1772286674.5378292,1772286674.5074525,-764.6484375,269.53125,412.59765625,829.1015625,0.0,0,0
1772286674.537865,1772286674.5113497,302.24609375,-283.69140625,123.53515625,-388.18359375,0.0,0,0
1772286674.5379012,1772286674.5152466,-964.84375,-410.64453125,21.97265625,-1000.0,0.0,0,0
1772286674.537936,1772286674.5191438,-1000.0,137.6953125,265.13671875,-390.625,0.0,0,0
1772286674.581121,1772286674.5231192,-104.00390625,565.4296875,480.95703125,949.70703125,0.0,0,0
1772286674.581219,1772286674.5270162,-810.546875,382.32421875,417.96875,951.171875,0.0,0,0
1772286674.581262,1772286674.5309134,502.44140625,-225.5859375,133.30078125,-207.51953125,0.0,0,0
1772286674.581302,1772286674.5348103,-861.81640625,-484.86328125,-4.39453125,-1000.0,0.0,0,0
1772286674.581339,1772286674.5387075,-1000.0,8.30078125,224.12109375,-561.03515625,0.0,0,0
1772286674.581376,1772286674.5426044,-221.19140625,530.76171875,499.51171875,790.52734375,0.0,0,0
1772286674.581414,1772286674.5465016,-910.15625,388.18359375,485.83984375,-939.94140625,0.0,0,0
1772286674.58145,1772286674.5503986,776.3671875,-206.0546875,208.49609375,-68.359375,0.0,0,0
1772286674.5814872,1772286674.5542958,-590.8203125,-449.70703125,51.26953125,-1000.0,0.0,0,0
1772286674.581523,1772286674.5581927,-1000.0,-75.1953125,205.56640625,-766.11328125,0.0,0,0
1772286674.581559,1772286674.56209,-185.05859375,460.9375,468.75,535.64453125,0.0,0,0
1772286674.581595,1772286674.5659869,-974.609375,444.82421875,489.74609375,-840.33203125,0.0,0,0
1772286674.625195,1772286674.5699499,988.28125,-146.484375,220.703125,59.5703125,0.0,0,0
1772286674.62524,1772286674.5738468,-249.0234375,-499.0234375,54.19921875,-1000.0,0.0,0,0
1772286674.625259,1772286674.577744,-1000.0,-241.69921875,193.359375,-895.99609375,0.0,0,0
1772286674.625386,1772286674.581641,-195.80078125,362.79296875,497.0703125,321.2890625,0.0,0,0
1772286674.625421,1772286674.5855381,993.65234375,429.19921875,557.6171875,-800.78125,0.0,0,0
1772286674.62544,1772286674.5894353,-945.3125,-190.4296875,266.11328125,161.62109375,0.0,0,0
1772286674.6254568,1772286674.5933323,-22.94921875,-565.91796875,50.78125,-1000.0,0.0,0,0
1772286674.625474,1772286674.5972295,-1000.0,-395.01953125,118.1640625,-1000.0,0.0,0,0
1772286674.625552,1772286674.6011264,-410.15625,199.21875,410.64453125,2.9296875,0.0,0,0
1772286674.62559,1772286674.6050236,895.01953125,441.89453125,557.6171875,-803.7109375,0.0,0,0
1772286674.625612,1772286674.6089206,-885.7421875,-119.140625,305.17578125,307.12890625,0.0,0,0
1772286674.62563,1772286674.6128178,165.52734375,-537.59765625,53.22265625,-965.33203125,0.0,0,0
1772286674.686003,1772286674.6167684,-1000.0,-404.296875,92.7734375,-1000.0,0.0,0,0
1772286674.686034,1772286674.6206653,-601.07421875,189.453125,393.5546875,-100.09765625,0.0,0,0
1772286674.686045,1772286674.6245625,789.0625,465.8203125,561.03515625,-842.7734375,0.0,0,0
1772286674.686055,1772286674.6284597,-848.6328125,-29.296875,352.5390625,491.69921875,0.0,0,0
1772286674.6860642,1772286674.6323566,183.10546875,-494.140625,79.1015625,-812.98828125,0.0,0,0
1772286674.686073,1772286674.6362538,-1000.0,-399.4140625,41.9921875,-1000.0,0.0,0,0
1772286674.6860821,1772286674.6401508,-861.328125,121.09375,278.80859375,-186.5234375,0.0,0,0
1772286674.686091,1772286674.644048,483.3984375,450.1953125,451.66015625,-893.5546875,0.0,0,0
1772286674.6861,1772286674.6479452,-792.96875,107.91015625,307.6171875,665.52734375,0.0,0,0
1772286674.6861088,1772286674.651842,148.92578125,-415.0390625,6.8359375,-617.67578125,0.0,0,0
1772286674.6861188,1772286674.6557393,-1000.0,-457.51953125,-67.87109375,-1000.0,0.0,0,0
1772286674.686156,1772286674.6596363,-1000.0,83.0078125,206.54296875,-253.90625,0.0,0,0
1772286674.7300942,1772286674.6635907,130.37109375,479.98046875,396.484375,-952.63671875,0.0,0,0
1772286674.730125,1772286674.6674876,-762.6953125,169.921875,290.0390625,798.828125,0.0,0,0
1772286674.7301362,1772286674.6713848,287.109375,-445.3125,15.13671875,-423.33984375,0.0,0,0
1772286674.730145,1772286674.675282,-975.5859375,-556.640625,-84.9609375,-1000.0,0.0,0,0
1772286674.7301528,1772286674.679179,-1000.0,34.66796875,157.71484375,-378.90625,0.0,0,0
1772286674.7301629,1772286674.6830761,-45.41015625,525.87890625,379.8828125,960.44921875,0.0,0,0
1772286674.730171,1772286674.6869733,-795.8984375,325.1953125,310.05859375,934.08203125,0.0,0,0
1772286674.73018,1772286674.6908703,470.21484375,-277.83203125,11.23046875,-234.375,0.0,0,0
1772286674.7301881,1772286674.6947675,-875.0,-463.8671875,-126.953125,-1000.0,0.0,0,0
1772286674.730197,1772286674.6986644,-1000.0,8.30078125,87.40234375,-542.48046875,0.0,0,0
1772286674.730218,1772286674.7025616,-214.35546875,462.890625,351.5625,829.58984375,0.0,0,0
1772286674.730237,1772286674.7064588,-900.390625,360.83984375,322.75390625,991.69921875,0.0,0,0
1772286674.774648,1772286674.7104762,752.44140625,-166.9921875,43.45703125,-164.55078125,0.0,0,0
1772286674.774682,1772286674.7143734,-619.140625,-446.2890625,-98.14453125,-1000.0,0.0,0,0
1772286674.774693,1772286674.7182703,-1000.0,-115.234375,63.96484375,-705.56640625,0.0,0,0
1772286674.774702,1772286674.7221675,-188.96484375,432.12890625,351.07421875,599.609375,0.0,0,0
1772286674.77471,1772286674.7260647,-966.796875,421.38671875,392.08984375,-851.5625,0.0,0,0
1772286674.774719,1772286674.7299616,966.30859375,-136.23046875,146.484375,54.19921875,0.0,0,0
1772286674.7747278,1772286674.7338588,-292.96875,-479.98046875,-20.01953125,-1000.0,0.0,0,0
1772286674.774736,1772286674.737756,-1000.0,-197.265625,94.7265625,-877.44140625,0.0,0,0
1772286674.774744,1772286674.7416532,-180.6640625,393.5546875,373.046875,354.00390625,0.0,0,0
1772286674.774753,1772286674.7455502,-998.53515625,456.54296875,425.78125,-803.22265625,0.0,0,0
1772286674.774761,1772286674.7494473,-952.1484375,-127.9296875,140.13671875,160.15625,0.0,0,0
1772286674.77477,1772286674.7533445,-53.22265625,-525.390625,-75.1953125,-1000.0,0.0,0,0
1772286674.822509,1772286674.7573595,-1000.0,-356.93359375,-6.34765625,-1000.0,0.0,0,0
1772286674.8225448,1772286674.7612567,-351.07421875,259.27734375,277.34375,92.7734375,0.0,0,0
1772286674.82256,1772286674.765154,926.7578125,481.4453125,414.55078125,-802.24609375,0.0,0,0
1772286674.822573,1772286674.7690508,-900.390625,-40.52734375,204.1015625,313.4765625,0.0,0,0
1772286674.822586,1772286674.772948,123.046875,-504.39453125,-22.4609375,-962.40234375,0.0,0,0
1772286674.822598,1772286674.7768452,-1000.0,-411.1328125,16.11328125,-1000.0,0.0,0,0
1772286674.822609,1772286674.7807424,-580.56640625,164.55078125,296.875,-70.3125,0.0,0,0
1772286674.8226209,1772286674.7846396,798.828125,473.6328125,460.9375,-832.51953125,0.0,0,0
1772286674.8226318,1772286674.7885365,-851.07421875,54.6875,270.01953125,452.1484375,0.0,0,0
1772286674.822647,1772286674.7924337,187.98828125,-404.296875,-4.8828125,-851.07421875,0.0,0,0
1772286674.822659,1772286674.796331,-1000.0,-347.16796875,-17.08984375,-1000.0,0.0,0,0
1772286674.822678,1772286674.800228,-823.2421875,184.08203125,269.04296875,-159.66796875,0.0,0,0
1772286674.866863,1772286674.8042238,538.0859375,539.0625,477.5390625,-891.11328125,0.0,0,0
1772286674.866904,1772286674.808121,-801.26953125,192.3828125,336.42578125,669.921875,0.0,0,0
1772286674.866922,1772286674.812018,152.83203125,-355.46875,38.57421875,-606.4453125,0.0,0,0
1772286674.866938,1772286674.815915,-1000.0,-436.03515625,-41.9921875,-1000.0,0.0,0,0
1772286674.866952,1772286674.8198123,-1000.0,120.60546875,214.84375,-227.5390625,0.0,0,0
1772286674.866967,1772286674.8237095,184.08203125,510.7421875,406.25,-939.94140625,0.0,0,0
1772286674.866981,1772286674.8276067,-761.23046875,229.00390625,297.36328125,793.45703125,0.0,0,0
1772286674.866996,1772286674.8315039,217.28515625,-304.6875,9.27734375,-441.89453125,0.0,0,0
1772286674.86708,1772286674.835401,-1000.0,-413.57421875,-92.7734375,-1000.0,0.0,0,0
1772286674.867096,1772286674.839298,-1000.0,125.0,169.43359375,-332.03125,0.0,0,0
1772286674.867111,1772286674.8431952,-35.15625,539.0625,405.76171875,972.65625,0.0,0,0
1772286674.867125,1772286674.8470924,-785.64453125,326.66015625,363.28125,961.9140625,0.0,0,0
1772286674.909867,1772286674.851077,411.62109375,-231.93359375,112.3046875,-177.24609375,0.0,0,0
1772286674.909909,1772286674.8549743,-909.1796875,-427.24609375,-19.04296875,-1000.0,0.0,0,0
1772286674.909924,1772286674.8588715,-1000.0,49.31640625,187.01171875,-482.91015625,0.0,0,0
1772286674.909937,1772286674.8627687,-210.44921875,491.2109375,423.828125,852.05078125,0.0,0,0
1772286674.90995,1772286674.8666658,-869.140625,338.8671875,377.9296875,-946.77734375,0.0,0,0
1772286674.909963,1772286674.870563,649.90234375,-188.96484375,78.125,-52.734375,0.0,0,0
1772286674.909976,1772286674.87446,-740.72265625,-454.58984375,-96.19140625,-1000.0,0.0,0,0
1772286674.9099882,1772286674.8783572,-1000.0,-54.19921875,92.7734375,-664.55078125,0.0,0,0
1772286674.91002,1772286674.8822544,-200.1953125,465.33203125,367.1875,648.4375,0.0,0,0
1772286674.9100502,1772286674.8861516,-949.21875,410.64453125,372.0703125,-859.86328125,0.0,0,0
1772286674.910066,1772286674.8900487,908.69140625,-128.41796875,104.98046875,59.08203125,0.0,0,0
1772286674.91008,1772286674.893946,-395.5078125,-414.0625,-66.40625,-1000.0,0.0,0,0
1772286674.9552798,1772286674.8979135,-1000.0,-125.9765625,47.8515625,-867.1875,0.0,0,0
1772286674.955319,1772286674.9018106,-173.33984375,408.69140625,331.0546875,372.55859375,0.0,0,0
1772286674.955338,1772286674.9057078,-993.65234375,450.68359375,390.625,-803.7109375,0.0,0,0
1772286674.955358,1772286674.909605,-960.9375,-101.07421875,116.2109375,160.64453125,0.0,0,0
1772286674.9553752,1772286674.9135022,-93.26171875,-416.9921875,-69.82421875,-1000.0,0.0,0,0
1772286674.955392,1772286674.9173994,-1000.0,-189.94140625,16.11328125,-973.6328125,0.0,0,0
1772286674.9554079,1772286674.9212966,-334.9609375,337.40234375,309.5703125,166.50390625,0.0,0,0
1772286674.955424,1772286674.9251938,932.12890625,471.19140625,438.96484375,-803.7109375,0.0,0,0
1772286674.955441,1772286674.929091,-904.78515625,-19.04296875,180.6640625,296.38671875,0.0,0,0
1772286674.9554582,1772286674.9329882,101.5625,-387.20703125,-81.54296875,-974.12109375,0.0,0,0
1772286674.955477,1772286674.9368854,-1000.0,-265.13671875,-64.453125,-1000.0,0.0,0,0
1772286674.955492,1772286674.9407825,-538.57421875,248.53515625,209.9609375,-31.25,0.0,0,0
1772286675.0145102,1772286674.944742,832.51953125,508.7890625,353.02734375,-832.03125,0.0,0,0
1772286675.014563,1772286674.9486392,-859.375,45.41015625,140.13671875,449.21875,0.0,0,0
1772286675.0145879,1772286674.9525363,193.359375,-443.84765625,-117.1875,-862.3046875,0.0,0,0
1772286675.014611,1772286674.9564335,-1000.0,-334.47265625,-108.88671875,-1000.0,0.0,0,0
1772286675.014633,1772286674.9603307,-788.57421875,196.2890625,189.453125,-120.1171875,0.0,0,0
1772286675.0146592,1772286674.964228,583.984375,464.84375,372.0703125,-884.765625,0.0,0,0
1772286675.0146828,1772286674.968125,-808.59375,71.2890625,218.26171875,658.69140625,0.0,0,0
1772286675.014706,1772286674.9720223,156.25,-451.66015625,-50.29296875,-628.41796875,0.0,0,0
1772286675.014729,1772286674.9759195,-1000.0,-411.62109375,-104.98046875,-1000.0,0.0,0,0
1772286675.014783,1772286674.9798167,-1000.0,154.296875,164.0625,-188.96484375,0.0,0,0
1772286675.014828,1772286674.9837139,216.796875,480.95703125,361.81640625,-934.08203125,0.0,0,0
1772286675.014854,1772286674.987611,-764.6484375,209.9609375,246.58203125,814.94140625,0.0,0,0
1772286675.059165,1772286674.9915564,248.53515625,-330.078125,-41.50390625,-415.52734375,0.0,0,0
1772286675.059244,1772286674.9954536,-991.69921875,-447.75390625,-141.11328125,-1000.0,0.0,0,0
1772286675.0592709,1772286674.9993508,-1000.0,96.19140625,134.765625,-286.1328125,0.0,0,0
1772286675.059296,1772286675.003248,-9.27734375,484.375,366.69921875,991.69921875,0.0,0,0
1772286675.0593238,1772286675.0071452,-785.64453125,282.71484375,278.3203125,947.265625,0.0,0,0
1772286675.0593479,1772286675.0110424,429.19921875,-192.3828125,-11.71875,-166.50390625,0.0,0,0
1772286675.0593731,1772286675.0149395,-898.4375,-400.390625,-147.94921875,-1000.0,0.0,0,0
1772286675.059396,1772286675.0188367,-1000.0,23.4375,71.77734375,-464.84375,0.0,0,0
1772286675.059419,1772286675.022734,-190.4296875,469.23828125,331.54296875,873.046875,0.0,0,0
1772286675.059443,1772286675.026631,-868.65234375,354.98046875,293.45703125,-953.125,0.0,0,0
1772286675.059466,1772286675.0305285,662.109375,-168.9453125,-3.90625,-48.828125,0.0,0,0
1772286675.0595012,1772286675.0344257,-722.65625,-471.6796875,-184.08203125,-1000.0,0.0,0,0
1772286675.1214669,1772286675.0385416,-1000.0,-104.4921875,-19.53125,-651.3671875,0.0,0,0
1772286675.1216269,1772286675.0424387,-198.73046875,400.87890625,269.53125,670.41015625,0.0,0,0
1772286675.121686,1772286675.046336,-951.66015625,378.90625,284.1796875,-865.72265625,0.0,0,0
1772286675.121739,1772286675.0502331,915.52734375,-147.4609375,-4.39453125,57.6171875,0.0,0,0
1772286675.121791,1772286675.0541306,-383.30078125,-465.8203125,-172.8515625,-1000.0,0.0,0,0
1772286675.121841,1772286675.0580277,-1000.0,-127.9296875,-38.57421875,-825.68359375,0.0,0,0
1772286675.121891,1772286675.061925,-173.33984375,391.6015625,251.953125,431.640625,0.0,0,0
1772286675.121943,1772286675.0658221,-992.67578125,395.5078125,313.96484375,-815.4296875,0.0,0,0
1772286675.1219919,1772286675.0697196,-961.42578125,-128.90625,30.2734375,131.8359375,0.0,0,0
1772286675.1220438,1772286675.0736167,-96.6796875,-457.51953125,-182.6171875,-1000.0,0.0,0,0
1772286675.122092,1772286675.077514,-1000.0,-264.6484375,-85.9375,-977.05078125,0.0,0,0
1772286675.122141,1772286675.0814111,-322.75390625,315.91796875,242.1875,165.52734375,0.0,0,0
1772286675.1508758,1772286675.085425,937.5,528.3203125,370.1171875,-798.33984375,0.0,0,0
1772286675.1509771,1772286675.0893223,-906.73828125,-6.34765625,91.796875,263.671875,0.0,0,0
1772286675.151032,1772286675.0932195,98.6328125,-380.859375,-157.2265625,-985.3515625,0.0,0,0
1772286675.151086,1772286675.0971167,-1000.0,-284.66796875,-125.0,-1000.0,0.0,0,0
1772286675.151135,1772286675.1010141,-521.484375,203.125,165.0390625,-50.78125,0.0,0,0
1772286675.1511838,1772286675.1049113,842.7734375,453.125,337.890625,-824.70703125,0.0,0,0
1772286675.1512341,1772286675.1088085,-862.79296875,-54.19921875,125.9765625,431.15234375,0.0,0,0
1772286675.151284,1772286675.1127057,195.3125,-519.04296875,-145.5078125,-881.34765625,0.0,0,0
1772286675.151346,1772286675.1166031,-1000.0,-452.1484375,-150.390625,-1000.0,0.0,0,0
1772286675.151396,1772286675.1205003,-779.296875,106.4453125,158.69140625,-111.328125,0.0,0,0
1772286675.151445,1772286675.1243975,595.703125,367.1875,344.7265625,-872.55859375,0.0,0,0
1772286675.1515021,1772286675.128295,-810.546875,-18.06640625,161.62109375,619.140625,0.0,0,0
1772286675.19594,1772286675.1322982,157.71484375,-476.5625,-137.20703125,-676.26953125,0.0,0,0
1772286675.196051,1772286675.1361954,-1000.0,-487.3046875,-204.58984375,-1000.0,0.0,0,0
1772286675.1960928,1772286675.1400926,-1000.0,45.8984375,77.63671875,-184.5703125,0.0,0,0
1772286675.1961331,1772286675.14399,232.421875,415.0390625,297.36328125,-938.96484375,0.0,0,0
1772286675.196179,1772286675.1478872,-765.13671875,175.78125,185.05859375,820.80078125,0.0,0,0
1772286675.196225,1772286675.1517847,220.21484375,-371.58203125,-94.23828125,-393.06640625,0.0,0,0
1772286675.1962838,1772286675.1556818,-1000.0,-515.13671875,-185.05859375,-1000.0,0.0,0,0
1772286675.1963189,1772286675.159579,-1000.0,32.71484375,77.1484375,-272.4609375,0.0,0,0
1772286675.196363,1772286675.1634765,2.44140625,401.85546875,304.19921875,997.55859375,0.0,0,0
1772286675.1964002,1772286675.1673737,-780.76171875,196.77734375,228.515625,959.9609375,0.0,0,0
1772286675.196437,1772286675.1712708,407.71484375,-332.51953125,-47.36328125,-165.0390625,0.0,0,0
1772286675.196482,1772286675.1751683,-910.64453125,-568.84765625,-182.6171875,-1000.0,0.0,0,0
1772286675.241266,1772286675.1791613,-1000.0,-40.0390625,50.78125,-408.203125,0.0,0,0
1772286675.241353,1772286675.1830585,-180.17578125,365.72265625,287.109375,912.59765625,0.0,0,0
1772286675.241388,1772286675.186956,-857.421875,200.1953125,231.4453125,-972.16796875,0.0,0,0
1772286675.241419,1772286675.190853,629.8828125,-216.30859375,-41.50390625,-49.8046875,0.0,0,0
1772286675.24145,1772286675.1947505,-755.37109375,-436.03515625,-200.1953125,-1000.0,0.0,0,0
1772286675.241481,1772286675.1986477,-1000.0,-95.21484375,-22.94921875,-620.1171875,0.0,0,0
1772286675.24151,1772286675.202545,-205.56640625,340.33203125,245.1171875,711.9140625,0.0,0,0
1772286675.2415411,1772286675.2064424,-936.5234375,249.0234375,237.3046875,-880.859375,0.0,0,0
1772286675.2415712,1772286675.2103395,866.69921875,-277.34375,-51.7578125,28.3203125,0.0,0,0
1772286675.241601,1772286675.214237,-460.44921875,-583.0078125,-235.83984375,-1000.0,0.0,0,0
1772286675.241631,1772286675.2181342,-1000.0,-279.78515625,-98.6328125,-818.359375,0.0,0,0
1772286675.2416599,1772286675.2220316,-174.8046875,263.671875,200.1953125,453.125,0.0,0,0
1772286675.2858381,1772286675.2260113,-992.1875,291.50390625,245.60546875,-823.2421875,0.0,0,0
1772286675.285934,1772286675.2299085,-965.8203125,-220.21484375,-36.62109375,111.328125,0.0,0,0
1772286675.285964,1772286675.233806,-119.62890625,-535.64453125,-229.4921875,-1000.0,0.0,0,0
1772286675.285996,1772286675.237703,-1000.0,-307.12890625,-137.20703125,-943.359375,0.0,0,0
1772286675.2860239,1772286675.2416005,-296.38671875,242.67578125,157.2265625,222.16796875,0.0,0,0
1772286675.286054,1772286675.2454977,952.63671875,352.5390625,258.30078125,-800.78125,0.0,0,0
1772286675.286083,1772286675.2493951,-916.9921875,-126.46484375,0.48828125,241.69921875,0.0,0,0
1772286675.286113,1772286675.2532923,55.17578125,-466.796875,-208.984375,-1000.0,0.0,0,0
1772286675.286141,1772286675.2571898,-1000.0,-305.6640625,-136.71875,-1000.0,0.0,0,0
1772286675.286168,1772286675.261087,-491.69921875,237.3046875,159.66796875,19.53125,0.0,0,0
1772286675.286196,1772286675.2649844,854.00390625,437.5,288.57421875,-823.73046875,0.0,0,0
1772286675.2862248,1772286675.2688816,-867.1875,-33.69140625,50.29296875,415.0390625,0.0,0,0
1772286675.3308,1772286675.2728517,196.2890625,-454.1015625,-206.0546875,-888.18359375,0.0,0,0
1772286675.330889,1772286675.2767491,-1000.0,-367.1875,-203.61328125,-1000.0,0.0,0,0
1772286675.33093,1772286675.2806463,-778.3203125,137.6953125,70.80078125,-96.6796875,0.0,0,0
1772286675.330969,1772286675.2845438,597.16796875,416.9921875,262.6953125,-875.0,0.0,0,0
1772286675.331006,1772286675.288441,-812.01171875,108.3984375,133.30078125,642.08984375,0.0,0,0
1772286675.331043,1772286675.2923384,163.0859375,-328.61328125,-111.328125,-653.80859375,0.0,0,0
1772286675.33108,1772286675.2962358,-1000.0,-341.30859375,-150.87890625,-1000.0,0.0,0,0
1772286675.331115,1772286675.300133,-970.21484375,124.51171875,114.2578125,-202.63671875,0.0,0,0
1772286675.331153,1772286675.3040304,303.7109375,458.0078125,300.29296875,-928.7109375,0.0,0,0
1772286675.331191,1772286675.3079276,-771.97265625,172.8515625,164.55078125,783.69140625,0.0,0,0
1772286675.3312268,1772286675.311825,176.26953125,-373.53515625,-121.58203125,-460.44921875,0.0,0,0
1772286675.331294,1772286675.3157222,-1000.0,-426.26953125,-191.89453125,-1000.0,0.0,0,0
1772286675.3761852,1772286675.319681,-1000.0,85.9375,67.3828125,-278.80859375,0.0,0,0
1772286675.376297,1772286675.3235781,24.90234375,421.38671875,270.01953125,-988.76953125,0.0,0,0
1772286675.376359,1772286675.3274755,-774.90234375,219.23828125,186.03515625,903.3203125,0.0,0,0
1772286675.376412,1772286675.331373,380.859375,-270.99609375,-103.515625,-265.13671875,0.0,0,0
1772286675.3764632,1772286675.3352702,-926.7578125,-443.84765625,-233.88671875,-1000.0,0.0,0,0
1772286675.376516,1772286675.3391676,-1000.0,-4.8828125,0.48828125,-385.7421875,0.0,0,0
1772286675.376574,1772286675.3430648,-146.97265625,364.2578125,232.421875,928.22265625,0.0,0,0
1772286675.376624,1772286675.3469622,-831.54296875,216.796875,177.734375,-983.88671875,0.0,0,0
1772286675.376674,1772286675.3508594,554.19921875,-270.01953125,-102.5390625,-73.73046875,0.0,0,0
1772286675.376725,1772286675.3547568,-824.70703125,-531.73828125,-268.5546875,-1000.0,0.0,0,0
1772286675.376775,1772286675.3586543,-1000.0,-147.94921875,-86.9140625,-586.9140625,0.0,0,0
1772286675.376835,1772286675.3625515,-213.37890625,316.40625,191.89453125,742.1875,0.0,0,0
1772286675.436055,1772286675.366509,-925.29296875,271.97265625,199.70703125,-884.765625,0.0,0,0
1772286675.4361951,1772286675.3704062,827.63671875,-221.6796875,-84.9609375,44.921875,0.0,0,0
1772286675.436254,1772286675.3743036,-518.06640625,-500.48828125,-250.0,-1000.0,0.0,0,0
1772286675.436306,1772286675.378201,-1000.0,-206.0546875,-104.00390625,-784.66796875,0.0,0,0
1772286675.436358,1772286675.3820982,-181.640625,332.51953125,177.734375,501.953125,0.0,0,0
1772286675.4364228,1772286675.3859956,-980.46875,417.96875,230.46875,-831.54296875,0.0,0,0
1772286675.436474,1772286675.3898928,-993.65234375,-168.45703125,-53.7109375,91.796875,0.0,0,0
1772286675.436524,1772286675.3937902,-204.1015625,-502.44140625,-253.90625,-1000.0,0.0,0,0
1772286675.436573,1772286675.3976877,-1000.0,-248.53515625,-144.53125,-930.17578125,0.0,0,0
1772286675.436621,1772286675.4015849,-245.60546875,288.57421875,159.66796875,252.9296875,0.0,0,0
1772286675.436671,1772286675.4054823,973.14453125,411.62109375,264.6484375,-800.78125,0.0,0,0
1772286675.4367192,1772286675.4093797,-931.15234375,-144.04296875,12.20703125,230.95703125,0.0,0,0
1772286675.482272,1772286675.4133255,11.23046875,-455.56640625,-202.63671875,-1000.0,0.0,0,0
1772286675.482363,1772286675.417223,-1000.0,-262.20703125,-159.66796875,-1000.0,0.0,0,0
1772286675.4824,1772286675.4211204,-443.84765625,284.66796875,126.953125,58.59375,0.0,0,0
1772286675.4824371,1772286675.4250176,877.44140625,489.74609375,265.13671875,-816.40625,0.0,0,0
1772286675.482474,1772286675.428915,-876.953125,-33.69140625,13.18359375,361.328125,0.0,0,0
1772286675.482513,1772286675.4328125,196.2890625,-430.17578125,-255.859375,-919.43359375,0.0,0,0
1772286675.48255,1772286675.4367096,-1000.0,-370.1171875,-257.32421875,-1000.0,0.0,0,0
1772286675.4825852,1772286675.440607,-685.05859375,127.44140625,32.71484375,-122.55859375,0.0,0,0
1772286675.4826229,1772286675.4445045,708.984375,449.70703125,234.86328125,-858.88671875,0.0,0,0
1772286675.48266,1772286675.4484017,-832.03125,58.10546875,72.265625,557.12890625,0.0,0,0
1772286675.4826958,1772286675.452299,171.875,-400.390625,-193.84765625,-742.67578125,0.0,0,0
1772286675.482732,1772286675.4561965,-1000.0,-383.30078125,-224.12109375,-1000.0,0.0,0,0
1772286675.526998,1772286675.4602153,-928.22265625,111.328125,44.921875,-185.546875,0.0,0,0
1772286675.527092,1772286675.4641128,381.8359375,394.53125,233.88671875,-908.203125,0.0,0,0
1772286675.527134,1772286675.4680102,-779.78515625,69.82421875,87.890625,720.21484375,0.0,0,0
1772286675.527173,1772286675.4719076,143.5546875,-373.53515625,-207.03125,-546.38671875,0.0,0,0
1772286675.5272121,1772286675.4758048,-1000.0,-392.578125,-272.4609375,-1000.0,0.0,0,0
1772286675.5272498,1772286675.4797022,-1000.0,103.515625,-2.9296875,-251.953125,0.0,0,0
1772286675.527294,1772286675.4835997,64.453125,404.78515625,195.3125,-973.14453125,0.0,0,0
1772286675.527331,1772286675.487497,-765.625,200.1953125,96.19140625,873.046875,0.0,0,0
1772286675.5273678,1772286675.4913943,313.96484375,-255.37109375,-186.5234375,-307.6171875,0.0,0,0
1772286675.527405,1772286675.4952917,-959.47265625,-409.1796875,-317.87109375,-1000.0,0.0,0,0
1772286675.5274408,1772286675.4991891,-1000.0,34.66796875,-75.68359375,-392.08984375,0.0,0,0
1772286675.527477,1772286675.5030863,-118.1640625,415.52734375,189.453125,925.29296875,0.0,0,0
1772286675.5711691,1772286675.5070927,-813.96484375,296.875,153.3203125,-988.28125,0.0,0,0
1772286675.571244,1772286675.5109901,510.25390625,-190.4296875,-119.62890625,-95.703125,0.0,0,0
1772286675.571296,1772286675.5148876,-858.88671875,-447.265625,-265.13671875,-1000.0,0.0,0,0
1772286675.571347,1772286675.5187848,-1000.0,-47.36328125,-58.59375,-537.59765625,0.0,0,0
1772286675.571637,1772286675.5226822,-221.6796875,395.01953125,208.984375,794.43359375,0.0,0,0
1772286675.571692,1772286675.5265796,-908.203125,324.70703125,203.125,-917.48046875,0.0,0,0
1772286675.571743,1772286675.530477,768.5546875,-165.52734375,-79.58984375,2.44140625,0.0,0,0
1772286675.571794,1772286675.5343745,-600.5859375,-458.0078125,-268.06640625,-1000.0,0.0,0,0
1772286675.5718431,1772286675.5382717,-1000.0,-151.3671875,-128.41796875,-756.34765625,0.0,0,0
1772286675.571894,1772286675.542169,-184.08203125,311.5234375,160.64453125,531.73828125,0.0,0,0
1772286675.5719428,1772286675.5460665,-978.02734375,317.3828125,219.23828125,-834.47265625,0.0,0,0
1772286675.571994,1772286675.549964,995.60546875,-150.87890625,-42.96875,104.4921875,0.0,0,0
1772286675.616353,1772286675.55396,-230.46875,-418.45703125,-219.7265625,-1000.0,0.0,0,0
1772286675.6164649,1772286675.5578575,-1000.0,-181.640625,-101.07421875,-908.69140625,0.0,0,0
1772286675.616523,1772286675.561755,-223.14453125,294.921875,188.4765625,289.55078125,0.0,0,0
1772286675.616576,1772286675.5656524,981.93359375,369.62890625,254.39453125,-802.24609375,0.0,0,0
1772286675.6166341,1772286675.5695498,-937.5,-97.65625,-13.18359375,221.6796875,0.0,0,0
1772286675.616684,1772286675.5734472,-5.859375,-434.08203125,-220.703125,-1000.0,0.0,0,0
1772286675.616734,1772286675.5773444,-1000.0,-324.21875,-175.29296875,-1000.0,0.0,0,0
1772286675.6167831,1772286675.5812418,-417.48046875,145.99609375,98.6328125,70.80078125,0.0,0,0
1772286675.6168342,1772286675.5851393,892.578125,353.02734375,241.2109375,-812.5,0.0,0,0
1772286675.6168919,1772286675.5890367,-884.765625,-60.546875,19.04296875,371.09375,0.0,0,0
1772286675.616941,1772286675.5929341,167.48046875,-462.40234375,-226.5625,-929.19921875,0.0,0,0
1772286675.6169999,1772286675.5968316,-1000.0,-352.5390625,-206.0546875,-1000.0,0.0,0,0
1772286675.66106,1772286675.6008172,-636.23046875,163.0859375,73.73046875,-69.82421875,0.0,0,0
1772286675.661134,1772286675.6047146,754.39453125,411.1328125,236.328125,-852.5390625,0.0,0,0
1772286675.661213,1772286675.608612,-841.30859375,11.23046875,49.8046875,536.62109375,0.0,0,0
1772286675.661273,1772286675.6125095,178.22265625,-373.046875,-196.77734375,-774.90234375,0.0,0,0
1772286675.661312,1772286675.616407,-1000.0,-342.7734375,-208.984375,-1000.0,0.0,0,0
1772286675.661349,1772286675.620304,-888.671875,133.30078125,80.56640625,-129.39453125,0.0,0,0
1772286675.661386,1772286675.6242015,442.3828125,424.31640625,272.4609375,-908.203125,0.0,0,0
1772286675.6614232,1772286675.628099,-787.59765625,134.27734375,116.69921875,748.53515625,0.0,0,0
1772286675.6614609,1772286675.6319964,147.94921875,-284.1796875,-148.92578125,-496.58203125,0.0,0,0
1772286675.6615071,1772286675.6358938,-1000.0,-358.88671875,-194.3359375,-1000.0,0.0,0,0
1772286675.661542,1772286675.6397913,-1000.0,76.66015625,60.05859375,-223.14453125,0.0,0,0
1772286675.6615858,1772286675.6436887,118.1640625,380.859375,241.69921875,-954.1015625,0.0,0,0
1772286675.722444,1772286675.6477494,-762.6953125,125.48828125,135.25390625,837.40234375,0.0,0,0
1772286675.722568,1772286675.6516469,291.9921875,-391.6015625,-141.11328125,-353.515625,0.0,0,0
1772286675.722629,1772286675.6555443,-971.19140625,-523.4375,-250.48828125,-1000.0,0.0,0,0
1772286675.722684,1772286675.6594417,-1000.0,-64.94140625,-18.5546875,-350.5859375,0.0,0,0
1772286675.7227352,1772286675.6633391,-67.87109375,302.734375,206.0546875,964.35546875,0.0,0,0
1772286675.722786,1772286675.6672366,-800.29296875,136.71875,143.5546875,964.84375,0.0,0,0
1772286675.722836,1772286675.6711342,470.703125,-405.76171875,-143.5546875,-156.25,0.0,0,0
1772286675.7228858,1772286675.6750317,-877.44140625,-624.51171875,-281.25,-1000.0,0.0,0,0
1772286675.722935,1772286675.678929,-1000.0,-178.7109375,-59.08203125,-541.9921875,0.0,0,0
1772286675.722985,1772286675.6828265,-218.26171875,274.90234375,213.37890625,796.38671875,0.0,0,0
1772286675.7230358,1772286675.686724,-904.296875,187.5,196.2890625,-925.78125,0.0,0,0
1772286675.7230852,1772286675.6906214,761.71875,-318.84765625,-83.984375,-16.11328125,0.0,0,0
1772286675.751486,1772286675.6945863,-608.3984375,-581.0546875,-243.65234375,-1000.0,0.0,0,0
1772286675.7515771,1772286675.6984837,-1000.0,-274.90234375,-86.9140625,-713.37890625,0.0,0,0
1772286675.751619,1772286675.7023811,-187.5,225.5859375,181.15234375,583.984375,0.0,0,0
1772286675.751657,1772286675.7062788,-970.21484375,273.4375,199.70703125,-842.28515625,0.0,0,0
1772286675.751694,1772286675.7101762,975.09765625,-228.02734375,-68.359375,88.8671875,0.0,0,0
1772286675.751731,1772286675.7140737,-272.4609375,-535.64453125,-237.79296875,-1000.0,0.0,0,0
1772286675.751768,1772286675.717971,-1000.0,-312.98828125,-128.90625,-888.18359375,0.0,0,0
1772286675.751803,1772286675.7218685,-201.171875,191.40625,156.25,321.77734375,0.0,0,0
1772286675.7518451,1772286675.725766,993.65234375,326.171875,241.2109375,-804.19921875,0.0,0,0
1772286675.751884,1772286675.7296634,-946.77734375,-152.34375,-32.71484375,205.078125,0.0,0,0
1772286675.751921,1772286675.7335608,-42.96875,-508.30078125,-260.25390625,-1000.0,0.0,0,0
1772286675.751966,1772286675.7374582,-1000.0,-345.21484375,-206.0546875,-991.69921875,0.0,0,0
1772286675.796561,1772286675.7414064,-364.2578125,189.94140625,90.33203125,127.9296875,0.0,0,0
1772286675.796674,1772286675.7453039,916.50390625,391.11328125,224.12109375,-812.98828125,0.0,0,0
1772286675.796731,1772286675.7492015,-894.53125,-76.66015625,-11.23046875,366.69921875,0.0,0,0
1772286675.7967832,1772286675.753099,163.57421875,-463.8671875,-245.60546875,-932.6171875,0.0,0,0
1772286675.796834,1772286675.7569964,-1000.0,-327.63671875,-219.7265625,-1000.0,0.0,0,0
1772286675.796881,1772286675.7608938,-556.15234375,241.2109375,74.70703125,-41.9921875,0.0,0,0
1772286675.796938,1772286675.7647913,831.54296875,486.81640625,235.83984375,-847.65625,0.0,0,0
1772286675.796988,1772286675.7686887,-858.88671875,21.484375,22.4609375,521.484375,0.0,0,0
1772286675.7970402,1772286675.772586,189.453125,-390.625,-232.421875,-793.9453125,0.0,0,0
1772286675.797109,1772286675.7764835,-1000.0,-319.3359375,-206.0546875,-1000.0,0.0,0,0
1772286675.797157,1772286675.7803812,-821.77734375,207.03125,113.76953125,-87.890625,0.0,0,0
1772286675.797211,1772286675.7842786,540.52734375,506.34765625,298.828125,-895.99609375,0.0,0,0
1772286675.8561459,1772286675.7882164,-800.78125,165.52734375,131.34765625,718.75,0.0,0,0
1772286675.856291,1772286675.7921138,150.87890625,-337.890625,-145.99609375,-548.828125,0.0,0,0
1772286675.856353,1772286675.7960112,-1000.0,-392.578125,-205.56640625,-1000.0,0.0,0,0
1772286675.856404,1772286675.7999086,-1000.0,106.93359375,62.98828125,-198.2421875,0.0,0,0
1772286675.856457,1772286675.8038063,155.2734375,446.77734375,280.2734375,-948.73046875,0.0,0,0
1772286675.856508,1772286675.8077037,-761.71875,239.74609375,160.64453125,846.19140625,0.0,0,0
1772286675.856559,1772286675.8116012,253.41796875,-334.47265625,-168.9453125,-353.515625,0.0,0,0
1772286675.856609,1772286675.8154986,-988.76953125,-504.8828125,-299.31640625,-1000.0,0.0,0,0
1772286675.856659,1772286675.819396,-1000.0,21.97265625,-45.41015625,-320.3125,0.0,0,0
1772286675.8567228,1772286675.8232934,-39.0625,397.94921875,183.10546875,968.75,0.0,0,0
1772286675.8567832,1772286675.827191,-792.48046875,232.91015625,106.93359375,983.3984375,0.0,0,0
1772286675.856842,1772286675.8310885,458.49609375,-228.02734375,-155.2734375,-117.67578125,0.0,0,0
1772286675.902156,1772286675.8351057,-881.34765625,-429.6875,-281.73828125,-1000.0,0.0,0,0
1772286675.902302,1772286675.839003,-1000.0,15.13671875,-85.44921875,-495.60546875,0.0,0,0
1772286675.902355,1772286675.8429008,-211.9140625,466.796875,174.31640625,844.23828125,0.0,0,0
1772286675.902407,1772286675.8467982,-884.765625,351.07421875,156.73828125,-943.359375,0.0,0,0
1772286675.902457,1772286675.8506956,699.21875,-172.36328125,-125.9765625,-37.109375,0.0,0,0
1772286675.902507,1772286675.854593,-683.59375,-454.58984375,-277.83203125,-1000.0,0.0,0,0
1772286675.902555,1772286675.8584907,-1000.0,-157.71484375,-114.74609375,-700.68359375,0.0,0,0
1772286675.902605,1772286675.8623881,-195.3125,362.79296875,160.15625,609.375,0.0,0,0
1772286675.902866,1772286675.8662856,-956.54296875,381.8359375,183.59375,-851.07421875,0.0,0,0
1772286675.902923,1772286675.870183,933.10546875,-165.0390625,-87.40234375,77.63671875,0.0,0,0
1772286675.902974,1772286675.8740807,-352.5390625,-471.6796875,-248.046875,-1000.0,0.0,0,0
1772286675.9030242,1772286675.877978,-1000.0,-147.94921875,-122.55859375,-833.984375,0.0,0,0
1772286675.94651,1772286675.881986,-171.875,398.4375,150.87890625,414.0625,0.0,0,0
1772286675.946618,1772286675.8858833,-995.60546875,433.59375,196.77734375,-809.08203125,0.0,0,0
1772286675.946657,1772286675.8897808,-955.56640625,-93.26171875,-74.21875,201.66015625,0.0,0,0
1772286675.946696,1772286675.8936784,-65.91796875,-445.3125,-257.8125,-1000.0,0.0,0,0
1772286675.946732,1772286675.8975759,-1000.0,-238.76953125,-163.57421875,-945.80078125,0.0,0,0
1772286675.946769,1772286675.9014733,-332.51953125,315.4296875,134.27734375,221.6796875,0.0,0,0
1772286675.946808,1772286675.905371,932.6171875,471.19140625,226.5625,-809.5703125,0.0,0,0
1772286675.946847,1772286675.9092684,-902.83203125,-23.4375,-43.9453125,327.63671875,0.0,0,0
1772286675.946885,1772286675.9131658,130.859375,-442.87109375,-267.08984375,-959.9609375,0.0,0,0
1772286675.946922,1772286675.9170635,-1000.0,-332.03125,-215.8203125,-1000.0,0.0,0,0
1772286675.946957,1772286675.920961,-544.43359375,198.73046875,53.22265625,1.953125,0.0,0,0
1772286675.9469922,1772286675.9248583,833.49609375,458.984375,183.59375,-843.26171875,0.0,0,0
1772286676.020739,1772286675.9290197,-859.86328125,30.2734375,-22.94921875,506.8359375,0.0,0,0
1772286676.020876,1772286675.9329174,190.91796875,-438.4765625,-279.296875,-803.22265625,0.0,0,0
1772286676.020921,1772286675.9368148,-1000.0,-409.66796875,-292.96875,-1000.0,0.0,0,0
1772286676.020989,1772286675.9407125,-813.96484375,103.02734375,-35.64453125,-119.140625,0.0,0,0
1772286676.0210948,1772286675.9446099,550.78125,417.48046875,117.67578125,-894.04296875,0.0,0,0
1772286676.0211399,1772286675.9485075,-803.7109375,89.35546875,-63.4765625,708.984375,0.0,0,0
1772286676.021179,1772286675.952405,156.73828125,-441.89453125,-347.16796875,-575.1953125,0.0,0,0
1772286676.021217,1772286675.9563026,-1000.0,-498.53515625,-376.953125,-1000.0,0.0,0,0
1772286676.021253,1772286675.9602,-1000.0,56.15234375,-81.0546875,-195.3125,0.0,0,0
1772286676.0212889,1772286675.9640977,226.5625,407.71484375,145.5078125,-928.7109375,0.0,0,0
1772286676.021333,1772286675.9679952,-764.16015625,121.09375,17.08984375,772.4609375,0.0,0,0
1772286676.0213702,1772286675.9718928,218.26171875,-413.57421875,-284.1796875,-455.078125,0.0,0,0
1772286676.036692,1772286675.9758804,-1000.0,-479.00390625,-373.046875,-1000.0,0.0,0,0
1772286676.0368059,1772286675.979778,-1000.0,27.83203125,-125.9765625,-328.125,0.0,0,0
1772286676.036845,1772286675.9836755,-31.73828125,401.85546875,96.6796875,984.375,0.0,0,0
1772286676.0368829,1772286675.9875731,-786.1328125,239.74609375,23.92578125,939.94140625,0.0,0,0
1772286676.036979,1772286675.9914706,418.45703125,-304.6875,-261.23046875,-227.5390625,0.0,0,0
1772286676.037072,1772286675.9953682,-905.2734375,-500.9765625,-369.140625,-1000.0,0.0,0,0
1772286676.037164,1772286675.999266,-1000.0,-42.48046875,-126.46484375,-452.63671875,0.0,0,0
1772286676.037208,1772286676.0031633,-208.984375,344.7265625,129.39453125,875.9765625,0.0,0,0
1772286676.037247,1772286676.007061,-871.09375,234.86328125,101.07421875,-963.8671875,0.0,0,0
1772286676.037314,1772286676.0109584,658.203125,-243.65234375,-187.5,-58.59375,0.0,0,0
1772286676.0373938,1772286676.014856,-731.4453125,-514.16015625,-358.88671875,-1000.0,0.0,0,0
1772286676.037472,1772286676.0187535,-1000.0,-141.6015625,-172.36328125,-623.53515625,0.0,0,0
1772286676.096415,1772286676.0228086,-200.1953125,350.5859375,130.37109375,699.70703125,0.0,0,0
1772286676.09655,1772286676.0267062,-948.73046875,326.66015625,153.3203125,-867.67578125,0.0,0,0
1772286676.096607,1772286676.030604,905.76171875,-210.9375,-157.71484375,59.5703125,0.0,0,0
1772286676.096661,1772286676.0345013,-399.90234375,-559.08203125,-351.5625,-1000.0,0.0,0,0
1772286676.0967119,1772286676.038399,-1000.0,-217.7734375,-202.1484375,-800.78125,0.0,0,0
1772286676.0967638,1772286676.0422966,-173.828125,342.28515625,94.23828125,467.28515625,0.0,0,0
1772286676.096816,1772286676.046194,-992.67578125,297.36328125,148.4375,-822.265625,0.0,0,0
1772286676.096867,1772286676.0500917,-963.8671875,-244.140625,-146.97265625,122.0703125,0.0,0,0
1772286676.096916,1772286676.0539894,-100.09765625,-499.51171875,-347.16796875,-1000.0,0.0,0,0
1772286676.0969658,1772286676.0578868,-1000.0,-340.33203125,-263.18359375,-957.03125,0.0,0,0
1772286676.097024,1772286676.0617845,-346.6796875,131.34765625,20.99609375,199.70703125,0.0,0,0
1772286676.097093,1772286676.0656822,926.26953125,316.40625,131.34765625,-799.31640625,0.0,0,0
1772286676.140007,1772286676.0696392,-902.83203125,-135.7421875,-122.0703125,278.80859375,0.0,0,0
1772286676.140129,1772286676.0735366,99.609375,-499.51171875,-338.37890625,-998.046875,0.0,0,0
1772286676.140189,1772286676.0774343,-1000.0,-375.0,-279.78515625,-1000.0,0.0,0,0
1772286676.14024,1772286676.081332,-541.9921875,150.390625,38.0859375,51.26953125,0.0,0,0
1772286676.140291,1772286676.0852294,830.078125,391.11328125,189.94140625,-827.1484375,0.0,0,0
1772286676.140343,1772286676.089127,-858.3984375,-14.6484375,-37.59765625,448.73046875,0.0,0,0
1772286676.140393,1772286676.0930247,191.40625,-501.46484375,-299.31640625,-862.79296875,0.0,0,0
1772286676.1404438,1772286676.0969224,-1000.0,-515.13671875,-301.26953125,-1000.0,0.0,0,0
1772286676.1404932,1772286676.1008198,-805.17578125,17.08984375,-25.87890625,-95.21484375,0.0,0,0
1772286676.140542,1772286676.1047175,562.01171875,323.73046875,109.375,-870.1171875,0.0,0,0
1772286676.1405911,1772286676.1086152,-805.17578125,-2.44140625,-66.40625,581.0546875,0.0,0,0
1772286676.14064,1772286676.1125126,154.78515625,-441.40625,-287.59765625,-711.42578125,0.0,0,0
1772286676.184322,1772286676.1164587,-1000.0,-501.46484375,-303.7109375,-1000.0,0.0,0,0
1772286676.18448,1772286676.1203563,-1000.0,-16.11328125,-45.41015625,-124.51171875,0.0,0,0
1772286676.184532,1772286676.1242537,199.21875,328.61328125,145.01953125,-916.015625,0.0,0,0
1772286676.184582,1772286676.1281514,-762.20703125,74.70703125,34.1796875,737.3046875,0.0,0,0
1772286676.184632,1772286676.132049,251.953125,-401.85546875,-244.140625,-484.86328125,0.0,0,0
1772286676.184685,1772286676.1359468,-979.98046875,-455.56640625,-335.9375,-1000.0,0.0,0,0
1772286676.184732,1772286676.1398442,-1000.0,1.46484375,-94.7265625,-277.34375,0.0,0,0
1772286676.1847801,1772286676.1437418,-88.8671875,330.56640625,105.95703125,-997.0703125,0.0,0,0
1772286676.184831,1772286676.1476395,-796.875,209.47265625,7.32421875,927.24609375,0.0,0,0
1772286676.184879,1772286676.151537,422.36328125,-282.71484375,-288.0859375,-218.26171875,0.0,0,0
1772286676.1849291,1772286676.1554346,-912.59765625,-484.86328125,-401.85546875,-1000.0,0.0,0,0
1772286676.184978,1772286676.1593323,-1000.0,-61.5234375,-144.53125,-425.78125,0.0,0,0
1772286676.230725,1772286676.163268,-192.87109375,304.6875,110.3515625,907.2265625,0.0,0,0
1772286676.230866,1772286676.1671658,-888.671875,174.8046875,65.91796875,-980.46875,0.0,0,0
1772286676.230921,1772286676.1710632,735.3515625,-201.171875,-225.09765625,-91.30859375,0.0,0,0
1772286676.230974,1772286676.1749609,-634.765625,-365.234375,-383.30078125,-1000.0,0.0,0,0
1772286676.231026,1772286676.1788585,-1000.0,-103.02734375,-191.89453125,-613.76953125,0.0,0,0
1772286676.231075,1772286676.1827562,-189.94140625,379.39453125,100.09765625,727.05078125,0.0,0,0
1772286676.231126,1772286676.1866536,-965.8203125,386.23046875,104.4921875,-905.76171875,0.0,0,0
1772286676.231176,1772286676.1905513,962.890625,-106.93359375,-189.94140625,-16.11328125,0.0,0,0
1772286676.2312262,1772286676.194449,-300.29296875,-382.8125,-360.83984375,-1000.0,0.0,0,0
1772286676.231273,1772286676.1983466,-1000.0,-152.34375,-209.9609375,-781.25,0.0,0,0
1772286676.231322,1772286676.202244,-170.8984375,311.03515625,113.28125,492.1875,0.0,0,0
1772286676.231371,1772286676.2061417,-997.55859375,368.1640625,165.0390625,-820.80078125,0.0,0,0
1772286676.275959,1772286676.2101543,-949.21875,-79.58984375,-147.4609375,124.0234375,0.0,0,0
1772286676.276085,1772286676.214052,-41.015625,-376.46484375,-337.40234375,-1000.0,0.0,0,0
1772286676.276159,1772286676.2179496,-1000.0,-230.95703125,-212.890625,-930.17578125,0.0,0,0
1772286676.276216,1772286676.2218473,-316.89453125,272.4609375,112.3046875,261.23046875,0.0,0,0
1772286676.276256,1772286676.225745,941.40625,443.359375,229.98046875,-798.828125,0.0,0,0
1772286676.276293,1772286676.2296424,-905.2734375,-17.578125,-55.17578125,236.328125,0.0,0,0
1772286676.27633,1772286676.23354,138.18359375,-382.8125,-309.5703125,-1000.0,0.0,0,0
1772286676.276366,1772286676.2374377,-1000.0,-310.05859375,-267.08984375,-1000.0,0.0,0,0
1772286676.27641,1772286676.2413354,-532.2265625,160.15625,49.8046875,64.453125,0.0,0,0
1772286676.2764559,1772286676.245233,842.28515625,411.1328125,210.9375,-816.40625,0.0,0,0
1772286676.27649,1772286676.2491307,-862.3046875,-15.13671875,-22.4609375,395.99609375,0.0,0,0
1772286676.2765272,1772286676.2530282,192.87109375,-441.89453125,-288.57421875,-917.96875,0.0,0,0
1772286676.320798,1772286676.2570279,-1000.0,-354.00390625,-278.3203125,-1000.0,0.0,0,0
1772286676.3209019,1772286676.2609255,-801.7578125,124.51171875,35.15625,-58.59375,0.0,0,0
1772286676.32096,1772286676.264823,566.89453125,373.53515625,208.0078125,-858.88671875,0.0,0,0
1772286676.321013,1772286676.2687206,-806.15234375,62.5,-3.90625,570.3125,0.0,0,0
1772286676.321066,1772286676.2726183,156.73828125,-366.2109375,-322.265625,-746.09375,0.0,0,0
1772286676.3211179,1772286676.276516,-1000.0,-338.8671875,-357.421875,-1000.0,0.0,0,0
1772286676.321166,1772286676.2804136,-1000.0,81.0546875,-39.55078125,-143.5546875,0.0,0,0
1772286676.321216,1772286676.2843113,229.4921875,351.07421875,167.48046875,-906.73828125,0.0,0,0
1772286676.321266,1772286676.288209,-764.6484375,187.01171875,32.2265625,738.76953125,0.0,0,0
1772286676.321323,1772286676.2921066,213.8671875,-303.7109375,-273.92578125,-523.92578125,0.0,0,0
1772286676.3213718,1772286676.2960043,-1000.0,-425.29296875,-354.00390625,-1000.0,0.0,0,0
1772286676.32142,1772286676.299902,-1000.0,11.71875,-51.26953125,-237.79296875,0.0,0,0
1772286676.366388,1772286676.3038905,-18.5546875,343.75,187.01171875,-968.75,0.0,0,0
1772286676.366494,1772286676.3077881,-783.69140625,209.47265625,97.16796875,886.23046875,0.0,0,0
1772286676.366555,1772286676.3116858,414.55078125,-254.8828125,-203.125,-301.7578125,0.0,0,0
1772286676.3666089,1772286676.3155835,-909.1796875,-425.78125,-332.51953125,-1000.0,0.0,0,0
1772286676.3666592,1772286676.3194811,-1000.0,25.87890625,-67.87109375,-358.88671875,0.0,0,0
1772286676.366771,1772286676.3233788,-179.6875,444.3359375,201.171875,957.51953125,0.0,0,0
1772286676.366843,1772286676.3272765,-867.67578125,317.3828125,141.6015625,984.375,0.0,0,0
1772286676.3668978,1772286676.3311741,669.921875,-89.35546875,-164.0625,-132.8125,0.0,0,0
1772286676.366949,1772286676.3350718,-710.44921875,-286.1328125,-307.6171875,-1000.0,0.0,0,0
1772286676.3670158,1772286676.3389692,-1000.0,4.8828125,-79.58984375,-534.1796875,0.0,0,0
1772286676.3670661,1772286676.342867,-199.70703125,374.51171875,208.0078125,812.98828125,0.0,0,0
1772286676.367116,1772286676.3467646,-947.265625,301.26953125,190.4296875,-931.640625,0.0,0,0
1772286676.410769,1772286676.3507438,903.3203125,-132.8125,-117.1875,-45.8984375,0.0,0,0
1772286676.410856,1772286676.3546414,-404.296875,-358.88671875,-295.41015625,-1000.0,0.0,0,0
1772286676.4108958,1772286676.358539,-1000.0,-97.65625,-132.8125,-760.7421875,0.0,0,0
1772286676.410933,1772286676.3624368,-173.828125,334.47265625,179.19921875,535.15625,0.0,0,0
1772286676.4109702,1772286676.3663344,-992.1875,303.7109375,210.9375,-830.56640625,0.0,0,0
1772286676.4110148,1772286676.370232,-963.8671875,-173.33984375,-89.35546875,83.0078125,0.0,0,0
1772286676.411052,1772286676.3741298,-105.95703125,-453.125,-263.18359375,-1000.0,0.0,0,0
1772286676.411088,1772286676.3780274,-1000.0,-260.25390625,-166.015625,-910.64453125,0.0,0,0
1772286676.411124,1772286676.381925,-322.265625,227.5390625,119.62890625,298.828125,0.0,0,0
1772286676.4111612,1772286676.3858228,937.01171875,304.19921875,195.3125,-798.33984375,0.0,0,0
1772286676.411198,1772286676.3897204,-906.25,-171.38671875,-110.3515625,175.78125,0.0,0,0
1772286676.411237,1772286676.393618,99.12109375,-490.72265625,-335.44921875,-1000.0,0.0,0,0
1772286676.456754,1772286676.3975933,-1000.0,-339.84375,-254.8828125,-1000.0,0.0,0,0
1772286676.456875,1772286676.401491,-515.625,144.53125,56.15234375,45.8984375,0.0,0,0
1772286676.4569159,1772286676.4053886,846.6796875,336.42578125,196.77734375,-803.7109375,0.0,0,0
1772286676.456958,1772286676.4092863,-864.2578125,-79.1015625,-50.78125,314.453125,0.0,0,0
1772286676.456995,1772286676.413184,195.3125,-404.296875,-315.4296875,-960.9375,0.0,0,0
1772286676.457032,1772286676.4170816,-1000.0,-290.52734375,-289.0625,-1000.0,0.0,0,0
1772286676.457067,1772286676.4209795,-785.15625,125.48828125,28.3203125,-78.61328125,0.0,0,0
1772286676.457104,1772286676.4248772,588.37890625,387.20703125,214.84375,-844.23828125,0.0,0,0
1772286676.45714,1772286676.4287748,-810.546875,104.00390625,21.97265625,514.6484375,0.0,0,0
1772286676.4571872,1772286676.4326725,161.62109375,-335.9375,-243.1640625,-801.7578125,0.0,0,0
1772286676.457223,1772286676.4365702,-1000.0,-351.5625,-246.58203125,-1000.0,0.0,0,0
1772286676.4572558,1772286676.4404678,-977.5390625,142.08984375,44.43359375,-140.625,0.0,0,0
1772286676.516835,1772286676.4444325,285.15625,425.29296875,208.0078125,-895.01953125,0.0,0,0
1772286676.5169559,1772286676.4483302,-769.53125,89.35546875,40.52734375,687.5,0.0,0,0
1772286676.51701,1772286676.4522278,212.890625,-415.52734375,-261.71875,-583.0078125,0.0,0,0
1772286676.5170612,1772286676.4561255,-1000.0,-474.609375,-347.16796875,-1000.0,0.0,0,0
1772286676.51711,1772286676.4600234,-1000.0,-3.41796875,-55.6640625,-242.67578125,0.0,0,0
1772286676.517161,1772286676.463921,19.53125,311.03515625,168.45703125,-950.68359375,0.0,0,0
1772286676.517212,1772286676.4678187,-777.83203125,109.86328125,62.01171875,828.61328125,0.0,0,0
1772286676.5172632,1772286676.4717164,393.5546875,-360.3515625,-240.234375,-403.80859375,0.0,0,0
1772286676.517312,1772286676.475614,-917.48046875,-492.67578125,-350.09765625,-1000.0,0.0,0,0
1772286676.5173619,1772286676.4795117,-1000.0,-43.9453125,-81.54296875,-338.37890625,0.0,0,0
1772286676.51741,1772286676.4834094,-170.41015625,284.1796875,168.9453125,965.33203125,0.0,0,0
1772286676.5174599,1772286676.487307,-849.609375,163.0859375,115.72265625,978.515625,0.0,0,0
1772286676.55933,1772286676.491261,609.375,-255.859375,-181.15234375,-149.4140625,0.0,0,0
1772286676.55943,1772286676.4951587,-774.90234375,-422.36328125,-342.7734375,-1000.0,0.0,0,0
1772286676.5594811,1772286676.4990566,-1000.0,-26.85546875,-124.51171875,-489.74609375,0.0,0,0
1772286676.55953,1772286676.5029542,-207.03125,350.5859375,153.80859375,845.703125,0.0,0,0
1772286676.559581,1772286676.506852,-935.546875,254.8828125,149.90234375,-937.5,0.0,0,0
1772286676.559634,1772286676.5107496,864.2578125,-194.82421875,-141.11328125,-25.390625,0.0,0,0
1772286676.5596852,1772286676.5146472,-464.84375,-465.8203125,-333.0078125,-1000.0,0.0,0,0
1772286676.559735,1772286676.518545,-1000.0,-213.8671875,-170.41015625,-687.01171875,0.0,0,0
1772286676.559783,1772286676.5224426,-177.734375,264.16015625,128.90625,630.37109375,0.0,0,0
1772286676.559832,1772286676.5263405,-985.83984375,255.37109375,155.2734375,-844.23828125,0.0,0,0
1772286676.559882,1772286676.5302382,-980.95703125,-241.2109375,-132.32421875,83.0078125,0.0,0,0
1772286676.5599308,1772286676.5341358,-158.69140625,-535.15625,-332.03125,-1000.0,0.0,0,0
1772286676.620747,1772286676.5382385,-1000.0,-297.8515625,-220.21484375,-914.0625,0.0,0,0
1772286676.6208498,1772286676.5421362,-306.640625,206.0546875,92.7734375,316.89453125,0.0,0,0
1772286676.6209059,1772286676.5460339,942.3828125,304.19921875,170.41015625,-800.29296875,0.0,0,0
1772286676.620959,1772286676.5499318,-909.66796875,-119.62890625,-113.28125,149.90234375,0.0,0,0
1772286676.6210098,1772286676.5538294,77.1484375,-441.40625,-330.078125,-1000.0,0.0,0,0
1772286676.6212301,1772286676.557727,-1000.0,-326.171875,-266.6015625,-960.44921875,0.0,0,0
1772286676.621284,1772286676.561625,-452.1484375,157.71484375,3.41796875,170.8984375,0.0,0,0
1772286676.621335,1772286676.5655227,881.8359375,334.47265625,117.1875,-810.05859375,0.0,0,0
1772286676.621386,1772286676.5694203,-877.9296875,-49.8046875,-86.42578125,314.453125,0.0,0,0
1772286676.621438,1772286676.573318,203.125,-409.1796875,-301.26953125,-959.9609375,0.0,0,0
1772286676.6214871,1772286676.577216,-1000.0,-338.8671875,-284.1796875,-1000.0,0.0,0,0
1772286676.621535,1772286676.5811136,-664.0625,199.21875,19.53125,-33.203125,0.0,0,0
1772286676.651226,1772286676.585122,732.91015625,479.98046875,206.54296875,-839.35546875,0.0,0,0
1772286676.651326,1772286676.5890198,-836.42578125,55.6640625,14.16015625,500.0,0.0,0,0
1772286676.651382,1772286676.5929177,174.31640625,-375.9765625,-263.18359375,-809.5703125,0.0,0,0
1772286676.651434,1772286676.5968153,-1000.0,-339.35546875,-293.45703125,-1000.0,0.0,0,0
1772286676.651484,1772286676.600713,-917.48046875,140.625,-5.37109375,-122.0703125,0.0,0,0
1772286676.651534,1772286676.604611,398.4375,440.4296875,199.70703125,-878.41796875,0.0,0,0
1772286676.651583,1772286676.6085086,-781.73828125,100.5859375,43.9453125,625.0,0.0,0,0
1772286676.651632,1772286676.6124063,144.53125,-377.9296875,-261.23046875,-662.59765625,0.0,0,0
1772286676.6516821,1772286676.6163042,-1000.0,-385.25390625,-335.9375,-1000.0,0.0,0,0
1772286676.6517298,1772286676.6202018,-1000.0,81.54296875,-81.0546875,-214.35546875,0.0,0,0
1772286676.6517959,1772286676.6240995,76.171875,396.484375,139.16015625,-952.1484375,0.0,0,0
1772286676.6518452,1772286676.6279974,-765.13671875,210.44921875,76.66015625,843.75,0.0,0,0
1772286676.6958568,1772286676.6319964,317.3828125,-281.25,-190.91796875,-368.1640625,0.0,0,0
1772286676.695949,1772286676.635894,-957.03125,-447.265625,-312.5,-1000.0,0.0,0,0
1772286676.695991,1772286676.6397917,-1000.0,12.6953125,-94.7265625,-322.75390625,0.0,0,0
1772286676.696029,1772286676.6436896,-114.2578125,372.0703125,125.48828125,976.5625,0.0,0,0
1772286676.6960661,1772286676.6475873,-814.94140625,230.46875,76.171875,955.56640625,0.0,0,0
1772286676.696104,1772286676.6514852,520.99609375,-225.09765625,-182.12890625,-172.8515625,0.0,0,0
1772286676.6961548,1772286676.6553829,-851.07421875,-465.33203125,-334.9609375,-1000.0,0.0,0,0
1772286676.696192,1772286676.6592808,-1000.0,-61.5234375,-136.23046875,-465.8203125,0.0,0,0
1772286676.6962292,1772286676.6631784,-219.23828125,380.859375,133.30078125,861.81640625,0.0,0,0
1772286676.696266,1772286676.6670763,-912.59765625,269.53125,110.3515625,-942.87109375,0.0,0,0
1772286676.6963022,1772286676.670974,784.66796875,-208.984375,-156.25,-28.80859375,0.0,0,0
1772286676.6963499,1772286676.6748717,-580.078125,-468.26171875,-324.21875,-1000.0,0.0,0,0
1772286676.7407732,1772286676.6788595,-1000.0,-160.64453125,-168.9453125,-650.87890625,0.0,0,0
1772286676.7408462,1772286676.6827574,-183.59375,312.01171875,118.65234375,651.85546875,0.0,0,0
1772286676.740887,1772286676.686655,-978.02734375,331.0546875,145.01953125,-849.12109375,0.0,0,0
1772286676.740926,1772286676.6905527,998.046875,-113.76953125,-103.515625,99.609375,0.0,0,0
1772286676.7409642,1772286676.6944506,-228.02734375,-416.50390625,-269.04296875,-1000.0,0.0,0,0
1772286676.741001,1772286676.6983483,-1000.0,-176.7578125,-155.76171875,-802.24609375,0.0,0,0
1772286676.7410371,1772286676.7022462,-208.984375,314.453125,142.578125,447.75390625,0.0,0,0
1772286676.7410738,1772286676.7061439,989.2578125,334.9609375,201.171875,-815.91796875,0.0,0,0
1772286676.741111,1772286676.7100418,-942.87109375,-154.78515625,-68.359375,168.45703125,0.0,0,0
1772286676.741148,1772286676.7139394,-19.53125,-481.4453125,-261.23046875,-1000.0,0.0,0,0
1772286676.741197,1772286676.7178373,-1000.0,-306.640625,-191.89453125,-964.35546875,0.0,0,0
1772286676.7412329,1772286676.721735,-422.36328125,251.46484375,96.19140625,191.40625,0.0,0,0
1772286676.786309,1772286676.7257142,887.6953125,450.68359375,229.00390625,-803.22265625,0.0,0,0
1772286676.78645,1772286676.729612,-882.32421875,-39.0625,-8.30078125,315.91796875,0.0,0,0
1772286676.786508,1772286676.7335098,177.734375,-464.84375,-253.90625,-973.14453125,0.0,0,0
1772286676.7865658,1772286676.7374077,-1000.0,-343.26171875,-221.19140625,-1000.0,0.0,0,0
1772286676.786617,1772286676.7413056,-628.90625,177.734375,76.66015625,23.4375,0.0,0,0
1772286676.786667,1772286676.7452033,764.16015625,460.9375,252.44140625,-833.0078125,0.0,0,0
1772286676.786717,1772286676.7491012,-842.7734375,76.66015625,53.7109375,456.0546875,0.0,0,0
1772286676.786768,1772286676.7529988,177.734375,-381.8359375,-234.375,-854.98046875,0.0,0,0
1772286676.786818,1772286676.7568967,-1000.0,-337.890625,-261.71875,-1000.0,0.0,0,0
1772286676.786886,1772286676.7607944,-898.4375,157.2265625,25.87890625,-101.5625,0.0,0,0
1772286676.7869399,1772286676.7646923,427.24609375,450.68359375,213.37890625,-884.765625,0.0,0,0
1772286676.786989,1772286676.76859,-786.1328125,92.7734375,51.7578125,674.31640625,0.0,0,0
1772286676.8328419,1772286676.772562,148.92578125,-362.79296875,-237.79296875,-610.83984375,0.0,0,0
1772286676.832924,1772286676.77646,-1000.0,-366.2109375,-302.24609375,-1000.0,0.0,0,0
1772286676.8329751,1772286676.7803576,-1000.0,93.75,-29.296875,-182.12890625,0.0,0,0
1772286676.833024,1772286676.7842555,133.30078125,436.03515625,183.59375,-934.5703125,0.0,0,0
1772286676.8330739,1772286676.7881534,-762.6953125,209.9609375,77.63671875,817.87109375,0.0,0,0
1772286676.833125,1772286676.792051,305.17578125,-271.97265625,-208.49609375,-400.87890625,0.0,0,0
1772286676.8331761,1772286676.795949,-962.40234375,-403.3203125,-316.40625,-1000.0,0.0,0,0
1772286676.833225,1772286676.7998466,-1000.0,11.71875,-80.078125,-311.03515625,0.0,0,0
1772286676.833272,1772286676.8037446,-77.1484375,387.6953125,174.8046875,983.3984375,0.0,0,0
1772286676.8333209,1772286676.8076425,-801.7578125,250.48828125,129.8828125,960.9375,0.0,0,0
1772286676.833379,1772286676.8115401,469.7265625,-227.05078125,-157.71484375,-181.640625,0.0,0,0
1772286676.833429,1772286676.815438,-879.8828125,-407.2265625,-281.73828125,-1000.0,0.0,0,0
1772286676.876402,1772286676.8193958,-1000.0,-21.484375,-62.5,-433.59375,0.0,0,0
1772286676.876566,1772286676.8232934,-217.7734375,357.421875,191.40625,886.23046875,0.0,0,0
1772286676.876639,1772286676.8271914,-899.90234375,281.25,163.0859375,-948.2421875,0.0,0,0
1772286676.876694,1772286676.831089,748.53515625,-130.37109375,-107.421875,-19.53125,0.0,0,0
1772286676.876746,1772286676.834987,-625.0,-362.79296875,-272.94921875,-1000.0,0.0,0,0
1772286676.8767948,1772286676.8388848,-1000.0,-74.70703125,-109.375,-607.421875,0.0,0,0
1772286676.876844,1772286676.8427825,-188.96484375,307.12890625,182.12890625,694.82421875,0.0,0,0
1772286676.876894,1772286676.8466804,-967.7734375,289.0625,208.0078125,-854.98046875,0.0,0,0
1772286676.876943,1772286676.8505783,968.26171875,-92.7734375,-58.59375,114.74609375,0.0,0,0
1772286676.876993,1772286676.854476,-290.52734375,-398.4375,-253.90625,-1000.0,0.0,0,0
1772286676.877045,1772286676.8583739,-1000.0,-189.94140625,-141.6015625,-791.50390625,0.0,0,0
1772286676.8770938,1772286676.8622715,-170.41015625,304.19921875,173.33984375,497.55859375,0.0,0,0
1772286676.9370492,1772286676.8662221,-998.53515625,345.21484375,231.4453125,-874.51171875,0.0,0,0
1772286676.937162,1772286676.87012,-948.73046875,-92.28515625,-56.640625,65.4296875,0.0,0,0
1772286676.93722,1772286676.874018,-30.2734375,-396.97265625,-262.6953125,-1000.0,0.0,0,0
1772286676.937272,1772286676.8779156,-1000.0,-255.37109375,-206.0546875,-938.96484375,0.0,0,0
1772286676.937324,1772286676.8818135,-353.02734375,257.32421875,85.44921875,216.30859375,0.0,0,0
1772286676.937375,1772286676.8857114,927.24609375,424.8046875,213.8671875,-807.12890625,0.0,0,0
1772286676.9374259,1772286676.889609,-900.390625,-48.33984375,-37.59765625,264.16015625,0.0,0,0
1772286676.93752,1772286676.893507,130.859375,-433.59375,-273.4375,-995.1171875,0.0,0,0
1772286676.9376361,1772286676.897405,-1000.0,-313.4765625,-233.3984375,-1000.0,0.0,0,0
1772286676.9378428,1772286676.9013026,-555.6640625,178.22265625,59.5703125,12.20703125,0.0,0,0
1772286676.937901,1772286676.9052005,826.171875,395.01953125,231.4453125,-832.03125,0.0,0,0
1772286676.937953,1772286676.9090984,-857.421875,44.921875,42.96875,463.8671875,0.0,0,0
1772286676.9807842,1772286676.91305,189.94140625,-302.734375,-199.70703125,-852.05078125,0.0,0,0
1772286676.980884,1772286676.9169478,-1000.0,-297.36328125,-188.96484375,-1000.0,0.0,0,0
1772286676.9809191,1772286676.9208455,-816.89453125,148.92578125,99.12109375,-83.49609375,0.0,0,0
1772286676.98095,1772286676.9247434,546.875,459.47265625,273.4375,-876.953125,0.0,0,0
1772286676.980983,1772286676.9286413,-802.734375,121.58203125,98.14453125,626.46484375,0.0,0,0
1772286676.981013,1772286676.932539,154.78515625,-292.48046875,-184.08203125,-657.2265625,0.0,0,0
1772286676.9810429,1772286676.936437,-1000.0,-330.56640625,-254.39453125,-1000.0,0.0,0,0
1772286676.98107,1772286676.9403348,-1000.0,80.078125,4.39453125,-187.5,0.0,0,0
1772286676.981098,1772286676.9442325,202.63671875,443.84765625,228.02734375,-933.10546875,0.0,0,0
1772286676.981127,1772286676.9481304,-762.6953125,225.09765625,127.44140625,809.5703125,0.0,0,0
1772286676.9811661,1772286676.9520283,223.14453125,-291.015625,-169.921875,-419.921875,0.0,0,0
1772286676.9812028,1772286676.9559262,-1000.0,-414.0625,-276.85546875,-1000.0,0.0,0,0
1772286677.027436,1772286676.9599447,-1000.0,60.546875,-19.04296875,-288.0859375,0.0,0,0
1772286677.0275462,1772286676.9638426,-31.25,371.58203125,210.44921875,-996.58203125,0.0,0,0
1772286677.027593,1772286676.9677405,-787.109375,244.140625,136.71875,914.0625,0.0,0,0
1772286677.027631,1772286676.9716384,427.24609375,-175.78125,-152.34375,-238.76953125,0.0,0,0
1772286677.02767,1772286676.9755363,-899.90234375,-422.36328125,-294.43359375,-1000.0,0.0,0,0
1772286677.0277061,1772286676.979434,-1000.0,-71.77734375,-66.40625,-443.84765625,0.0,0,0
1772286677.027742,1772286676.983332,-208.984375,276.85546875,178.22265625,888.671875,0.0,0,0
1772286677.027791,1772286676.9872298,-875.48828125,214.84375,138.671875,-984.375,0.0,0,0
1772286677.0278342,1772286676.9911277,673.828125,-193.84765625,-121.09375,-94.7265625,0.0,0,0
1772286677.02787,1772286676.9950254,-713.8671875,-440.4296875,-277.34375,-1000.0,0.0,0,0
1772286677.0279338,1772286676.9989233,-1000.0,-126.953125,-98.6328125,-630.859375,0.0,0,0
1772286677.0279691,1772286677.0028212,-195.80078125,297.8515625,174.8046875,702.1484375,0.0,0,0
1772286677.0713751,1772286677.0068238,-957.51953125,287.109375,163.57421875,-879.8828125,0.0,0,0
1772286677.0714931,1772286677.0107217,935.05859375,-150.87890625,-115.234375,19.53125,0.0,0,0
1772286677.071553,1772286677.0146196,-349.12109375,-441.40625,-297.36328125,-1000.0,0.0,0,0
1772286677.071605,1772286677.0185173,-1000.0,-164.0625,-156.73828125,-779.296875,0.0,0,0
1772286677.0716548,1772286677.0224152,-170.8984375,305.17578125,147.4609375,485.83984375,0.0,0,0
1772286677.0717068,1772286677.026313,-997.0703125,344.23828125,205.078125,-814.94140625,0.0,0,0
1772286677.071765,1772286677.030211,-953.61328125,-81.54296875,-63.4765625,163.0859375,0.0,0,0
1772286677.071816,1772286677.0341089,-54.6875,-378.90625,-276.85546875,-1000.0,0.0,0,0
1772286677.071873,1772286677.0380068,-1000.0,-214.35546875,-177.734375,-937.98828125,0.0,0,0
1772286677.0719218,1772286677.0419047,-341.30859375,229.4921875,134.27734375,252.9296875,0.0,0,0
1772286677.0719721,1772286677.0458024,928.22265625,391.11328125,247.55859375,-797.36328125,0.0,0,0
1772286677.072022,1772286677.0497003,-900.390625,-24.90234375,-7.8125,297.36328125,0.0,0,0
1772286677.117399,1772286677.0536923,144.53125,-397.4609375,-247.0703125,-1000.0,0.0,0,0
1772286677.117492,1772286677.0575902,-1000.0,-267.578125,-200.1953125,-1000.0,0.0,0,0
1772286677.117551,1772286677.0614882,-548.828125,201.66015625,123.53515625,120.60546875,0.0,0,0
1772286677.1176052,1772286677.0653858,833.0078125,394.53125,291.015625,-825.68359375,0.0,0,0
1772286677.117661,1772286677.0692837,-858.88671875,23.92578125,61.03515625,447.265625,0.0,0,0
1772286677.117713,1772286677.0731816,189.94140625,-383.30078125,-221.6796875,-866.2109375,0.0,0,0
1772286677.117768,1772286677.0770795,-1000.0,-386.71875,-238.76953125,-1000.0,0.0,0,0
1772286677.117816,1772286677.0809774,-821.2890625,29.296875,73.73046875,-102.5390625,0.0,0,0
1772286677.117866,1772286677.0848753,541.015625,356.4453125,294.43359375,-876.46484375,0.0,0,0
1772286677.1179168,1772286677.0887733,-801.26953125,90.8203125,106.4453125,668.45703125,0.0,0,0
1772286677.1179678,1772286677.0926712,151.85546875,-365.234375,-208.0078125,-651.3671875,0.0,0,0
1772286677.11802,1772286677.096569,-1000.0,-395.5078125,-242.1875,-1000.0,0.0,0,0
1772286677.161421,1772286677.1005518,-1000.0,84.9609375,76.66015625,-148.92578125,0.0,0,0
1772286677.161529,1772286677.1044497,167.48046875,427.734375,314.94140625,-927.24609375,0.0,0,0
1772286677.1615849,1772286677.1083477,-763.18359375,198.73046875,166.9921875,836.42578125,0.0,0,0
1772286677.161637,1772286677.1122456,312.98828125,-263.671875,-143.5546875,-410.15625,0.0,0,0
1772286677.161689,1772286677.1161435,-959.47265625,-389.16015625,-221.19140625,-1000.0,0.0,0,0
1772286677.161738,1772286677.1200414,-1000.0,22.94921875,52.24609375,-198.2421875,0.0,0,0
1772286677.161793,1772286677.1239393,-57.6171875,351.5625,292.96875,-987.3046875,0.0,0,0
1772286677.1618419,1772286677.1278372,-802.734375,208.49609375,210.9375,996.58203125,0.0,0,0
1772286677.161898,1772286677.131735,499.0234375,-243.1640625,-109.86328125,-125.0,0.0,0,0
1772286677.1619468,1772286677.135633,-857.421875,-439.453125,-245.60546875,-1000.0,0.0,0,0
1772286677.161994,1772286677.139531,-1000.0,-49.31640625,12.6953125,-344.7265625,0.0,0,0
1772286677.1620522,1772286677.1434288,-212.40234375,336.42578125,286.1328125,947.265625,0.0,0,0
1772286677.2213068,1772286677.1474817,-934.5703125,266.6015625,253.41796875,-953.125,0.0,0,0
1772286677.221416,1772286677.1513796,859.375,-158.69140625,-56.640625,-11.71875,0.0,0,0
1772286677.2214751,1772286677.1552775,-470.21484375,-412.109375,-226.07421875,-1000.0,0.0,0,0
1772286677.221528,1772286677.1591754,-1000.0,-124.51171875,-1.46484375,-531.25,0.0,0,0
1772286677.221579,1772286677.1630733,-176.26953125,303.22265625,317.3828125,801.7578125,0.0,0,0
1772286677.2216399,1772286677.1669712,-989.74609375,274.90234375,322.265625,-876.953125,0.0,0,0
1772286677.221691,1772286677.170869,-971.19140625,-158.203125,-0.9765625,98.6328125,0.0,0,0
1772286677.22175,1772286677.174767,-135.25390625,-415.0390625,-213.8671875,-1000.0,0.0,0,0
1772286677.221799,1772286677.178665,-1000.0,-180.6640625,-66.89453125,-786.1328125,0.0,0,0
1772286677.221848,1772286677.182563,-261.71875,267.08984375,260.25390625,536.62109375,0.0,0,0
1772286677.221897,1772286677.186461,961.42578125,320.3125,307.12890625,-810.546875,0.0,0,0
1772286677.221965,1772286677.1903589,-918.9453125,-67.87109375,-8.30078125,140.625,0.0,0,0
1772286677.250829,1772286677.1943219,88.8671875,-290.0390625,-237.79296875,-1000.0,0.0,0,0
1772286677.2509189,1772286677.1982198,-1000.0,-135.7421875,-166.50390625,-987.3046875,0.0,0,0
1772286677.2509508,1772286677.2021177,-516.11328125,277.34375,173.828125,217.7734375,0.0,0,0
1772286677.2509801,1772286677.2060158,843.26171875,394.53125,326.66015625,-777.83203125,0.0,0,0
1772286677.251009,1772286677.2099137,-863.28125,-50.29296875,51.26953125,243.1640625,0.0,0,0
1772286677.2510378,1772286677.2138116,196.2890625,-391.11328125,-197.265625,-1000.0,0.0,0,0
1772286677.251071,1772286677.2177095,-1000.0,-359.86328125,-154.296875,-1000.0,0.0,0,0
1772286677.2510998,1772286677.2216074,-769.53125,84.47265625,207.51953125,9.765625,0.0,0,0
1772286677.2511292,1772286677.2255054,603.515625,343.75,409.66796875,-798.828125,0.0,0,0
1772286677.251158,1772286677.2294033,-809.5703125,-5.859375,135.25390625,417.48046875,0.0,0,0
1772286677.25119,1772286677.2333012,172.8515625,-323.2421875,-171.38671875,-895.99609375,0.0,0,0
1772286677.251219,1772286677.237199,-1000.0,-305.6640625,-177.24609375,-1000.0,0.0,0,0
1772286677.310236,1772286677.2411494,-1000.0,41.015625,144.04296875,-129.8828125,0.0,0,0
1772286677.3105311,1772286677.2450473,121.09375,297.36328125,334.9609375,-860.83984375,0.0,0,0
1772286677.310577,1772286677.2489452,-769.53125,58.10546875,132.32421875,635.25390625,0.0,0,0
1772286677.3106198,1772286677.2528431,383.7890625,-320.3125,-155.2734375,-707.51953125,0.0,0,0
1772286677.3106592,1772286677.2567413,-912.109375,-365.234375,-198.73046875,-1000.0,0.0,0,0
1772286677.310696,1772286677.2606392,-1000.0,10.25390625,108.88671875,-187.5,0.0,0,0
1772286677.310735,1772286677.264537,-166.9921875,261.71875,319.3359375,-933.10546875,0.0,0,0
1772286677.310771,1772286677.268435,-863.76953125,96.19140625,150.87890625,857.91015625,0.0,0,0
1772286677.3108082,1772286677.272333,664.0625,-199.70703125,-176.26953125,-425.29296875,0.0,0,0
1772286677.310844,1772286677.2762308,-710.9375,-305.17578125,-276.3671875,-1000.0,0.0,0,0
1772286677.310879,1772286677.2801287,-1000.0,14.6484375,19.04296875,-227.5390625,0.0,0,0
1772286677.310915,1772286677.2840269,-183.59375,292.48046875,275.87890625,-989.2578125,0.0,0,0
1772286677.3844821,1772286677.2879632,-986.328125,172.8515625,189.453125,985.3515625,0.0,0,0
1772286677.3845901,1772286677.291861,-996.58203125,-199.70703125,-122.55859375,-186.03515625,0.0,0,0
1772286677.384643,1772286677.295759,-178.22265625,-389.6484375,-258.30078125,-1000.0,0.0,0,0
1772286677.384692,1772286677.299657,-1000.0,-81.54296875,20.01953125,-360.83984375,0.0,0,0
1772286677.384741,1772286677.303555,-377.44140625,312.98828125,312.01171875,935.05859375,0.0,0,0
1772286677.384794,1772286677.307453,898.92578125,270.5078125,270.01953125,-939.94140625,0.0,0,0
1772286677.384846,1772286677.3113508,-889.6484375,-168.9453125,-51.7578125,-21.484375,0.0,0,0
1772286677.384896,1772286677.3152487,119.140625,-370.1171875,-224.609375,-1000.0,0.0,0,0
1772286677.384945,1772286677.3191466,-1000.0,-86.42578125,6.34765625,-553.22265625,0.0,0,0
1772286677.384995,1772286677.3230448,-847.16796875,249.0234375,298.33984375,796.38671875,0.0,0,0
1772286677.385045,1772286677.3269427,480.46875,260.7421875,281.25,-864.74609375,0.0,0,0
1772286677.3850932,1772286677.3308406,-790.52734375,-47.8515625,-43.9453125,114.2578125,0.0,0,0
1772286677.400967,1772286677.3348527,145.5078125,-327.1484375,-251.953125,-1000.0,0.0,0,0
1772286677.401058,1772286677.3387506,-1000.0,-110.83984375,-76.66015625,-775.390625,0.0,0,0
1772286677.401118,1772286677.3426487,-1000.0,240.72265625,234.375,565.91796875,0.0,0,0
1772286677.401172,1772286677.3465466,80.078125,274.90234375,295.41015625,-809.08203125,0.0,0,0
1772286677.401226,1772286677.3504446,-764.6484375,17.08984375,39.0625,147.94921875,0.0,0,0
1772286677.4012852,1772286677.3543425,320.80078125,-236.328125,-145.5078125,-1000.0,0.0,0,0
1772286677.401336,1772286677.3582406,-945.80078125,-174.31640625,-37.59765625,-995.60546875,0.0,0,0
1772286677.401388,1772286677.3621385,-1000.0,177.24609375,289.55078125,226.5625,0.0,0,0
1772286677.401437,1772286677.3660364,-189.94140625,337.40234375,382.8125,-771.97265625,0.0,0,0
1772286677.401474,1772286677.3699343,-832.51953125,51.7578125,79.1015625,203.61328125,0.0,0,0
1772286677.401511,1772286677.3738322,521.97265625,-256.34765625,-196.77734375,-1000.0,0.0,0,0
1772286677.401547,1772286677.3777304,-862.79296875,-213.37890625,-176.26953125,-1000.0,0.0,0,0
1772286677.445756,1772286677.381727,-1000.0,144.04296875,144.53125,-15.625,0.0,0,0
1772286677.4458282,1772286677.385625,-209.9609375,365.234375,300.78125,-787.109375,0.0,0,0
1772286677.4458659,1772286677.389523,-940.4296875,97.65625,27.34375,371.58203125,0.0,0,0
1772286677.445903,1772286677.393421,876.953125,-211.42578125,-262.6953125,-927.24609375,0.0,0,0
1772286677.44594,1772286677.3973188,-440.91796875,-171.875,-240.72265625,-1000.0,0.0,0,0
1772286677.445977,1772286677.401217,-1000.0,103.515625,97.65625,-178.22265625,0.0,0,0
1772286677.446015,1772286677.405115,-202.1484375,316.40625,300.78125,-857.421875,0.0,0,0
1772286677.4460511,1772286677.4090128,996.58203125,140.625,111.81640625,604.00390625,0.0,0,0
1772286677.4460878,1772286677.4129107,-962.40234375,-145.99609375,-175.29296875,-755.859375,0.0,0,0
1772286677.446134,1772286677.4168088,-103.515625,-147.94921875,-222.16796875,-1000.0,0.0,0,0
1772286677.44617,1772286677.4207067,-1000.0,114.2578125,97.65625,-206.54296875,0.0,0,0
1772286677.446225,1772286677.4246047,-412.109375,338.8671875,330.56640625,-914.0625,0.0,0,0
1772286677.5230348,1772286677.4287655,895.5078125,194.3359375,185.05859375,776.3671875,0.0,0,0
1772286677.523156,1772286677.4326637,-892.08984375,-107.91015625,-156.25,-544.43359375,0.0,0,0
1772286677.5231948,1772286677.4365616,74.70703125,-192.87109375,-247.55859375,-1000.0,0.0,0,0
1772286677.523236,1772286677.4404597,-1000.0,10.25390625,50.29296875,-215.33203125,0.0,0,0
1772286677.523273,1772286677.4443576,-660.64453125,290.52734375,279.78515625,-988.76953125,0.0,0,0
1772286677.5233111,1772286677.4482558,707.03125,256.34765625,196.2890625,995.60546875,0.0,0,0
1772286677.523349,1772286677.4521537,-830.078125,-103.02734375,-113.76953125,-183.59375,0.0,0,0
1772286677.523385,1772286677.4560516,172.36328125,-242.67578125,-225.09765625,-1000.0,0.0,0,0
1772286677.5234282,1772286677.4599497,-1000.0,51.7578125,65.4296875,-312.98828125,0.0,0,0
1772286677.523471,1772286677.4638476,-926.26953125,294.921875,332.51953125,942.3828125,0.0,0,0
1772286677.523515,1772286677.4677458,384.27734375,212.890625,289.0625,-916.9921875,0.0,0,0
1772286677.523561,1772286677.4716437,-779.78515625,-78.61328125,13.671875,60.546875,0.0,0,0
1772286677.53691,1772286677.4756289,144.04296875,-288.0859375,-180.6640625,-1000.0,0.0,0,0
1772286677.53698,1772286677.4795268,-1000.0,-77.63671875,-15.625,-512.20703125,0.0,0,0
1772286677.537029,1772286677.483425,-1000.0,220.21484375,290.52734375,827.63671875,0.0,0,0
1772286677.5371242,1772286677.4873228,65.4296875,186.5234375,290.52734375,-865.234375,0.0,0,0
1772286677.537258,1772286677.491221,-765.13671875,-85.44921875,-46.38671875,161.1328125,0.0,0,0
1772286677.537319,1772286677.4951189,294.43359375,-341.30859375,-274.4140625,-1000.0,0.0,0,0
1772286677.5373728,1772286677.499017,-965.8203125,-211.42578125,-122.0703125,-757.8125,0.0,0,0
1772286677.5374231,1772286677.502915,-1000.0,121.09375,201.66015625,588.8671875,0.0,0,0
1772286677.5374599,1772286677.506813,-132.8125,213.8671875,263.671875,-813.96484375,0.0,0,0
1772286677.537496,1772286677.510711,-814.453125,-28.3203125,-18.5546875,185.546875,0.0,0,0
1772286677.5375319,1772286677.514609,497.55859375,-248.53515625,-210.44921875,-1000.0,0.0,0,0
1772286677.537568,1772286677.518507,-869.140625,-89.84375,-78.125,-935.546875,0.0,0,0
1772286677.582015,1772286677.5224767,-1000.0,233.3984375,263.18359375,325.68359375,0.0,0,0
1772286677.582117,1772286677.5263746,-229.00390625,334.9609375,360.3515625,-784.1796875,0.0,0,0
1772286677.582175,1772286677.5302727,-888.18359375,42.96875,56.15234375,258.30078125,0.0,0,0
1772286677.582227,1772286677.5341706,693.359375,-268.5546875,-188.4765625,-994.140625,0.0,0,0
1772286677.5822778,1772286677.5380688,-694.3359375,-157.2265625,-123.046875,-1000.0,0.0,0,0
1772286677.582328,1772286677.5419667,-1000.0,162.109375,217.7734375,40.52734375,0.0,0,0
1772286677.5823832,1772286677.5458648,-204.1015625,246.09375,352.05078125,-798.33984375,0.0,0,0
1772286677.582433,1772286677.549763,-934.08203125,-62.98828125,41.50390625,437.5,0.0,0,0
1772286677.5824819,1772286677.5536609,860.83984375,-358.3984375,-270.01953125,-874.0234375,0.0,0,0
1772286677.5825331,1772286677.557559,-465.33203125,-294.43359375,-254.8828125,-1000.0,0.0,0,0
1772286677.582582,1772286677.561457,-1000.0,38.57421875,74.21875,-155.76171875,0.0,0,0
1772286677.58263,1772286677.565355,-197.265625,290.52734375,258.30078125,-860.83984375,0.0,0,0
1772286677.626378,1772286677.5693116,-994.140625,49.8046875,28.80859375,621.58203125,0.0,0,0
1772286677.6264791,1772286677.5732095,-974.609375,-343.26171875,-292.48046875,-727.5390625,0.0,0,0
1772286677.6265368,1772286677.5771077,-146.97265625,-344.7265625,-334.47265625,-1000.0,0.0,0,0
1772286677.6265888,1772286677.5810058,-1000.0,61.5234375,-21.484375,-194.3359375,0.0,0,0
1772286677.6266391,1772286677.5849037,-323.73046875,350.09765625,190.4296875,-924.31640625,0.0,0,0
1772286677.6268559,1772286677.5888019,948.2421875,177.24609375,32.2265625,830.56640625,0.0,0,0
1772286677.626911,1772286677.5926998,-921.875,-209.47265625,-299.31640625,-475.5859375,0.0,0,0
1772286677.626963,1772286677.596598,-11.23046875,-301.26953125,-392.578125,-1000.0,0.0,0,0
1772286677.627004,1772286677.600496,-1000.0,33.69140625,-59.08203125,-209.47265625,0.0,0,0
1772286677.627039,1772286677.604394,-457.03125,291.015625,195.3125,-983.3984375,0.0,0,0
1772286677.627075,1772286677.608292,873.046875,148.92578125,75.1953125,983.88671875,0.0,0,0
1772286677.62711,1772286677.61219,-878.41796875,-223.14453125,-254.39453125,-187.98828125,0.0,0,0
1772286677.673476,1772286677.6161427,147.4609375,-375.0,-362.3046875,-1000.0,0.0,0,0
1772286677.67363,1772286677.6200407,-1000.0,-79.1015625,-63.96484375,-334.47265625,0.0,0,0
1772286677.6736882,1772286677.6239388,-660.15625,228.02734375,208.984375,927.734375,0.0,0,0
1772286677.673741,1772286677.627837,724.609375,160.64453125,157.71484375,-908.203125,0.0,0,0
1772286677.673792,1772286677.6317348,-834.47265625,-189.94140625,-154.296875,80.56640625,0.0,0,0
1772286677.673846,1772286677.635633,173.828125,-393.06640625,-336.42578125,-1000.0,0.0,0,0
1772286677.673895,1772286677.639531,-1000.0,-178.7109375,-105.46875,-561.03515625,0.0,0,0
1772286677.6739452,1772286677.643429,-918.45703125,95.21484375,209.47265625,781.25,0.0,0,0
1772286677.673994,1772286677.6473272,396.97265625,83.49609375,194.3359375,-857.91015625,0.0,0,0
1772286677.674044,1772286677.651225,-782.71484375,-216.30859375,-109.375,141.11328125,0.0,0,0
1772286677.674094,1772286677.6551232,148.92578125,-431.15234375,-297.36328125,-1000.0,0.0,0,0
1772286677.674143,1772286677.6590214,-1000.0,-209.9609375,-127.9296875,-798.828125,0.0,0,0
1772286677.73221,1772286677.6629617,-1000.0,142.578125,206.0546875,525.87890625,0.0,0,0
1772286677.7323542,1772286677.6668599,131.8359375,166.9921875,247.55859375,-806.15234375,0.0,0,0
1772286677.732411,1772286677.6707578,-765.625,-101.07421875,-45.8984375,174.8046875,0.0,0,0
1772286677.732456,1772286677.674656,324.70703125,-292.48046875,-224.12109375,-1000.0,0.0,0,0
1772286677.732494,1772286677.678554,-962.40234375,-131.34765625,-80.078125,-964.35546875,0.0,0,0
1772286677.7325308,1772286677.682452,-1000.0,241.69921875,260.7421875,268.06640625,0.0,0,0
1772286677.732568,1772286677.68635,-18.5546875,312.01171875,361.328125,-781.73828125,0.0,0,0
1772286677.7326038,1772286677.6902483,-793.9453125,57.6171875,79.1015625,269.53125,0.0,0,0
1772286677.7326431,1772286677.6941462,473.14453125,-178.22265625,-155.2734375,-987.3046875,0.0,0,0
1772286677.732703,1772286677.6980443,-869.62890625,-157.2265625,-102.5390625,-1000.0,0.0,0,0
1772286677.732739,1772286677.7019424,-1000.0,160.15625,224.12109375,16.11328125,0.0,0,0
1772286677.732786,1772286677.7058403,-213.8671875,312.5,373.046875,-802.24609375,0.0,0,0
1772286677.7772129,1772286677.7098556,-893.5546875,65.4296875,106.4453125,426.26953125,0.0,0,0
1772286677.77732,1772286677.7137537,727.05078125,-224.12109375,-167.48046875,-885.7421875,0.0,0,0
1772286677.777363,1772286677.7176518,-648.92578125,-232.421875,-145.99609375,-1000.0,0.0,0,0
1772286677.7774022,1772286677.72155,-1000.0,49.31640625,178.7109375,-144.04296875,0.0,0,0
1772286677.777449,1772286677.725448,-191.40625,302.24609375,373.046875,-867.67578125,0.0,0,0
1772286677.777487,1772286677.729346,-962.890625,101.5625,138.18359375,660.15625,0.0,0,0
1772286677.777528,1772286677.7332442,952.1484375,-227.05078125,-166.50390625,-683.59375,0.0,0,0
1772286677.777565,1772286677.7371423,-314.94140625,-208.0078125,-166.015625,-1000.0,0.0,0,0
1772286677.777601,1772286677.7410402,-1000.0,109.375,151.3671875,-179.19921875,0.0,0,0
1772286677.777637,1772286677.7449384,-184.08203125,351.07421875,349.12109375,-932.12890625,0.0,0,0
1772286677.777683,1772286677.7488365,999.51171875,175.78125,175.78125,858.3984375,0.0,0,0
1772286677.77772,1772286677.7527347,-952.1484375,-170.8984375,-136.71875,-418.45703125,0.0,0,0
1772286677.821982,1772286677.7567346,-53.22265625,-242.67578125,-209.9609375,-1000.0,0.0,0,0
1772286677.822083,1772286677.7606328,-1000.0,80.078125,88.37890625,-223.6328125,0.0,0,0
1772286677.822141,1772286677.7645307,-359.375,374.51171875,333.0078125,-995.1171875,0.0,0,0
1772286677.822195,1772286677.7684288,919.921875,273.4375,225.09765625,-994.140625,0.0,0,0
1772286677.822248,1772286677.772327,-897.4609375,-57.6171875,-112.3046875,-142.08984375,0.0,0,0
1772286677.822301,1772286677.776225,138.18359375,-195.80078125,-240.72265625,-1000.0,0.0,0,0
1772286677.822352,1772286677.7801232,-1000.0,53.7109375,41.50390625,-323.2421875,0.0,0,0
1772286677.822402,1772286677.7840211,-610.3515625,320.80078125,301.7578125,936.5234375,0.0,0,0
1772286677.822454,1772286677.7879193,770.5078125,249.51171875,239.2578125,-911.1328125,0.0,0,0
1772286677.822507,1772286677.7918174,-844.23828125,-90.33203125,-82.51953125,81.0546875,0.0,0,0
1772286677.8225589,1772286677.7957156,178.22265625,-301.26953125,-267.578125,-1000.0,0.0,0,0
1772286677.822627,1772286677.7996137,-1000.0,-53.22265625,-49.8046875,-508.7890625,0.0,0,0
1772286677.8663402,1772286677.803603,-890.625,313.4765625,243.1640625,823.2421875,0.0,0,0
1772286677.866435,1772286677.807501,450.68359375,264.6484375,221.19140625,-866.69921875,0.0,0,0
1772286677.8665652,1772286677.8113992,-913.0859375,-40.52734375,-69.3359375,156.25,0.0,0,0
1772286677.866627,1772286677.8152971,918.45703125,-191.40625,-254.8828125,-1000.0,0.0,0,0
1772286677.866671,1772286677.8191953,-288.57421875,-113.28125,-117.1875,-718.75,0.0,0,0
1772286677.86671,1772286677.8230934,-1000.0,207.51953125,182.6171875,617.67578125,0.0,0,0
1772286677.866747,1772286677.8269916,-43.45703125,267.578125,208.984375,-822.75390625,0.0,0,0
1772286677.866785,1772286677.8308897,-782.71484375,-37.59765625,-96.6796875,178.22265625,0.0,0,0
1772286677.866823,1772286677.8347878,187.98828125,-279.296875,-313.4765625,-1000.0,0.0,0,0
1772286677.86686,1772286677.838686,-1000.0,-111.328125,-181.640625,-928.22265625,0.0,0,0
1772286677.866896,1772286677.842584,-977.05078125,169.921875,130.859375,329.58984375,0.0,0,0
1772286677.866932,1772286677.846482,-950.68359375,203.125,197.265625,-786.1328125,0.0,0,0
1772286677.911666,1772286677.8504636,-1000.0,56.640625,-48.33984375,255.859375,0.0,0,0
1772286677.911802,1772286677.8543618,-265.13671875,-68.359375,-242.1875,-997.0703125,0.0,0,0
1772286677.911861,1772286677.85826,-359.375,-78.125,-166.50390625,-1000.0,0.0,0,0
1772286677.911913,1772286677.862158,-1000.0,79.1015625,134.27734375,53.7109375,0.0,0,0
1772286677.911962,1772286677.8660562,-906.25,149.90234375,265.13671875,-792.96875,0.0,0,0
1772286677.912013,1772286677.8699543,-1000.0,-44.43359375,28.3203125,390.13671875,0.0,0,0
1772286677.912062,1772286677.8738525,-76.171875,-167.48046875,-217.28515625,-909.1796875,0.0,0,0
1772286677.912117,1772286677.8777506,142.08984375,-135.7421875,-183.10546875,-1000.0,0.0,0,0
1772286677.9121659,1772286677.8816488,-1000.0,41.9921875,104.98046875,-133.30078125,0.0,0,0
1772286677.912215,1772286677.885547,-935.05859375,218.26171875,265.13671875,-851.5625,0.0,0,0
1772286677.9123058,1772286677.889445,-1000.0,82.03125,80.56640625,604.98046875,0.0,0,0
1772286677.912365,1772286677.8933432,-240.72265625,-100.5859375,-178.22265625,-743.1640625,0.0,0,0
1772286677.9584918,1772286677.8973138,-843.75,-66.40625,-201.171875,-1000.0,0.0,0,0
1772286677.958602,1772286677.9012117,688.4765625,89.84375,62.98828125,-184.08203125,0.0,0,0
1772286677.958661,1772286677.90511,-958.49609375,211.9140625,247.55859375,-930.6640625,0.0,0,0
1772286677.958718,1772286677.909008,-255.859375,189.453125,105.46875,854.00390625,0.0,0,0
1772286677.958771,1772286677.9129062,-921.38671875,44.43359375,-154.296875,-434.08203125,0.0,0,0
1772286677.958823,1772286677.9168043,935.05859375,0.9765625,-195.3125,-1000.0,0.0,0,0
1772286677.958875,1772286677.9207025,-953.61328125,152.83203125,70.3125,-206.0546875,0.0,0,0
1772286677.958925,1772286677.9246006,-355.46875,238.28125,278.80859375,-986.81640625,0.0,0,0
1772286677.958976,1772286677.9284987,-180.6640625,186.03515625,186.03515625,999.0234375,0.0,0,0
1772286677.959213,1772286677.932397,-867.67578125,27.83203125,-77.63671875,-157.71484375,0.0,0,0
1772286677.959268,1772286677.936295,885.25390625,-97.16796875,-189.453125,-1000.0,0.0,0,0
1772286677.959317,1772286677.9401932,-861.328125,49.31640625,18.5546875,-314.94140625,0.0,0,0
1772286678.000926,1772286677.9441507,-125.9765625,144.04296875,240.234375,942.3828125,0.0,0,0
1772286678.001048,1772286677.9480488,-322.265625,107.91015625,185.05859375,-916.015625,0.0,0,0
1772286678.0010939,1772286677.951947,-914.55078125,3.41796875,-99.609375,61.03515625,0.0,0,0
1772286678.001132,1772286677.955845,904.296875,-114.2578125,-254.39453125,-1000.0,0.0,0,0
1772286678.001179,1772286677.9597433,-856.93359375,0.0,-62.5,-506.8359375,0.0,0,0
1772286678.001216,1772286677.9636414,50.78125,157.71484375,191.40625,829.1015625,0.0,0,0
1772286678.0012531,1772286677.9675395,-291.9921875,122.0703125,160.15625,-870.1171875,0.0,0,0
1772286678.00129,1772286677.9714377,-939.94140625,-38.57421875,-126.46484375,134.27734375,0.0,0,0
1772286678.001326,1772286677.9753358,915.52734375,-128.90625,-300.78125,-1000.0,0.0,0,0
1772286678.0013618,1772286677.979234,-857.91015625,2.44140625,-143.5546875,-735.3515625,0.0,0,0
1772286678.001398,1772286677.9831321,57.12890625,128.41796875,128.90625,604.98046875,0.0,0,0
1772286678.001434,1772286677.9870303,-339.84375,131.8359375,164.55078125,-818.84765625,0.0,0,0
1772286678.061093,1772286677.9909818,-957.03125,11.71875,-73.73046875,169.921875,0.0,0,0
1772286678.061236,1772286677.99488,916.9921875,-139.16015625,-274.90234375,-1000.0,0.0,0,0
1772286678.0612931,1772286677.998778,-887.6953125,-50.29296875,-166.9921875,-927.24609375,0.0,0,0
1772286678.061346,1772286678.0026762,189.453125,108.88671875,127.44140625,333.49609375,0.0,0,0
1772286678.061398,1772286678.0065744,-1000.0,154.78515625,205.56640625,-785.15625,0.0,0,0
1772286678.0614479,1772286678.0104725,377.44140625,53.22265625,-19.53125,240.234375,0.0,0,0
1772286678.0614989,1772286678.0143707,-944.82421875,-171.38671875,-218.26171875,-1000.0,0.0,0,0
1772286678.0615501,1772286678.0182688,-968.26171875,-135.7421875,-157.71484375,-1000.0,0.0,0,0
1772286678.0616,1772286678.022167,321.77734375,64.453125,129.8828125,75.68359375,0.0,0,0
1772286678.06165,1772286678.026065,-1000.0,113.76953125,257.8125,-788.57421875,0.0,0,0
1772286678.0617,1772286678.0299633,-1000.0,-18.06640625,27.83203125,357.421875,0.0,0,0
1772286678.061749,1772286678.0338614,176.7578125,-141.6015625,-207.51953125,-931.640625,0.0,0,0
1772286678.134633,1772286678.0379627,-767.578125,-89.84375,-190.4296875,-1000.0,0.0,0,0
1772286678.134787,1772286678.0418608,325.68359375,31.25,74.70703125,-121.09375,0.0,0,0
1772286678.134845,1772286678.045759,-946.77734375,108.3984375,222.65625,-840.8203125,0.0,0,0
1772286678.134899,1772286678.049657,-1000.0,36.1328125,26.85546875,563.4765625,0.0,0,0
1772286678.1349492,1772286678.0535553,-100.09765625,-102.05078125,-217.28515625,-780.76171875,0.0,0,0
1772286678.135009,1772286678.0574536,-831.0546875,-93.26171875,-223.14453125,-1000.0,0.0,0,0
1772286678.1350589,1772286678.0613518,598.14453125,14.6484375,43.45703125,-188.96484375,0.0,0,0
1772286678.13511,1772286678.06525,-770.5078125,131.34765625,259.765625,-908.69140625,0.0,0,0
1772286678.135169,1772286678.069148,-1000.0,85.9375,100.5859375,776.3671875,0.0,0,0
1772286678.135215,1772286678.0730462,-193.359375,-78.61328125,-200.1953125,-541.50390625,0.0,0,0
1772286678.135252,1772286678.0769444,-936.03515625,-100.09765625,-261.23046875,-1000.0,0.0,0,0
1772286678.135297,1772286678.0808427,887.6953125,53.7109375,-20.99609375,-211.42578125,0.0,0,0
1772286678.151614,1772286678.0848541,-595.21484375,166.50390625,203.61328125,-984.86328125,0.0,0,0
1772286678.151684,1772286678.0887523,-1000.0,127.44140625,127.44140625,981.4453125,0.0,0,0
1772286678.1517272,1772286678.0926504,671.38671875,-17.578125,-134.27734375,-187.5,0.0,0,0
1772286678.151765,1772286678.0965486,291.50390625,-198.73046875,-252.9296875,-1000.0,0.0,0,0
1772286678.1518059,1772286678.100447,-1000.0,-38.57421875,-30.76171875,-284.1796875,0.0,0,0
1772286678.151843,1772286678.104345,-975.09765625,232.421875,231.4453125,966.796875,0.0,0,0
1772286678.15188,1772286678.1082432,-973.14453125,184.5703125,176.7578125,-941.89453125,0.0,0,0
1772286678.151928,1772286678.1121414,-1000.0,-89.84375,-125.9765625,-3.90625,0.0,0,0
1772286678.1519659,1772286678.1160398,-974.609375,-277.83203125,-312.98828125,-1000.0,0.0,0,0
1772286678.152006,1772286678.119938,-981.93359375,-65.4296875,-135.25390625,-465.8203125,0.0,0,0
1772286678.152043,1772286678.123836,-1000.0,222.16796875,144.04296875,854.4921875,0.0,0,0
