timestamp,lsl_timestamp,TP9,AF7,AF8,TP10,Right AUX,keypress_A,keypress_B
1772272559.128723,1772272559.058417,272.4609375,2.9296875,75.1953125,-848.14453125,0.0,0,0
1772272559.128916,1772272559.062308,85.44921875,-31.73828125,-94.7265625,311.5234375,0.0,0,0
1772272559.1289458,1772272559.0661993,-222.65625,-50.78125,-153.3203125,-961.42578125,0.0,0,0
1772272559.1289752,1772272559.0700903,-277.83203125,-34.66796875,-71.77734375,-970.703125,0.0,0,0
1772272559.128999,1772272559.0739813,8.7890625,-12.6953125,73.73046875,170.8984375,0.0,0,0
1772272559.129023,1772272559.0778725,276.3671875,5.859375,79.1015625,-854.4921875,0.0,0,0
1772272559.129046,1772272559.0817635,142.578125,-30.2734375,-64.453125,461.42578125,0.0,0,0
1772272559.129069,1772272559.0856545,-217.28515625,-94.23828125,-167.48046875,-829.58984375,0.0,0,0
1772272559.1290932,1772272559.0895455,-292.96875,-55.17578125,-93.75,-1000.0,0.0,0,0
1772272559.129117,1772272559.0934367,19.53125,-0.48828125,98.6328125,54.6875,0.0,0,0
1772272559.129152,1772272559.0973277,269.53125,3.90625,119.62890625,-875.48828125,0.0,0,0
1772272559.1291761,1772272559.1012187,173.828125,-15.625,-41.50390625,576.66015625,0.0,0,0
1772272559.189915,1772272559.1052527,-155.76171875,-51.26953125,-163.0859375,-669.921875,0.0,0,0
1772272559.1900458,1772272559.109144,-309.5703125,-44.43359375,-99.609375,-1000.0,0.0,0,0
1772272559.1901069,1772272559.113035,-52.24609375,3.41796875,65.91796875,-102.05078125,0.0,0,0
1772272559.190161,1772272559.116926,237.3046875,9.765625,106.4453125,-913.57421875,0.0,0,0
1772272559.1902132,1772272559.1208172,165.52734375,-24.4140625,-15.625,690.4296875,0.0,0,0
1772272559.1902652,1772272559.1247082,-186.5234375,-40.0390625,-151.3671875,-519.04296875,0.0,0,0
1772272559.1903172,1772272559.1285994,-387.20703125,-70.80078125,-122.55859375,-1000.0,0.0,0,0
1772272559.190368,1772272559.1324904,-190.4296875,-48.828125,20.5078125,-344.23828125,0.0,0,0
1772272559.190418,1772272559.1363816,147.4609375,8.30078125,84.9609375,965.33203125,0.0,0,0
1772272559.190471,1772272559.1402726,145.5078125,-11.23046875,-11.71875,816.89453125,0.0,0,0
1772272559.190521,1772272559.1441636,-204.58984375,-43.9453125,-175.29296875,-394.04296875,0.0,0,0
1772272559.1905751,1772272559.1480548,-421.38671875,-49.8046875,-164.55078125,-1000.0,0.0,0,0
1772272559.234494,1772272559.1520855,-250.0,-21.97265625,-8.30078125,-458.984375,0.0,0,0
1772272559.234634,1772272559.1559768,106.93359375,1.46484375,67.3828125,841.30859375,0.0,0,0
1772272559.234669,1772272559.1598678,179.6875,-16.6015625,2.44140625,947.75390625,0.0,0,0
1772272559.2347,1772272559.163759,-127.44140625,-38.57421875,-148.92578125,-227.05078125,0.0,0,0
1772272559.234754,1772272559.16765,-363.28125,-44.921875,-164.55078125,-1000.0,0.0,0,0
1772272559.234785,1772272559.1715412,-211.42578125,-27.83203125,-11.71875,-537.109375,0.0,0,0
1772272559.234835,1772272559.1754322,120.60546875,-8.30078125,91.30859375,734.86328125,0.0,0,0
1772272559.234876,1772272559.1793234,212.890625,-19.04296875,25.87890625,-940.91796875,0.0,0,0
1772272559.234903,1772272559.1832144,-49.31640625,-58.10546875,-145.99609375,-43.9453125,0.0,0,0
1772272559.23493,1772272559.1871057,-320.3125,-62.01171875,-167.96875,-1000.0,0.0,0,0
1772272559.234973,1772272559.1909966,-218.26171875,-29.296875,-10.7421875,-649.90234375,0.0,0,0
1772272559.235012,1772272559.1948879,147.4609375,-17.08984375,113.76953125,587.890625,0.0,0,0
1772272559.279382,1772272559.198986,290.0390625,-22.94921875,42.96875,-882.32421875,0.0,0,0
1772272559.27948,1772272559.2028773,28.3203125,-45.8984375,-135.25390625,96.6796875,0.0,0,0
1772272559.279521,1772272559.2067683,-275.87890625,-56.15234375,-175.29296875,-1000.0,0.0,0,0
1772272559.279559,1772272559.2106595,-268.06640625,-26.3671875,-60.05859375,-788.57421875,0.0,0,0
1772272559.279628,1772272559.2145507,76.171875,7.32421875,97.65625,398.92578125,0.0,0,0
1772272559.2796679,1772272559.2184417,296.38671875,-1.953125,79.58984375,-848.14453125,0.0,0,0
1772272559.279706,1772272559.222333,79.1015625,-41.9921875,-90.8203125,267.08984375,0.0,0,0
1772272559.279743,1772272559.2262242,-260.25390625,-64.94140625,-164.0625,-1000.0,0.0,0,0
1772272559.279795,1772272559.2301152,-316.40625,-50.78125,-75.1953125,-924.31640625,0.0,0,0
1772272559.279833,1772272559.2340064,51.7578125,-17.08984375,101.5625,244.62890625,0.0,0,0
1772272559.27987,1772272559.2378976,309.5703125,-23.4375,82.03125,-851.07421875,0.0,0,0
1772272559.279906,1772272559.2417886,125.9765625,-53.7109375,-74.21875,397.94921875,0.0,0,0
1772272559.34111,1772272559.2459626,-186.03515625,-62.5,-149.4140625,-867.67578125,0.0,0,0
1772272559.341253,1772272559.2498536,-277.83203125,-52.24609375,-97.16796875,-1000.0,0.0,0,0
1772272559.3413079,1772272559.2537448,-1.953125,-17.08984375,63.96484375,58.10546875,0.0,0,0
1772272559.3413608,1772272559.257636,290.0390625,2.44140625,79.1015625,-867.67578125,0.0,0,0
1772272559.341413,1772272559.2615273,174.8046875,-32.2265625,-65.4296875,542.96875,0.0,0,0
1772272559.341464,1772272559.2654185,-203.61328125,-58.59375,-164.0625,-716.796875,0.0,0,0
1772272559.341515,1772272559.2693098,-317.87109375,-39.0625,-108.3984375,-1000.0,0.0,0,0
1772272559.341565,1772272559.273201,-35.64453125,-4.39453125,52.24609375,-85.9375,0.0,0,0
1772272559.341614,1772272559.277092,219.23828125,-16.6015625,82.51953125,-908.69140625,0.0,0,0
1772272559.341664,1772272559.2809832,159.1796875,-54.6875,-37.109375,666.9921875,0.0,0,0
1772272559.341713,1772272559.2848744,-146.484375,-51.26953125,-157.2265625,-545.8984375,0.0,0,0
1772272559.341763,1772272559.2887657,-305.17578125,-40.0390625,-124.0234375,-1000.0,0.0,0,0
1772272559.370642,1772272559.292845,-93.26171875,-23.4375,32.2265625,-239.74609375,0.0,0,0
1772272559.370722,1772272559.2967362,226.5625,-7.8125,79.1015625,-978.515625,0.0,0,0
1772272559.370774,1772272559.3006275,251.953125,-16.11328125,-13.18359375,835.44921875,0.0,0,0
1772272559.3708239,1772272559.3045187,-95.703125,-46.875,-156.25,-336.9140625,0.0,0,0
1772272559.370875,1772272559.30841,-323.73046875,-53.22265625,-145.99609375,-1000.0,0.0,0,0
1772272559.370925,1772272559.3123012,-113.76953125,-18.5546875,28.80859375,-343.75,0.0,0,0
1772272559.370975,1772272559.3161924,209.47265625,-3.41796875,93.26171875,950.1953125,0.0,0,0
1772272559.3710248,1772272559.3200836,256.8359375,-18.06640625,-4.39453125,916.9921875,0.0,0,0
1772272559.3710752,1772272559.3239748,-59.08203125,-44.921875,-165.52734375,-240.72265625,0.0,0,0
1772272559.371126,1772272559.327866,-305.17578125,-53.7109375,-174.31640625,-1000.0,0.0,0,0
1772272559.3711739,1772272559.3317573,-119.140625,-14.6484375,-2.44140625,-499.51171875,0.0,0,0
1772272559.3712242,1772272559.3356485,221.19140625,4.8828125,104.00390625,782.71484375,0.0,0,0
1772272559.4148219,1772272559.3397167,301.7578125,-29.296875,29.78515625,-967.28515625,0.0,0,0
1772272559.4149451,1772272559.343608,11.71875,-56.640625,-129.8828125,-78.61328125,0.0,0,0
1772272559.4149811,1772272559.3474991,-273.92578125,-48.828125,-159.66796875,-1000.0,0.0,0,0
1772272559.415015,1772272559.3513906,-182.12890625,-32.2265625,-34.1796875,-633.7890625,0.0,0,0
1772272559.415047,1772272559.3552818,151.3671875,-16.6015625,73.73046875,603.515625,0.0,0,0
1772272559.4150772,1772272559.359173,291.015625,-7.8125,32.71484375,-886.23046875,0.0,0,0
1772272559.415107,1772272559.3630643,33.203125,-28.80859375,-120.60546875,92.28515625,0.0,0,0
1772272559.415136,1772272559.3669555,-278.80859375,-65.4296875,-175.29296875,-1000.0,0.0,0,0
1772272559.415165,1772272559.3708467,-255.37109375,-63.4765625,-62.98828125,-777.83203125,0.0,0,0
1772272559.415205,1772272559.374738,78.125,-10.25390625,95.21484375,412.59765625,0.0,0,0
1772272559.415234,1772272559.3786292,274.90234375,2.44140625,78.125,-853.02734375,0.0,0,0
1772272559.415273,1772272559.3825204,31.25,-32.71484375,-90.33203125,234.375,0.0,0,0
1772272559.460418,1772272559.3865778,-282.2265625,-52.734375,-158.203125,-1000.0,0.0,0,0
1772272559.460523,1772272559.3904693,-283.69140625,-33.69140625,-58.59375,-886.71875,0.0,0,0
1772272559.460562,1772272559.3943605,37.59765625,-3.41796875,111.328125,291.015625,0.0,0,0
1772272559.461283,1772272559.3982518,262.6953125,-8.30078125,91.30859375,-848.6328125,0.0,0,0
1772272559.4613252,1772272559.402143,88.37890625,-44.921875,-83.49609375,380.37109375,0.0,0,0
1772272559.461366,1772272559.4060342,-211.9140625,-57.6171875,-152.83203125,-904.78515625,0.0,0,0
1772272559.461411,1772272559.4099257,-274.4140625,-36.62109375,-65.91796875,-1000.0,0.0,0,0
1772272559.461448,1772272559.413817,18.06640625,-27.83203125,79.58984375,134.27734375,0.0,0,0
1772272559.461484,1772272559.4177082,259.765625,-20.5078125,90.8203125,-865.72265625,0.0,0,0
1772272559.46152,1772272559.4215994,117.1875,-34.1796875,-60.546875,509.765625,0.0,0,0
1772272559.461556,1772272559.4254909,-204.1015625,-52.24609375,-148.4375,-751.953125,0.0,0,0
1772272559.461592,1772272559.429382,-324.21875,-41.50390625,-80.56640625,-1000.0,0.0,0,0
1772272559.5074291,1772272559.4334238,-66.40625,-17.578125,62.01171875,-56.15234375,0.0,0,0
1772272559.5075488,1772272559.437315,232.421875,-5.37109375,105.46875,-896.97265625,0.0,0,0
1772272559.5076082,1772272559.4412065,162.59765625,-31.25,-23.92578125,631.34765625,0.0,0,0
1772272559.507662,1772272559.4450977,-201.171875,-52.734375,-156.25,-599.609375,0.0,0,0
1772272559.5077178,1772272559.448989,-367.67578125,-49.8046875,-128.90625,-1000.0,0.0,0,0
1772272559.507773,1772272559.4528804,-104.98046875,-17.578125,32.71484375,-199.21875,0.0,0,0
1772272559.507825,1772272559.4567716,224.12109375,2.9296875,99.609375,-941.40625,0.0,0,0
1772272559.5078762,1772272559.4606628,183.59375,-43.9453125,-29.78515625,734.86328125,0.0,0,0
1772272559.5079439,1772272559.4645543,-187.01171875,-60.05859375,-177.24609375,-468.75,0.0,0,0
1772272559.508013,1772272559.4684455,-356.93359375,-40.52734375,-142.578125,-1000.0,0.0,0,0
1772272559.508102,1772272559.4723368,-130.859375,-17.578125,18.06640625,-342.28515625,0.0,0,0
1772272559.508152,1772272559.476228,184.5703125,6.34765625,92.28515625,941.89453125,0.0,0,0
1772272559.549628,1772272559.4802585,222.16796875,-15.625,8.30078125,913.0859375,0.0,0,0
1772272559.5497658,1772272559.4841497,-110.83984375,-48.828125,-145.01953125,-247.0703125,0.0,0,0
1772272559.549823,1772272559.4880412,-364.74609375,-50.29296875,-149.4140625,-1000.0,0.0,0,0
1772272559.549876,1772272559.4919324,-198.73046875,-24.4140625,10.7421875,-453.61328125,0.0,0,0
1772272559.54993,1772272559.4958236,154.296875,-0.9765625,88.8671875,829.1015625,0.0,0,0
1772272559.549985,1772272559.499715,221.6796875,-6.34765625,17.578125,-978.515625,0.0,0,0
1772272559.550036,1772272559.5036063,-83.49609375,-48.828125,-151.3671875,-93.75,0.0,0,0
1772272559.5500858,1772272559.5074978,-318.84765625,-58.59375,-166.015625,-1000.0,0.0,0,0
1772272559.550136,1772272559.511389,-199.70703125,-14.16015625,-11.71875,-580.56640625,0.0,0,0
1772272559.5502038,1772272559.5152805,108.3984375,3.90625,83.0078125,678.22265625,0.0,0,0
1772272559.550273,1772272559.5191717,232.91015625,-8.30078125,38.0859375,-905.2734375,0.0,0,0
1772272559.550333,1772272559.523063,-15.625,-23.92578125,-104.4921875,43.45703125,0.0,0,0
1772272559.6395562,1772272559.5270822,-320.3125,-43.9453125,-154.78515625,-1000.0,0.0,0,0
1772272559.639681,1772272559.5309734,-278.3203125,-31.73828125,-32.2265625,-716.30859375,0.0,0,0
1772272559.639724,1772272559.534865,59.5703125,1.46484375,116.2109375,501.953125,0.0,0,0
1772272559.639761,1772272559.5387561,231.93359375,-5.37109375,67.3828125,-857.421875,0.0,0,0
1772272559.6398,1772272559.5426476,26.85546875,-38.0859375,-104.00390625,207.51953125,0.0,0,0
1772272559.639838,1772272559.5465388,-276.3671875,-55.17578125,-146.97265625,-1000.0,0.0,0,0
1772272559.639882,1772272559.5504303,-279.78515625,-38.0859375,-36.62109375,-870.60546875,0.0,0,0
1772272559.639919,1772272559.5543215,52.734375,-15.13671875,104.4921875,304.19921875,0.0,0,0
1772272559.63996,1772272559.558213,263.671875,-14.6484375,76.66015625,-847.65625,0.0,0,0
1772272559.639997,1772272559.5621042,73.2421875,-33.203125,-85.44921875,332.51953125,0.0,0,0
1772272559.640034,1772272559.5659957,-236.328125,-41.50390625,-155.76171875,-946.2890625,0.0,0,0
1772272559.640071,1772272559.569887,-284.1796875,-25.87890625,-68.84765625,-988.76953125,0.0,0,0
1772272559.6532679,1772272559.5739105,8.7890625,-3.41796875,93.26171875,156.25,0.0,0,0
1772272559.653353,1772272559.577802,257.32421875,-6.34765625,92.28515625,-858.3984375,0.0,0,0
1772272559.6534069,1772272559.5816932,113.28125,-23.4375,-63.96484375,479.00390625,0.0,0,0
1772272559.653493,1772272559.5855846,-221.6796875,-34.66796875,-157.71484375,-787.109375,0.0,0,0
1772272559.653546,1772272559.5894759,-321.77734375,-33.69140625,-83.0078125,-1000.0,0.0,0,0
1772272559.6535969,1772272559.5933673,-21.484375,-4.8828125,96.6796875,7.32421875,0.0,0,0
1772272559.653655,1772272559.5972588,254.8828125,0.48828125,117.67578125,-878.41796875,0.0,0,0
1772272559.653708,1772272559.60115,153.3203125,-23.4375,-27.34375,591.796875,0.0,0,0
1772272559.65376,1772272559.6050415,-175.29296875,-50.29296875,-148.4375,-643.5546875,0.0,0,0
1772272559.653812,1772272559.6089327,-337.40234375,-50.29296875,-98.6328125,-1000.0,0.0,0,0
1772272559.653862,1772272559.6128242,-72.75390625,-15.625,62.98828125,-151.85546875,0.0,0,0
1772272559.653912,1772272559.6167157,254.39453125,-0.48828125,104.98046875,-934.08203125,0.0,0,0
1772272559.698689,1772272559.6207936,222.65625,-23.92578125,-10.7421875,752.9296875,0.0,0,0
1772272559.698802,1772272559.6246848,-112.3046875,-48.33984375,-160.64453125,-435.546875,0.0,0,0
1772272559.6988611,1772272559.6285763,-301.7578125,-43.45703125,-130.37109375,-1000.0,0.0,0,0
1772272559.698915,1772272559.6324677,-100.5859375,-25.87890625,23.92578125,-314.94140625,0.0,0,0
1772272559.6989691,1772272559.636359,215.33203125,-16.11328125,83.0078125,972.65625,0.0,0,0
1772272559.699022,1772272559.6402504,226.07421875,-37.59765625,0.9765625,883.7890625,0.0,0,0
1772272559.699075,1772272559.644142,-97.16796875,-61.03515625,-142.578125,-286.1328125,0.0,0,0
1772272559.699126,1772272559.6480334,-299.31640625,-55.17578125,-138.18359375,-1000.0,0.0,0,0
1772272559.699178,1772272559.6519246,-133.30078125,-29.78515625,3.41796875,-431.15234375,0.0,0,0
1772272559.6992419,1772272559.655816,190.91796875,-7.8125,89.84375,850.5859375,0.0,0,0
1772272559.699299,1772272559.6597075,262.6953125,-13.671875,23.4375,993.65234375,0.0,0,0
1772272559.699351,1772272559.6635988,-51.26953125,-40.52734375,-138.671875,-138.18359375,0.0,0,0
1772272559.7437508,1772272559.6676655,-290.0390625,-45.8984375,-151.3671875,-1000.0,0.0,0,0
1772272559.7438369,1772272559.671557,-155.2734375,-20.01953125,0.0,-569.3359375,0.0,0,0
1772272559.743888,1772272559.6754484,175.78125,-3.90625,103.515625,694.82421875,0.0,0,0
1772272559.74394,1772272559.6793396,294.43359375,-10.7421875,41.015625,-914.55078125,0.0,0,0
1772272559.7439911,1772272559.683231,3.41796875,-38.0859375,-130.37109375,8.30078125,0.0,0,0
1772272559.744042,1772272559.6871226,-301.7578125,-59.08203125,-166.50390625,-1000.0,0.0,0,0
1772272559.744092,1772272559.691014,-227.05078125,-32.71484375,-13.18359375,-685.546875,0.0,0,0
1772272559.744143,1772272559.6949055,135.25390625,6.8359375,124.0234375,543.45703125,0.0,0,0
1772272559.7442079,1772272559.698797,286.1328125,0.48828125,65.91796875,-862.79296875,0.0,0,0
1772272559.74426,1772272559.7026882,35.15625,-39.55078125,-95.703125,167.48046875,0.0,0,0
1772272559.7443159,1772272559.7065797,-275.390625,-61.03515625,-149.4140625,-1000.0,0.0,0,0
1772272559.744374,1772272559.7104712,-279.296875,-42.48046875,-43.45703125,-835.44921875,0.0,0,0
1772272559.789867,1772272559.7145276,51.26953125,-13.18359375,107.91015625,344.7265625,0.0,0,0
1772272559.789958,1772272559.718419,238.28125,-6.8359375,87.890625,-849.12109375,0.0,0,0
1772272559.7900102,1772272559.7223105,30.2734375,-37.59765625,-81.0546875,292.96875,0.0,0,0
1772272559.790061,1772272559.726202,-268.06640625,-56.640625,-154.78515625,-986.328125,0.0,0,0
1772272559.790112,1772272559.7300935,-286.1328125,-28.3203125,-50.78125,-933.10546875,0.0,0,0
1772272559.790163,1772272559.733985,42.48046875,2.44140625,106.4453125,235.83984375,0.0,0,0
1772272559.7902138,1772272559.7378764,267.578125,-4.8828125,78.61328125,-851.07421875,0.0,0,0
1772272559.7905211,1772272559.741768,107.421875,-28.3203125,-76.66015625,430.6640625,0.0,0,0
1772272559.7905762,1772272559.745659,-239.2578125,-42.96875,-166.9921875,-849.12109375,0.0,0,0
1772272559.790636,1772272559.7495506,-331.0546875,-33.69140625,-77.63671875,-1000.0,0.0,0,0
1772272559.790704,1772272559.753442,-30.2734375,-21.97265625,81.0546875,49.8046875,0.0,0,0
1772272559.790754,1772272559.7573335,234.86328125,-9.27734375,101.07421875,-876.953125,0.0,0,0
1772272559.833926,1772272559.7613797,136.71875,-30.76171875,-37.109375,569.3359375,0.0,0,0
1772272559.834034,1772272559.7652712,-206.0546875,-56.640625,-150.390625,-680.6640625,0.0,0,0
1772272559.834076,1772272559.7691627,-330.56640625,-38.0859375,-94.7265625,-1000.0,0.0,0,0
1772272559.834114,1772272559.7730541,-55.17578125,-8.7890625,54.6875,-132.32421875,0.0,0,0
1772272559.834152,1772272559.7769456,257.32421875,7.8125,110.83984375,-925.29296875,0.0,0,0
1772272559.834189,1772272559.780837,209.9609375,-11.71875,-7.32421875,723.14453125,0.0,0,0
1772272559.834226,1772272559.7847285,-146.484375,-49.31640625,-158.69140625,-479.98046875,0.0,0,0
1772272559.834264,1772272559.78862,-337.40234375,-53.22265625,-129.39453125,-1000.0,0.0,0,0
1772272559.8343291,1772272559.7925115,-103.02734375,-21.97265625,40.52734375,-267.578125,0.0,0,0
1772272559.834372,1772272559.796403,212.40234375,-7.32421875,101.5625,-991.2109375,0.0,0,0
1772272559.834409,1772272559.8002944,209.47265625,-25.87890625,-2.44140625,830.56640625,0.0,0,0
1772272559.8344462,1772272559.8041859,-102.05078125,-52.24609375,-158.69140625,-347.16796875,0.0,0,0
1772272559.8788521,1772272559.8082216,-317.87109375,-54.6875,-145.99609375,-1000.0,0.0,0,0
1772272559.878929,1772272559.812113,-156.73828125,-30.76171875,13.671875,-410.15625,0.0,0,0
1772272559.878977,1772272559.8160048,170.8984375,-5.859375,96.6796875,880.859375,0.0,0,0
1772272559.879018,1772272559.8198962,232.91015625,-20.5078125,23.4375,955.56640625,0.0,0,0
1772272559.879055,1772272559.8237877,-65.4296875,-53.22265625,-142.08984375,-201.171875,0.0,0,0
1772272559.8790941,1772272559.8276792,-300.78125,-43.45703125,-139.16015625,-1000.0,0.0,0,0
1772272559.8791301,1772272559.8315706,-172.8515625,-13.18359375,12.6953125,-514.16015625,0.0,0,0
1772272559.879183,1772272559.835462,156.73828125,8.7890625,90.33203125,768.06640625,0.0,0,0
1772272559.879222,1772272559.8393538,250.48828125,-12.6953125,15.625,-953.125,0.0,0,0
1772272559.8792691,1772272559.8432453,-38.57421875,-45.41015625,-130.37109375,-55.6640625,0.0,0,0
1772272559.8793159,1772272559.8471367,-316.40625,-46.875,-164.55078125,-1000.0,0.0,0,0
1772272559.879352,1772272559.8510282,-232.421875,-25.87890625,-27.34375,-647.4609375,0.0,0,0
1772272559.9397671,1772272559.8551373,116.69921875,-11.71875,87.890625,592.7734375,0.0,0,0
1772272559.939879,1772272559.859029,228.02734375,-17.578125,24.4140625,-883.7890625,0.0,0,0
1772272559.939919,1772272559.8629205,-26.3671875,-31.73828125,-121.58203125,94.7265625,0.0,0,0
1772272559.939959,1772272559.866812,-299.8046875,-46.875,-176.7578125,-1000.0,0.0,0,0
1772272559.94,1772272559.8707037,-263.671875,-26.85546875,-45.8984375,-777.83203125,0.0,0,0
1772272559.940038,1772272559.8745952,92.7734375,12.20703125,138.18359375,419.43359375,0.0,0,0
1772272559.940075,1772272559.8784866,279.296875,3.41796875,100.5859375,-849.12109375,0.0,0,0
1772272559.9401119,1772272559.8823783,54.19921875,-41.9921875,-83.49609375,236.81640625,0.0,0,0
1772272559.940149,1772272559.8862698,-262.20703125,-53.7109375,-137.20703125,-1000.0,0.0,0,0
1772272559.9401941,1772272559.8901613,-277.83203125,-26.3671875,-41.015625,-911.1328125,0.0,0,0
1772272559.94024,1772272559.894053,47.36328125,8.7890625,108.3984375,253.90625,0.0,0,0
1772272559.9402912,1772272559.8979445,259.27734375,1.953125,95.703125,-848.14453125,0.0,0,0
1772272560.0124538,1772272559.901963,82.51953125,-37.109375,-63.96484375,387.6953125,0.0,0,0
1772272560.012515,1772272559.9058545,-231.4453125,-50.29296875,-146.97265625,-883.30078125,0.0,0,0
1772272560.012546,1772272559.909746,-296.875,-36.62109375,-74.21875,-1000.0,0.0,0,0
1772272560.012576,1772272559.9136376,-11.71875,-14.6484375,82.03125,53.22265625,0.0,0,0
1772272560.0126,1772272559.917529,281.73828125,-3.41796875,115.234375,-874.51171875,0.0,0,0
1772272560.0126238,1772272559.9214208,186.5234375,-17.08984375,-22.4609375,558.10546875,0.0,0,0
1772272560.0126479,1772272559.9253123,-181.640625,-42.48046875,-142.578125,-701.171875,0.0,0,0
1772272560.012672,1772272559.9292037,-298.828125,-44.921875,-101.5625,-1000.0,0.0,0,0
1772272560.0126982,1772272559.9330955,-31.25,-20.99609375,58.59375,-74.70703125,0.0,0,0
1772272560.012722,1772272559.936987,241.69921875,-9.765625,91.30859375,-904.78515625,0.0,0,0
1772272560.012746,1772272559.9408786,179.19921875,-24.90234375,-37.59765625,657.71484375,0.0,0,0
1772272560.01277,1772272559.94477,-138.671875,-44.921875,-142.08984375,-564.453125,0.0,0,0
1772272560.028491,1772272559.9487827,-301.7578125,-43.9453125,-104.4921875,-1000.0,0.0,0,0
1772272560.028627,1772272559.9526744,-84.9609375,-16.11328125,43.45703125,-226.07421875,0.0,0,0
1772272560.028685,1772272559.9565659,234.86328125,7.8125,106.4453125,-967.7734375,0.0,0,0
1772272560.028739,1772272559.9604576,242.1875,-13.671875,-3.41796875,798.828125,0.0,0,0
1772272560.028791,1772272559.964349,-82.51953125,-51.7578125,-154.78515625,-387.6953125,0.0,0,0
1772272560.0288541,1772272559.9682407,-299.8046875,-46.38671875,-114.74609375,-1000.0,0.0,0,0
1772272560.028916,1772272559.9721322,-107.421875,-21.97265625,26.85546875,-376.953125,0.0,0,0
1772272560.0289679,1772272559.976024,203.61328125,-2.44140625,90.8203125,919.43359375,0.0,0,0
1772272560.0290189,1772272559.9799154,224.609375,-13.671875,8.7890625,921.875,0.0,0,0
1772272560.0290701,1772272559.983807,-76.171875,-39.0625,-154.296875,-248.53515625,0.0,0,0
1772272560.02912,1772272559.9876986,-291.50390625,-32.2265625,-138.18359375,-1000.0,0.0,0,0
1772272560.02917,1772272559.99159,-136.23046875,-5.37109375,22.94921875,-471.6796875,0.0,0,0
1772272560.074293,1772272559.995665,173.33984375,2.9296875,98.6328125,806.640625,0.0,0,0
1772272560.074371,1772272559.9995568,261.23046875,-12.6953125,19.04296875,-974.609375,0.0,0,0
1772272560.074398,1772272560.0034482,-20.5078125,-35.64453125,-128.41796875,-84.47265625,0.0,0,0
1772272560.074423,1772272560.00734,-293.45703125,-50.78125,-141.6015625,-1000.0,0.0,0,0
1772272560.0744472,1772272560.0112314,-194.82421875,-31.73828125,1.953125,-616.2109375,0.0,0,0
1772272560.074472,1772272560.0151231,141.11328125,-3.41796875,118.65234375,627.44140625,0.0,0,0
1772272560.074495,1772272560.0190148,270.99609375,-5.37109375,65.4296875,-883.7890625,0.0,0,0
1772272560.07452,1772272560.0229063,6.8359375,-43.9453125,-119.62890625,81.54296875,0.0,0,0
1772272560.074543,1772272560.026798,-286.1328125,-62.01171875,-166.015625,-1000.0,0.0,0,0
1772272560.0745668,1772272560.0306895,-254.39453125,-36.1328125,-27.83203125,-760.7421875,0.0,0,0
1772272560.074591,1772272560.0345812,82.51953125,-15.13671875,110.83984375,431.15234375,0.0,0,0
1772272560.074614,1772272560.0384727,275.390625,-18.06640625,73.2421875,-853.02734375,0.0,0,0
1772272560.118314,1772272560.0425358,50.78125,-43.9453125,-104.4921875,208.0078125,0.0,0,0
1772272560.118359,1772272560.0464275,-264.6484375,-63.4765625,-162.109375,-1000.0,0.0,0,0
1772272560.1183748,1772272560.0503192,-289.55078125,-42.96875,-48.828125,-894.04296875,0.0,0,0
1772272560.118389,1772272560.054211,47.8515625,-5.37109375,110.83984375,273.92578125,0.0,0,0
1772272560.118403,1772272560.0581024,275.390625,-5.859375,77.1484375,-850.09765625,0.0,0,0
1772272560.1184158,1772272560.061994,93.75,-26.85546875,-60.546875,385.7421875,0.0,0,0
1772272560.118476,1772272560.0658858,-239.2578125,-53.7109375,-135.7421875,-895.5078125,0.0,0,0
1772272560.1184928,1772272560.0697773,-307.6171875,-41.50390625,-71.2890625,-1000.0,0.0,0,0
1772272560.118552,1772272560.073669,6.34765625,9.765625,98.6328125,127.44140625,0.0,0,0
1772272560.118567,1772272560.0775607,265.625,9.27734375,110.3515625,-856.4453125,0.0,0,0
1772272560.118665,1772272560.0814521,143.06640625,-22.94921875,-45.41015625,482.91015625,0.0,0,0
1772272560.1187499,1772272560.0853438,-209.9609375,-48.33984375,-158.203125,-786.62109375,0.0,0,0
1772272560.163452,1772272560.0894053,-318.359375,-41.015625,-96.6796875,-1000.0,0.0,0,0
1772272560.163486,1772272560.093297,-28.80859375,-11.23046875,54.19921875,-41.50390625,0.0,0,0
1772272560.163525,1772272560.0971887,252.44140625,2.9296875,106.4453125,-901.3671875,0.0,0,0
1772272560.163548,1772272560.1010802,191.89453125,-15.625,-20.5078125,650.87890625,0.0,0,0
1772272560.16359,1772272560.104972,-151.3671875,-47.36328125,-164.55078125,-573.73046875,0.0,0,0
1772272560.1636422,1772272560.1088636,-312.5,-31.73828125,-103.515625,-1000.0,0.0,0,0
1772272560.1636531,1772272560.1127553,-46.38671875,5.37109375,66.89453125,-156.25,0.0,0,0
1772272560.1636622,1772272560.116647,249.51171875,10.7421875,89.84375,-925.29296875,0.0,0,0
1772272560.163671,1772272560.1205385,195.3125,-14.6484375,-39.0625,707.03125,0.0,0,0
1772272560.16368,1772272560.1244302,-150.390625,-50.78125,-172.36328125,-503.90625,0.0,0,0
1772272560.163706,1772272560.128322,-332.51953125,-55.17578125,-140.13671875,-1000.0,0.0,0,0
1772272560.163716,1772272560.1322136,-105.46875,-20.5078125,29.78515625,-321.2890625,0.0,0,0
1772272560.240847,1772272560.136429,214.84375,-5.37109375,94.23828125,959.9609375,0.0,0,0
1772272560.240911,1772272560.1403208,232.421875,-29.78515625,2.44140625,903.3203125,0.0,0,0
1772272560.2409348,1772272560.1442125,-73.73046875,-46.38671875,-136.71875,-260.7421875,0.0,0,0
1772272560.2409549,1772272560.1481042,-297.8515625,-44.921875,-142.08984375,-1000.0,0.0,0,0
1772272560.2409751,1772272560.151996,-129.39453125,-20.5078125,3.41796875,-466.30859375,0.0,0,0
1772272560.2409952,1772272560.1558876,222.65625,16.11328125,107.421875,820.3125,0.0,0,0
1772272560.241015,1772272560.1597793,301.7578125,9.765625,23.92578125,-986.328125,0.0,0,0
1772272560.241034,1772272560.163671,-1.953125,-27.34375,-153.3203125,-116.2109375,0.0,0,0
1772272560.2410529,1772272560.1675627,-284.66796875,-40.52734375,-157.2265625,-1000.0,0.0,0,0
1772272560.2410722,1772272560.1714544,-195.80078125,-24.90234375,-13.18359375,-602.5390625,0.0,0,0
1772272560.2410922,1772272560.1753461,141.11328125,-3.41796875,105.95703125,658.69140625,0.0,0,0
1772272560.241111,1772272560.1792378,279.296875,-7.32421875,61.5234375,-901.85546875,0.0,0,0
1772272560.253411,1772272560.1832783,12.20703125,-44.921875,-118.1640625,27.83203125,0.0,0,0
1772272560.253439,1772272560.18717,-278.3203125,-51.26953125,-165.0390625,-1000.0,0.0,0,0
1772272560.253459,1772272560.1910617,-222.65625,-31.25,-40.0390625,-700.1953125,0.0,0,0
1772272560.2535172,1772272560.1949534,118.1640625,-14.6484375,88.37890625,511.71875,0.0,0,0
1772272560.2535648,1772272560.1988454,288.57421875,-13.671875,62.5,-859.86328125,0.0,0,0
1772272560.253587,1772272560.202737,34.66796875,-37.109375,-82.51953125,200.1953125,0.0,0,0
1772272560.253608,1772272560.2066288,-279.296875,-42.96875,-134.27734375,-1000.0,0.0,0,0
1772272560.2536268,1772272560.2105205,-245.1171875,-26.85546875,-47.36328125,-863.28125,0.0,0,0
1772272560.253649,1772272560.2144122,71.77734375,-13.18359375,85.44921875,314.94140625,0.0,0,0
1772272560.253668,1772272560.218304,265.13671875,-20.5078125,72.265625,-845.703125,0.0,0,0
1772272560.253688,1772272560.2221956,84.9609375,-50.78125,-80.078125,309.08203125,0.0,0,0
1772272560.25376,1772272560.2260876,-228.515625,-51.7578125,-147.94921875,-964.84375,0.0,0,0
1772272560.298789,1772272560.2301128,-274.90234375,-30.76171875,-75.1953125,-975.5859375,0.0,0,0
1772272560.298826,1772272560.2340045,44.43359375,-8.7890625,83.0078125,168.45703125,0.0,0,0
1772272560.2988448,1772272560.2378964,272.94921875,-3.41796875,102.5390625,-854.98046875,0.0,0,0
1772272560.298861,1772272560.2417881,99.12109375,-34.66796875,-58.10546875,458.0078125,0.0,0,0
1772272560.2988758,1772272560.2456799,-233.88671875,-62.01171875,-159.66796875,-820.80078125,0.0,0,0
1772272560.298891,1772272560.2495716,-322.265625,-36.62109375,-76.66015625,-1000.0,0.0,0,0
1772272560.298906,1772272560.2534633,-43.45703125,-5.859375,71.77734375,32.2265625,0.0,0,0
1772272560.29892,1772272560.2573552,217.7734375,-4.39453125,86.42578125,-883.7890625,0.0,0,0
1772272560.298934,1772272560.261247,127.9296875,-23.92578125,-32.2265625,595.21484375,0.0,0,0
1772272560.298948,1772272560.2651386,-216.30859375,-52.24609375,-147.94921875,-648.92578125,0.0,0,0
1772272560.2989628,1772272560.2690303,-372.0703125,-47.8515625,-106.93359375,-1000.0,0.0,0,0
1772272560.2989771,1772272560.2729223,-113.28125,-17.578125,58.10546875,-139.16015625,0.0,0,0
1772272560.359948,1772272560.2769372,209.47265625,-6.8359375,106.4453125,-928.22265625,0.0,0,0
1772272560.360061,1772272560.280829,163.57421875,-21.484375,-15.13671875,733.3984375,0.0,0,0
1772272560.3601081,1772272560.2847207,-171.38671875,-41.9921875,-154.296875,-464.84375,0.0,0,0
1772272560.3601458,1772272560.2886126,-334.9609375,-43.9453125,-129.39453125,-1000.0,0.0,0,0
1772272560.360202,1772272560.2925043,-128.41796875,-18.5546875,26.85546875,-299.31640625,0.0,0,0
1772272560.3602402,1772272560.296396,180.6640625,-4.8828125,91.30859375,978.02734375,0.0,0,0
1772272560.360277,1772272560.300288,209.9609375,-19.04296875,-11.23046875,864.2578125,0.0,0,0
1772272560.3603141,1772272560.3041797,-125.0,-52.734375,-180.6640625,-314.94140625,0.0,0,0
1772272560.3603551,1772272560.3080714,-345.21484375,-52.734375,-158.203125,-1000.0,0.0,0,0
1772272560.3603919,1772272560.3119633,-140.625,-18.5546875,16.11328125,-425.29296875,0.0,0,0
1772272560.3604312,1772272560.315855,181.640625,-5.859375,93.26171875,866.69921875,0.0,0,0
1772272560.360477,1772272560.3197467,248.046875,-17.08984375,13.671875,972.16796875,0.0,0,0
1772272560.403734,1772272560.3238368,-52.734375,-42.48046875,-151.85546875,-177.24609375,0.0,0,0
1772272560.403849,1772272560.3277285,-296.38671875,-52.734375,-164.0625,-1000.0,0.0,0,0
1772272560.403883,1772272560.3316205,-193.359375,-23.4375,-13.18359375,-581.54296875,0.0,0,0
1772272560.4039161,1772272560.3355122,126.46484375,5.859375,84.9609375,675.29296875,0.0,0,0
1772272560.403947,1772272560.3394039,284.66796875,-2.44140625,27.83203125,-916.9921875,0.0,0,0
1772272560.403977,1772272560.3432958,26.3671875,-39.0625,-116.2109375,11.23046875,0.0,0,0
1772272560.404018,1772272560.3471875,-270.99609375,-49.31640625,-145.5078125,-1000.0,0.0,0,0
1772272560.404047,1772272560.3510795,-200.68359375,-22.94921875,-31.25,-676.26953125,0.0,0,0
1772272560.404077,1772272560.3549712,171.875,2.9296875,99.609375,556.640625,0.0,0,0
1772272560.404106,1772272560.358863,301.26953125,-2.9296875,46.38671875,-864.74609375,0.0,0,0
1772272560.4041338,1772272560.3627548,59.08203125,-28.3203125,-111.328125,152.34375,0.0,0,0
1772272560.404174,1772272560.3666465,-212.40234375,-38.0859375,-146.97265625,-1000.0,0.0,0,0
1772272560.449868,1772272560.3707266,-219.7265625,-25.390625,-51.7578125,-832.51953125,0.0,0,0
1772272560.450009,1772272560.3746183,94.7265625,-3.41796875,104.00390625,342.7734375,0.0,0,0
1772272560.4500659,1772272560.3785102,312.01171875,-1.953125,91.30859375,-848.6328125,0.0,0,0
1772272560.45012,1772272560.3824022,123.046875,-31.73828125,-70.3125,309.08203125,0.0,0,0
1772272560.450175,1772272560.386294,-200.68359375,-44.921875,-139.6484375,-980.46875,0.0,0,0
1772272560.450227,1772272560.3901858,-236.328125,-27.83203125,-51.7578125,-923.828125,0.0,0,0
1772272560.450279,1772272560.3940775,76.66015625,-1.46484375,91.30859375,254.39453125,0.0,0,0
1772272560.450329,1772272560.3979695,302.24609375,0.48828125,76.66015625,-852.05078125,0.0,0,0
1772272560.450381,1772272560.4018612,119.140625,-23.4375,-69.3359375,408.203125,0.0,0,0
1772272560.4504309,1772272560.4057531,-234.86328125,-47.8515625,-166.015625,-865.72265625,0.0,0,0
1772272560.450481,1772272560.4096448,-295.41015625,-33.203125,-89.35546875,-1000.0,0.0,0,0
1772272560.45052,1772272560.4135368,-14.6484375,1.953125,83.49609375,62.5,0.0,0,0
1772272560.497424,1772272560.4176054,229.4921875,0.0,94.7265625,-874.0234375,0.0,0,0
1772272560.497559,1772272560.421497,123.53515625,-25.390625,-39.0625,561.03515625,0.0,0,0
1772272560.497615,1772272560.425389,-208.0078125,-40.0390625,-145.01953125,-688.96484375,0.0,0,0
1772272560.497889,1772272560.429281,-331.54296875,-37.59765625,-106.4453125,-1000.0,0.0,0,0
1772272560.497931,1772272560.4331727,-78.61328125,-7.8125,63.96484375,-96.19140625,0.0,0,0
1772272560.497971,1772272560.4370646,226.07421875,14.6484375,125.48828125,-904.296875,0.0,0,0
1772272560.498024,1772272560.4409566,173.33984375,-21.97265625,-24.90234375,663.0859375,0.0,0,0
1772272560.498061,1772272560.4448485,-194.3359375,-55.6640625,-173.828125,-558.10546875,0.0,0,0
1772272560.498098,1772272560.4487402,-373.53515625,-77.1484375,-124.51171875,-1000.0,0.0,0,0
1772272560.498134,1772272560.4526322,-119.140625,-48.828125,39.55078125,-252.9296875,0.0,0,0
1772272560.4981718,1772272560.4565241,198.2421875,-5.859375,107.421875,-989.74609375,0.0,0,0
1772272560.498208,1772272560.4604158,205.078125,-25.390625,-8.30078125,830.56640625,0.0,0,0
1772272560.5391529,1772272560.4644723,-107.91015625,-47.8515625,-173.828125,-351.07421875,0.0,0,0
1772272560.5392268,1772272560.4683642,-336.42578125,-43.45703125,-143.5546875,-1000.0,0.0,0,0
1772272560.539266,1772272560.4722562,-149.90234375,-19.04296875,17.08984375,-398.4375,0.0,0,0
1772272560.539304,1772272560.476148,165.52734375,-12.6953125,79.1015625,895.5078125,0.0,0,0
1772272560.539341,1772272560.4800398,205.078125,-28.3203125,1.46484375,936.03515625,0.0,0,0
1772272560.539378,1772272560.4839318,-87.40234375,-40.52734375,-139.6484375,-226.5625,0.0,0,0
1772272560.5394151,1772272560.4878237,-337.40234375,-41.015625,-145.99609375,-1000.0,0.0,0,0
1772272560.539451,1772272560.4917154,-203.125,-41.50390625,-4.8828125,-536.1328125,0.0,0,0
1772272560.539489,1772272560.4956074,158.69140625,-40.0390625,93.26171875,734.86328125,0.0,0,0
1772272560.539526,1772272560.4994993,253.90625,-22.94921875,34.1796875,-949.70703125,0.0,0,0
1772272560.539562,1772272560.5033913,-28.3203125,-29.78515625,-132.32421875,-48.828125,0.0,0,0
1772272560.5396008,1772272560.5072832,-278.80859375,-33.203125,-155.2734375,-1000.0,0.0,0,0
1772272560.585224,1772272560.5113294,-196.2890625,-13.671875,-21.484375,-634.27734375,0.0,0,0
1772272560.58533,1772272560.5152214,139.16015625,0.0,98.14453125,604.98046875,0.0,0,0
1772272560.585381,1772272560.5191133,282.71484375,-7.32421875,62.01171875,-881.34765625,0.0,0,0
1772272560.5854359,1772272560.5230052,17.08984375,-40.0390625,-104.00390625,96.19140625,0.0,0,0
1772272560.5854888,1772272560.5268972,-274.90234375,-58.59375,-151.85546875,-1000.0,0.0,0,0
1772272560.585539,1772272560.5307891,-244.140625,-37.59765625,-27.83203125,-758.30078125,0.0,0,0
1772272560.585592,1772272560.534681,90.8203125,-6.34765625,105.46875,437.98828125,0.0,0,0
1772272560.585643,1772272560.5385728,280.2734375,-54.6875,70.80078125,-855.46875,0.0,0,0
1772272560.585696,1772272560.5424647,58.10546875,-81.0546875,-74.70703125,257.8125,0.0,0,0
1772272560.585747,1772272560.5463567,-245.60546875,-43.9453125,-119.62890625,-1000.0,0.0,0,0
1772272560.585796,1772272560.5502486,-267.578125,-33.69140625,-35.64453125,-890.13671875,0.0,0,0
1772272560.5858471,1772272560.5541406,48.828125,-12.20703125,109.86328125,282.71484375,0.0,0,0
1772272560.6306372,1772272560.5581746,275.87890625,-2.44140625,103.515625,-850.5859375,0.0,0,0
1772272560.6306791,1772272560.5620666,106.93359375,-35.15625,-74.21875,382.32421875,0.0,0,0
1772272560.630697,1772272560.5659585,-220.21484375,-53.7109375,-146.484375,-895.5078125,0.0,0,0
1772272560.630713,1772272560.5698504,-299.8046875,-35.15625,-62.98828125,-1000.0,0.0,0,0
1772272560.630739,1772272560.5737424,4.39453125,-12.6953125,75.1953125,78.125,0.0,0,0
1772272560.6307552,1772272560.5776343,272.94921875,1.46484375,101.5625,-868.1640625,0.0,0,0
1772272560.63077,1772272560.5815263,155.2734375,-43.45703125,-20.99609375,539.55078125,0.0,0,0
1772272560.630785,1772272560.5854182,-213.8671875,-100.09765625,-151.3671875,-720.703125,0.0,0,0
1772272560.63086,1772272560.5893102,-352.5390625,-54.19921875,-104.4921875,-1000.0,0.0,0,0
1772272560.630892,1772272560.593202,-62.5,1.953125,73.73046875,-66.89453125,0.0,0,0
1772272560.630909,1772272560.597094,218.75,1.953125,104.98046875,-894.04296875,0.0,0,0
1772272560.630924,1772272560.600986,129.8828125,-29.78515625,-32.71484375,635.7421875,0.0,0,0
1772272560.686649,1772272560.605004,-203.61328125,-41.9921875,-153.80859375,-595.21484375,0.0,0,0
1772272560.686683,1772272560.6088963,-343.75,-36.1328125,-114.2578125,-1000.0,0.0,0,0
1772272560.6866932,1772272560.6127882,-92.28515625,-6.34765625,43.45703125,-197.265625,0.0,0,0
1772272560.686743,1772272560.6166801,215.8203125,7.32421875,110.3515625,-960.44921875,0.0,0,0
1772272560.686778,1772272560.620572,192.3828125,-15.13671875,-0.9765625,802.734375,0.0,0,0
1772272560.6867998,1772272560.624464,-132.32421875,-30.76171875,-153.3203125,-374.51171875,0.0,0,0
1772272560.686836,1772272560.628356,-351.5625,-70.80078125,-132.32421875,-1000.0,0.0,0,0
1772272560.686902,1772272560.632248,-164.0625,-49.8046875,23.4375,-364.74609375,0.0,0,0
1772272560.686913,1772272560.6361399,153.80859375,4.8828125,86.9140625,930.17578125,0.0,0,0
1772272560.686931,1772272560.6400318,187.98828125,-9.765625,8.30078125,905.76171875,0.0,0,0
1772272560.686975,1772272560.6439238,-114.2578125,-32.71484375,-140.625,-264.16015625,0.0,0,0
1772272560.687008,1772272560.6478157,-338.8671875,-35.15625,-148.92578125,-1000.0,0.0,0,0
1772272560.7321641,1772272560.6518223,-179.6875,-15.13671875,3.41796875,-483.3984375,0.0,0,0
1772272560.732196,1772272560.6557143,169.921875,-4.39453125,94.23828125,801.26953125,0.0,0,0
1772272560.732207,1772272560.6596062,266.11328125,-7.8125,22.4609375,-977.5390625,0.0,0,0
1772272560.7322161,1772272560.6634984,-37.109375,-37.109375,-137.6953125,-97.65625,0.0,0,0
1772272560.732225,1772272560.6673903,-322.265625,-44.921875,-157.2265625,-1000.0,0.0,0,0
1772272560.732234,1772272560.6712823,-221.6796875,-36.1328125,-8.7890625,-590.33203125,0.0,0,0
1772272560.7322419,1772272560.6751742,115.72265625,-35.15625,102.05078125,665.0390625,0.0,0,0
1772272560.732251,1772272560.6790662,238.76953125,-15.13671875,42.48046875,-902.83203125,0.0,0,0
1772272560.732265,1772272560.6829581,-30.76171875,-36.1328125,-118.1640625,46.38671875,0.0,0,0
1772272560.7322738,1772272560.68685,-329.1015625,-58.10546875,-156.25,-1000.0,0.0,0,0
1772272560.7322829,1772272560.6907423,-275.87890625,-30.2734375,-25.390625,-735.83984375,0.0,0,0
1772272560.732291,1772272560.6946342,54.19921875,1.46484375,104.4921875,471.6796875,0.0,0,0
1772272560.7788959,1772272560.6987138,214.35546875,-12.20703125,48.828125,-855.46875,0.0,0,0
1772272560.778931,1772272560.7026057,-19.04296875,-44.921875,-104.4921875,190.91796875,0.0,0,0
1772272560.778943,1772272560.706498,-312.01171875,-59.5703125,-149.90234375,-1000.0,0.0,0,0
1772272560.778953,1772272560.7103899,-314.94140625,-38.0859375,-57.6171875,-865.72265625,0.0,0,0
1772272560.7789629,1772272560.7142818,26.85546875,-2.44140625,99.609375,302.24609375,0.0,0,0
1772272560.7789729,1772272560.718174,268.5546875,-3.90625,97.16796875,-850.5859375,0.0,0,0
1772272560.778982,1772272560.722066,61.5234375,-35.15625,-59.5703125,391.6015625,0.0,0,0
1772272560.7789922,1772272560.7259579,-259.27734375,-46.38671875,-149.4140625,-895.01953125,0.0,0,0
1772272560.7790022,1772272560.7298498,-303.22265625,-33.203125,-89.84375,-1000.0,0.0,0,0
1772272560.7790122,1772272560.733742,-8.7890625,-20.99609375,81.0546875,115.234375,0.0,0,0
1772272560.7790349,1772272560.737634,246.09375,-5.859375,110.83984375,-864.74609375,0.0,0,0
1772272560.779058,1772272560.741526,125.48828125,-10.7421875,-37.109375,507.8125,0.0,0,0
1772272560.838152,1772272560.745677,-228.515625,-42.48046875,-141.11328125,-759.765625,0.0,0,0
1772272560.8381839,1772272560.7495692,-361.328125,-44.921875,-89.35546875,-1000.0,0.0,0,0
1772272560.8382,1772272560.7534611,-60.546875,-11.23046875,65.91796875,-33.203125,0.0,0,0
1772272560.8382132,1772272560.757353,248.046875,-0.48828125,99.12109375,-889.6484375,0.0,0,0
1772272560.838227,1772272560.7612453,166.9921875,-22.4609375,-24.90234375,624.0234375,0.0,0,0
1772272560.838242,1772272560.7651372,-191.89453125,-44.43359375,-152.34375,-618.1640625,0.0,0,0
1772272560.8382561,1772272560.7690294,-335.44921875,-35.15625,-104.98046875,-1000.0,0.0,0,0
1772272560.8383281,1772272560.7729213,-66.89453125,-5.37109375,57.6171875,-152.83203125,0.0,0,0
1772272560.838343,1772272560.7768135,218.26171875,-28.3203125,91.796875,-938.96484375,0.0,0,0
1772272560.8383548,1772272560.7807055,194.3359375,-62.5,-8.7890625,751.953125,0.0,0,0
1772272560.8383691,1772272560.7845976,-129.8828125,-44.921875,-151.3671875,-444.3359375,0.0,0,0
1772272560.838382,1772272560.7884896,-337.890625,-32.71484375,-126.953125,-1000.0,0.0,0,0
1772272560.868156,1772272560.792547,-119.140625,-12.20703125,30.2734375,-323.73046875,0.0,0,0
1772272560.8681972,1772272560.7964392,193.84765625,3.41796875,99.609375,961.9140625,0.0,0,0
1772272560.868244,1772272560.8003314,187.01171875,-7.32421875,15.13671875,889.6484375,0.0,0,0
1772272560.868313,1772272560.8042233,-144.53125,-37.109375,-146.484375,-281.73828125,0.0,0,0
1772272560.868344,1772272560.8081155,-355.95703125,-46.38671875,-143.06640625,-1000.0,0.0,0,0
1772272560.8683589,1772272560.8120074,-170.8984375,-16.11328125,20.99609375,-417.96875,0.0,0,0
1772272560.868373,1772272560.8158996,163.57421875,3.90625,106.93359375,869.140625,0.0,0,0
1772272560.868386,1772272560.8197916,229.98046875,-12.20703125,20.01953125,991.69921875,0.0,0,0
1772272560.8683991,1772272560.8236837,-62.01171875,-38.57421875,-135.25390625,-138.671875,0.0,0,0
1772272560.868412,1772272560.8275757,-293.9453125,-42.96875,-138.671875,-1000.0,0.0,0,0
1772272560.868425,1772272560.8314679,-157.71484375,-21.484375,-4.39453125,-590.33203125,0.0,0,0
1772272560.868483,1772272560.8353598,166.9921875,-5.37109375,87.40234375,663.0859375,0.0,0,0
1772272560.915659,1772272560.839413,298.828125,-27.34375,31.73828125,-905.2734375,0.0,0,0
1772272560.9157,1772272560.843305,46.38671875,-40.0390625,-112.79296875,36.62109375,0.0,0,0
1772272560.9157162,1772272560.847197,-245.1171875,-39.55078125,-139.16015625,-1000.0,0.0,0,0
1772272560.915731,1772272560.8510892,-180.6640625,-25.390625,-13.671875,-708.0078125,0.0,0,0
1772272560.915744,1772272560.8549814,142.08984375,4.39453125,104.4921875,518.06640625,0.0,0,0
1772272560.915759,1772272560.8588734,295.8984375,-0.48828125,62.5,-857.421875,0.0,0,0
1772272560.915772,1772272560.8627656,65.4296875,-24.4140625,-82.03125,170.41015625,0.0,0,0
1772272560.915785,1772272560.8666577,-250.9765625,-57.6171875,-140.13671875,-1000.0,0.0,0,0
1772272560.915798,1772272560.8705497,-242.1875,-62.5,-54.19921875,-870.1171875,0.0,0,0
1772272560.91581,1772272560.8744419,89.84375,-9.27734375,87.40234375,288.57421875,0.0,0,0
1772272560.9158232,1772272560.8783338,276.85546875,-0.9765625,74.21875,-850.09765625,0.0,0,0
1772272560.9158359,1772272560.882226,53.22265625,-25.390625,-62.01171875,337.890625,0.0,0,0
1772272560.958029,1772272560.8862677,-253.90625,-42.48046875,-125.48828125,-948.2421875,0.0,0,0
1772272560.958066,1772272560.8901598,-287.59765625,-29.296875,-63.4765625,-965.33203125,0.0,0,0
1772272560.9580858,1772272560.894052,22.4609375,0.48828125,93.75,197.75390625,0.0,0,0
1772272560.9581041,1772272560.897944,275.87890625,2.9296875,94.23828125,-851.07421875,0.0,0,0
1772272560.958123,1772272560.9018362,120.1171875,-29.296875,-62.5,436.5234375,0.0,0,0
1772272560.958139,1772272560.9057283,-205.56640625,-54.19921875,-133.30078125,-837.40234375,0.0,0,0
1772272560.958156,1772272560.9096205,-276.3671875,-31.25,-67.3828125,-1000.0,0.0,0,0
1772272560.958173,1772272560.9135125,-4.39453125,-33.203125,75.68359375,11.23046875,0.0,0,0
1772272560.95819,1772272560.9174047,261.23046875,-26.3671875,97.65625,-881.8359375,0.0,0,0
1772272560.958206,1772272560.9212968,168.9453125,-12.20703125,-38.0859375,579.58984375,0.0,0,0
1772272560.9582562,1772272560.925189,-166.9921875,-36.62109375,-145.5078125,-666.015625,0.0,0,0
1772272560.958275,1772272560.929081,-291.9921875,-20.99609375,-102.5390625,-1000.0,0.0,0,0
1772272561.004569,1772272560.9331124,-41.9921875,6.34765625,51.7578125,-127.9296875,0.0,0,0
1772272561.0046022,1772272560.9370046,249.0234375,7.32421875,94.23828125,-921.875,0.0,0,0
1772272561.004622,1772272560.9408967,213.8671875,-14.16015625,-30.2734375,702.63671875,0.0,0,0
1772272561.004642,1772272560.944789,-115.234375,-38.57421875,-161.62109375,-504.39453125,0.0,0,0
1772272561.004662,1772272560.948681,-298.33984375,-49.31640625,-127.44140625,-1000.0,0.0,0,0
1772272561.004682,1772272560.9525733,-72.75390625,-14.16015625,48.33984375,-253.90625,0.0,0,0
1772272561.004701,1772272560.9564652,259.765625,-5.37109375,116.69921875,-978.515625,0.0,0,0
1772272561.004721,1772272560.9603574,229.00390625,-60.546875,-15.625,818.84765625,0.0,0,0
1772272561.00474,1772272560.9642496,-121.58203125,-64.453125,-166.015625,-363.76953125,0.0,0,0
1772272561.0047739,1772272560.9681418,-316.40625,-41.9921875,-128.41796875,-1000.0,0.0,0,0
1772272561.0047948,1772272560.972034,-133.30078125,-22.4609375,27.83203125,-403.80859375,0.0,0,0
1772272561.004825,1772272560.9759262,188.4765625,-3.41796875,90.8203125,885.7421875,0.0,0,0
1772272561.06336,1772272560.9799464,241.2109375,-19.04296875,9.27734375,960.44921875,0.0,0,0
1772272561.0634508,1772272560.9838386,-87.890625,-53.7109375,-142.08984375,-198.2421875,0.0,0,0
1772272561.063484,1772272560.9877305,-339.84375,-49.8046875,-148.4375,-1000.0,0.0,0,0
1772272561.063515,1772272560.9916227,-176.26953125,-18.06640625,-2.9296875,-547.8515625,0.0,0,0
1772272561.063545,1772272560.9955149,150.87890625,3.90625,95.21484375,712.890625,0.0,0,0
1772272561.0635772,1772272560.999407,257.8125,5.859375,32.71484375,-916.9921875,0.0,0,0
1772272561.0636091,1772272561.0032992,-0.9765625,-46.875,-132.32421875,12.20703125,0.0,0,0
1772272561.06364,1772272561.0071914,-305.6640625,-71.77734375,-162.59765625,-1000.0,0.0,0,0
1772272561.063669,1772272561.0110836,-211.9140625,-21.97265625,-20.5078125,-667.96875,0.0,0,0
1772272561.0637,1772272561.0149758,137.20703125,3.90625,97.16796875,565.91796875,0.0,0,0
1772272561.0637288,1772272561.018868,283.203125,-1.953125,56.640625,-867.67578125,0.0,0,0
1772272561.0637581,1772272561.0227602,55.6640625,-30.2734375,-101.07421875,162.109375,0.0,0,0
1772272561.139135,1772272561.0267694,-263.671875,-57.12890625,-166.9921875,-1000.0,0.0,0,0
1772272561.139255,1772272561.0306616,-238.28125,-37.109375,-47.8515625,-799.31640625,0.0,0,0
1772272561.139297,1772272561.0345538,133.7890625,4.8828125,99.12109375,404.78515625,0.0,0,0
1772272561.1393359,1772272561.038446,305.6640625,0.9765625,61.03515625,-851.07421875,0.0,0,0
1772272561.1393752,1772272561.0423381,91.796875,-22.94921875,-81.54296875,270.99609375,0.0,0,0
1772272561.1394172,1772272561.0462303,-230.46875,-41.50390625,-137.6953125,-994.62890625,0.0,0,0
1772272561.139455,1772272561.0501225,-274.4140625,-37.109375,-44.921875,-932.12890625,0.0,0,0
1772272561.139492,1772272561.0540147,62.98828125,-6.34765625,105.46875,231.4453125,0.0,0,0
1772272561.139529,1772272561.0579069,306.15234375,-12.20703125,84.47265625,-848.6328125,0.0,0,0
1772272561.1395662,1772272561.061799,132.8125,-56.640625,-66.40625,396.97265625,0.0,0,0
1772272561.139602,1772272561.0656912,-217.28515625,-66.40625,-150.390625,-876.953125,0.0,0,0
1772272561.139638,1772272561.0695834,-305.6640625,-31.25,-68.84765625,-1000.0,0.0,0,0
1772272561.154492,1772272561.0735996,-24.90234375,-10.7421875,74.21875,61.5234375,0.0,0,0
1772272561.1545951,1772272561.077492,248.53515625,-1.953125,88.37890625,-871.09375,0.0,0,0
1772272561.1546528,1772272561.0813842,143.5546875,-19.04296875,-33.69140625,546.875,0.0,0,0
1772272561.154706,1772272561.0852764,-221.6796875,-44.921875,-149.90234375,-717.7734375,0.0,0,0
1772272561.154759,1772272561.0891685,-343.75,-32.71484375,-93.75,-1000.0,0.0,0,0
1772272561.154809,1772272561.0930607,-80.56640625,-4.39453125,74.21875,-66.89453125,0.0,0,0
1772272561.15485,1772272561.096953,209.9609375,-3.90625,103.02734375,-911.1328125,0.0,0,0
1772272561.154887,1772272561.100845,167.48046875,-14.16015625,-17.08984375,693.359375,0.0,0,0
1772272561.154924,1772272561.1047373,-170.8984375,-36.1328125,-149.4140625,-503.90625,0.0,0,0
1772272561.1549609,1772272561.1086295,-361.81640625,-43.45703125,-123.53515625,-1000.0,0.0,0,0
1772272561.154999,1772272561.1125216,-151.3671875,-14.6484375,41.50390625,-234.375,0.0,0,0
1772272561.1552472,1772272561.1164138,193.359375,-7.32421875,100.09765625,-962.890625,0.0,0,0
1772272561.201134,1772272561.1204882,185.05859375,-35.64453125,-16.6015625,777.83203125,0.0,0,0
1772272561.201202,1772272561.1243804,-142.578125,-56.15234375,-157.2265625,-413.57421875,0.0,0,0
1772272561.201237,1772272561.1282725,-321.2890625,-53.7109375,-142.08984375,-1000.0,0.0,0,0
1772272561.201269,1772272561.1321647,-129.8828125,-20.5078125,14.16015625,-353.02734375,0.0,0,0
1772272561.201293,1772272561.136057,223.14453125,-6.34765625,102.5390625,930.17578125,0.0,0,0
1772272561.2013178,1772272561.1399493,266.6015625,-49.31640625,11.71875,942.87109375,0.0,0,0
1772272561.201343,1772272561.1438415,-69.3359375,-56.15234375,-166.015625,-210.44921875,0.0,0,0
1772272561.2013671,1772272561.1477337,-329.58984375,-39.55078125,-170.8984375,-1000.0,0.0,0,0
1772272561.20139,1772272561.1516259,-202.63671875,-48.828125,-14.6484375,-564.94140625,0.0,0,0
1772272561.2014139,1772272561.155518,132.32421875,-32.2265625,84.9609375,703.125,0.0,0,0
1772272561.201471,1772272561.1594105,232.421875,-7.32421875,40.0390625,-940.4296875,0.0,0,0
1772272561.201514,1772272561.1633027,-69.3359375,-37.59765625,-127.9296875,-55.6640625,0.0,0,0
1772272561.243967,1772272561.1673677,-334.47265625,-47.8515625,-173.828125,-1000.0,0.0,0,0
1772272561.244063,1772272561.1712599,-253.41796875,-24.4140625,-27.83203125,-662.59765625,0.0,0,0
1772272561.244094,1772272561.175152,82.03125,-1.46484375,90.8203125,565.4296875,0.0,0,0
1772272561.2441258,1772272561.1790445,248.046875,-0.48828125,48.33984375,-875.9765625,0.0,0,0
1772272561.2441568,1772272561.1829367,-12.6953125,-32.71484375,-95.21484375,105.46875,0.0,0,0
1772272561.2441878,1772272561.1868289,-293.45703125,-47.36328125,-139.16015625,-1000.0,0.0,0,0
1772272561.2442188,1772272561.1907213,-247.0703125,-24.90234375,-43.9453125,-772.94921875,0.0,0,0
1772272561.244249,1772272561.1946135,70.80078125,-1.953125,92.28515625,422.8515625,0.0,0,0
1772272561.2442791,1772272561.1985056,236.81640625,-34.1796875,68.84765625,-853.02734375,0.0,0,0
1772272561.244309,1772272561.2023978,28.80859375,-61.5234375,-85.44921875,234.86328125,0.0,0,0
1772272561.2443478,1772272561.2062902,-266.6015625,-45.41015625,-145.5078125,-1000.0,0.0,0,0
1772272561.2443762,1772272561.2101824,-285.15625,-27.34375,-58.59375,-896.97265625,0.0,0,0
1772272561.290038,1772272561.2142355,21.484375,-14.6484375,83.49609375,269.04296875,0.0,0,0
1772272561.290143,1772272561.2181277,244.62890625,-8.30078125,71.2890625,-850.5859375,0.0,0,0
1772272561.2903092,1772272561.22202,92.28515625,-23.92578125,-79.58984375,370.1171875,0.0,0,0
1772272561.2903638,1772272561.2259123,-230.95703125,-56.640625,-148.4375,-895.5078125,0.0,0,0
1772272561.290417,1772272561.2298045,-319.82421875,-60.05859375,-87.40234375,-1000.0,0.0,0,0
1772272561.290467,1772272561.233697,-15.13671875,-18.06640625,77.63671875,72.265625,0.0,0,0
1772272561.290518,1772272561.2375891,244.62890625,8.30078125,114.74609375,-858.88671875,0.0,0,0
1772272561.290569,1772272561.2414813,122.0703125,-40.0390625,-50.29296875,509.27734375,0.0,0,0
1772272561.290634,1772272561.2453737,-189.94140625,-76.171875,-154.296875,-756.34765625,0.0,0,0
1772272561.290686,1772272561.249266,-312.98828125,-46.38671875,-98.14453125,-1000.0,0.0,0,0
1772272561.2907362,1772272561.2531583,-45.41015625,-12.6953125,64.94140625,-55.6640625,0.0,0,0
1772272561.290785,1772272561.2570505,269.53125,2.44140625,122.0703125,-905.76171875,0.0,0,0
1772272561.3365839,1772272561.261095,195.80078125,-22.4609375,-17.08984375,679.19921875,0.0,0,0
1772272561.336735,1772272561.2649875,-170.8984375,-55.6640625,-165.52734375,-537.109375,0.0,0,0
1772272561.3367941,1772272561.2688797,-321.2890625,-47.36328125,-125.0,-1000.0,0.0,0,0
1772272561.336846,1772272561.272772,-83.0078125,-11.23046875,51.7578125,-179.6875,0.0,0,0
1772272561.3369012,1772272561.2766643,205.56640625,2.44140625,106.4453125,-949.21875,0.0,0,0
1772272561.3369558,1772272561.2805567,184.08203125,-20.5078125,-5.859375,785.64453125,0.0,0,0
1772272561.337007,1772272561.2844489,-154.296875,-50.78125,-159.66796875,-396.97265625,0.0,0,0
1772272561.3370602,1772272561.2883413,-342.28515625,-63.4765625,-133.30078125,-1000.0,0.0,0,0
1772272561.337112,1772272561.2922335,-142.08984375,-28.80859375,39.55078125,-360.3515625,0.0,0,0
1772272561.337162,1772272561.296126,167.96875,0.48828125,106.4453125,938.4765625,0.0,0,0
1772272561.3372312,1772272561.300018,192.87109375,-26.3671875,1.46484375,886.23046875,0.0,0,0
1772272561.337288,1772272561.3039105,-111.328125,-55.17578125,-145.99609375,-293.9453125,0.0,0,0
1772272561.3790069,1772272561.307939,-323.2421875,-52.24609375,-143.06640625,-1000.0,0.0,0,0
1772272561.379114,1772272561.3118315,-170.41015625,-28.3203125,2.44140625,-513.18359375,0.0,0,0
1772272561.379173,1772272561.315724,138.18359375,-15.625,88.37890625,759.765625,0.0,0,0
1772272561.379225,1772272561.319616,237.79296875,-10.7421875,38.57421875,-966.30859375,0.0,0,0
1772272561.3792782,1772272561.3235085,-66.89453125,-39.0625,-117.67578125,-89.84375,0.0,0,0
1772272561.3793302,1772272561.3274007,-370.60546875,-44.921875,-157.2265625,-1000.0,0.0,0,0
1772272561.379392,1772272561.331293,-248.046875,-34.66796875,1.953125,-600.09765625,0.0,0,0
1772272561.379443,1772272561.3351853,97.16796875,-58.59375,106.4453125,659.66796875,0.0,0,0
1772272561.3794932,1772272561.3390777,200.1953125,-28.3203125,28.3203125,-920.41015625,0.0,0,0
1772272561.379544,1772272561.3429701,-63.96484375,-22.4609375,-106.93359375,-9.27734375,0.0,0,0
1772272561.379607,1772272561.3468623,-341.796875,-31.25,-124.51171875,-1000.0,0.0,0,0
1772272561.379658,1772272561.3507547,-285.15625,-7.32421875,-6.34765625,-756.8359375,0.0,0,0
1772272561.440046,1772272561.35486,49.8046875,14.6484375,126.46484375,428.22265625,0.0,0,0
1772272561.440175,1772272561.3587523,207.51953125,8.30078125,90.33203125,-855.95703125,0.0,0,0
1772272561.440215,1772272561.3626447,-35.64453125,-21.97265625,-74.70703125,163.0859375,0.0,0,0
1772272561.440254,1772272561.366537,-350.09765625,-35.64453125,-129.39453125,-1000.0,0.0,0,0
1772272561.440293,1772272561.3704293,-393.5546875,-19.53125,-32.71484375,-907.2265625,0.0,0,0
1772272561.440332,1772272561.3743217,-53.7109375,24.90234375,118.1640625,236.81640625,0.0,0,0
1772272561.440369,1772272561.3782141,211.9140625,-22.94921875,87.890625,-838.8671875,0.0,0,0
1772272561.440406,1772272561.3821065,-5.37109375,-62.98828125,-62.98828125,278.3203125,0.0,0,0
1772272561.4404428,1772272561.3859987,-324.70703125,-25.390625,-134.765625,-973.6328125,0.0,0,0
1772272561.440481,1772272561.3898911,-363.28125,-18.5546875,-80.56640625,-1000.0,0.0,0,0
1772272561.44052,1772272561.3937836,-34.1796875,24.90234375,113.28125,88.37890625,0.0,0,0
1772272561.440556,1772272561.3976758,222.65625,36.1328125,123.53515625,-846.6796875,0.0,0,0
1772272561.485344,1772272561.4017015,75.1953125,-6.8359375,-59.08203125,418.45703125,0.0,0,0
1772272561.485478,1772272561.4055939,-233.3984375,-32.71484375,-156.25,-852.05078125,0.0,0,0
1772272561.48552,1772272561.409486,-323.2421875,-22.4609375,-92.28515625,-1000.0,0.0,0,0
1772272561.485559,1772272561.4133785,-61.5234375,-0.48828125,61.03515625,-39.0625,0.0,0,0
1772272561.485605,1772272561.417271,219.23828125,5.859375,96.19140625,-900.390625,0.0,0,0
1772272561.485643,1772272561.4211633,169.43359375,-10.25390625,-38.0859375,639.6484375,0.0,0,0
1772272561.485685,1772272561.4250557,-161.1328125,-33.69140625,-179.19921875,-590.33203125,0.0,0,0
1772272561.485736,1772272561.428948,-309.08203125,-42.48046875,-143.06640625,-1000.0,0.0,0,0
1772272561.485782,1772272561.4328403,-43.45703125,-13.671875,32.2265625,-156.25,0.0,0,0
1772272561.485844,1772272561.4367328,274.4140625,-18.06640625,82.51953125,-932.12890625,0.0,0,0
1772272561.485881,1772272561.4406252,237.79296875,-50.29296875,-39.55078125,737.79296875,0.0,0,0
1772272561.4859278,1772272561.4445176,-97.65625,-47.8515625,-184.08203125,-451.66015625,0.0,0,0
1772272561.529582,1772272561.448601,-280.76171875,-43.9453125,-144.53125,-1000.0,0.0,0,0
1772272561.5297012,1772272561.4524934,-65.91796875,-15.625,34.66796875,-283.69140625,0.0,0,0
1772272561.5300028,1772272561.4563859,253.41796875,1.953125,82.51953125,986.81640625,0.0,0,0
1772272561.530061,1772272561.4602783,276.85546875,-20.5078125,-11.71875,899.4140625,0.0,0,0
1772272561.5301151,1772272561.4641707,-19.04296875,-53.22265625,-163.57421875,-250.0,0.0,0,0
1772272561.5301702,1772272561.468063,-266.6015625,-58.10546875,-160.64453125,-1000.0,0.0,0,0
1772272561.530221,1772272561.4719555,-103.02734375,-33.203125,-0.48828125,-416.9921875,0.0,0,0
1772272561.530272,1772272561.475848,241.2109375,-12.20703125,74.21875,864.2578125,0.0,0,0
1772272561.530323,1772272561.4797404,291.9921875,-22.4609375,-8.7890625,-1000.0,0.0,0,0
1772272561.5303721,1772272561.4836328,-22.94921875,-66.89453125,-165.52734375,-116.2109375,0.0,0,0
1772272561.530423,1772272561.4875252,-291.9921875,-71.77734375,-178.22265625,-1000.0,0.0,0,0
1772272561.530473,1772272561.4914176,-147.94921875,-36.1328125,-37.109375,-556.640625,0.0,0,0
1772272561.573985,1772272561.4954865,219.7265625,-24.90234375,83.49609375,700.68359375,0.0,0,0
1772272561.574093,1772272561.499379,321.2890625,-32.71484375,43.9453125,-902.34375,0.0,0,0
1772272561.574134,1772272561.5032713,56.640625,-45.8984375,-121.09375,77.1484375,0.0,0,0
1772272561.574173,1772272561.5071638,-265.625,-52.734375,-181.640625,-1000.0,0.0,0,0
1772272561.5742111,1772272561.5110562,-199.21875,-32.71484375,-41.015625,-661.1328125,0.0,0,0
1772272561.574249,1772272561.5149486,202.1484375,-1.953125,115.234375,590.33203125,0.0,0,0
1772272561.574286,1772272561.518841,328.125,-22.94921875,48.828125,-871.09375,0.0,0,0
1772272561.5743601,1772272561.5227334,50.29296875,-50.78125,-131.8359375,157.2265625,0.0,0,0
1772272561.574416,1772272561.5266259,-237.3046875,-58.59375,-171.38671875,-1000.0,0.0,0,0
1772272561.574455,1772272561.5305183,-220.21484375,-50.78125,-52.24609375,-803.22265625,0.0,0,0
1772272561.574495,1772272561.534411,123.53515625,-6.8359375,101.5625,388.18359375,0.0,0,0
1772272561.574541,1772272561.5383034,324.70703125,-7.8125,70.80078125,-852.05078125,0.0,0,0
1772272561.6199942,1772272561.5423605,123.046875,-43.45703125,-89.35546875,325.1953125,0.0,0,0
1772272561.6201038,1772272561.546253,-208.0078125,-59.5703125,-155.2734375,-958.984375,0.0,0,0
1772272561.620162,1772272561.5501454,-264.6484375,-39.55078125,-81.0546875,-954.58984375,0.0,0,0
1772272561.620217,1772272561.5540378,39.0625,-15.13671875,76.171875,207.51953125,0.0,0,0
1772272561.620268,1772272561.5579302,275.87890625,-16.6015625,79.1015625,-857.91015625,0.0,0,0
1772272561.620328,1772272561.5618227,130.859375,-40.0390625,-63.96484375,469.23828125,0.0,0,0
1772272561.620378,1772272561.5657153,-212.40234375,-60.05859375,-157.71484375,-808.59375,0.0,0,0
1772272561.62043,1772272561.5696077,-310.546875,-41.015625,-88.37890625,-1000.0,0.0,0,0
1772272561.620512,1772272561.5735002,-25.390625,-44.921875,71.2890625,35.64453125,0.0,0,0
1772272561.620564,1772272561.5773926,255.37109375,-40.52734375,90.8203125,-887.20703125,0.0,0,0
1772272561.6206038,1772272561.581285,174.8046875,-20.01953125,-39.0625,613.76953125,0.0,0,0
1772272561.6206431,1772272561.5851774,-146.484375,-44.921875,-147.4609375,-621.09375,0.0,0,0
1772272561.663865,1772272561.5892255,-299.31640625,-45.41015625,-102.05078125,-1000.0,0.0,0,0
1772272561.66396,1772272561.593118,-57.6171875,-10.7421875,48.828125,-150.87890625,0.0,0,0
1772272561.664001,1772272561.5970106,236.81640625,-1.953125,96.19140625,-932.12890625,0.0,0,0
1772272561.664039,1772272561.600903,180.17578125,-27.83203125,-19.53125,737.3046875,0.0,0,0
1772272561.6640818,1772272561.6047955,-150.390625,-59.08203125,-166.9921875,-466.796875,0.0,0,0
1772272561.664124,1772272561.6086879,-308.10546875,-47.8515625,-114.2578125,-1000.0,0.0,0,0
1772272561.66416,1772272561.6125805,-83.0078125,-9.27734375,49.31640625,-223.14453125,0.0,0,0
1772272561.6641989,1772272561.616473,220.703125,-20.5078125,80.078125,-984.86328125,0.0,0,0
1772272561.664237,1772272561.6203654,232.91015625,-53.7109375,-14.6484375,841.796875,0.0,0,0
1772272561.664275,1772272561.6242578,-96.19140625,-59.5703125,-152.83203125,-323.73046875,0.0,0,0
1772272561.664317,1772272561.6281505,-324.21875,-55.6640625,-137.6953125,-1000.0,0.0,0,0
1772272561.664362,1772272561.632043,-166.015625,-33.69140625,2.9296875,-443.359375,0.0,0,0
1772272561.739122,1772272561.6362407,159.66796875,-10.25390625,82.51953125,855.95703125,0.0,0,0
1772272561.739228,1772272561.6401334,230.95703125,-16.11328125,15.625,966.30859375,0.0,0,0
1772272561.739268,1772272561.6440258,-68.359375,-40.52734375,-141.6015625,-186.5234375,0.0,0,0
1772272561.739306,1772272561.6479182,-335.44921875,-48.828125,-150.390625,-1000.0,0.0,0,0
1772272561.7393432,1772272561.651811,-199.21875,-27.34375,-10.25390625,-541.9921875,0.0,0,0
1772272561.73938,1772272561.6557033,164.55078125,0.48828125,92.7734375,736.328125,0.0,0,0
1772272561.739418,1772272561.659596,263.671875,-6.34765625,32.2265625,-941.89453125,0.0,0,0
1772272561.739456,1772272561.6634884,-1.46484375,-63.96484375,-134.765625,-41.9921875,0.0,0,0
1772272561.7394922,1772272561.667381,-279.296875,-81.0546875,-159.1796875,-1000.0,0.0,0,0
1772272561.739527,1772272561.6712735,-202.63671875,-27.83203125,-21.484375,-659.66796875,0.0,0,0
1772272561.739564,1772272561.675166,155.76171875,5.37109375,111.328125,575.68359375,0.0,0,0
1772272561.739601,1772272561.6790586,305.6640625,-7.32421875,57.12890625,-874.51171875,0.0,0,0
1772272561.7546072,1772272561.683089,58.10546875,-40.52734375,-113.28125,133.30078125,0.0,0,0
1772272561.7547011,1772272561.6869817,-253.90625,-50.29296875,-149.4140625,-1000.0,0.0,0,0
1772272561.7547588,1772272561.690874,-261.23046875,-39.55078125,-47.8515625,-827.1484375,0.0,0,0
1772272561.754813,1772272561.6947668,69.3359375,-19.04296875,95.703125,348.6328125,0.0,0,0
1772272561.754866,1772272561.6986592,273.92578125,-6.8359375,83.49609375,-852.05078125,0.0,0,0
1772272561.7549188,1772272561.7025518,89.35546875,-25.390625,-64.94140625,318.359375,0.0,0,0
1772272561.7549708,1772272561.7064443,-239.2578125,-44.921875,-120.60546875,-961.42578125,0.0,0,0
1772272561.755022,1772272561.710337,-304.6875,-36.62109375,-59.5703125,-948.2421875,0.0,0,0
1772272561.755073,1772272561.7142293,38.57421875,-6.8359375,81.0546875,215.8203125,0.0,0,0
1772272561.7551239,1772272561.718122,267.578125,0.0,83.49609375,-848.14453125,0.0,0,0
1772272561.755174,1772272561.7220144,84.9609375,-38.57421875,-68.359375,381.34765625,0.0,0,0
1772272561.755233,1772272561.725907,-238.28125,-58.10546875,-132.32421875,-887.20703125,0.0,0,0
1772272561.798794,1772272561.7299232,-308.10546875,-40.0390625,-75.1953125,-1000.0,0.0,0,0
1772272561.798912,1772272561.733816,-13.18359375,-3.41796875,77.1484375,52.734375,0.0,0,0
1772272561.798972,1772272561.7377083,232.421875,-22.4609375,101.5625,-875.0,0.0,0,0
1772272561.7990248,1772272561.741601,126.953125,-55.17578125,-39.0625,573.73046875,0.0,0,0
1772272561.799077,1772272561.7454934,-202.1484375,-44.921875,-134.27734375,-681.640625,0.0,0,0
1772272561.7991302,1772272561.749386,-339.35546875,-31.73828125,-79.58984375,-1000.0,0.0,0,0
1772272561.799189,1772272561.7532787,-66.89453125,-34.1796875,57.6171875,-68.359375,0.0,0,0
1772272561.7992508,1772272561.7571712,227.5390625,-37.109375,88.8671875,-907.2265625,0.0,0,0
1772272561.7993028,1772272561.7610638,137.6953125,-38.0859375,-34.66796875,656.25,0.0,0,0
1772272561.799354,1772272561.7649562,-211.42578125,-56.15234375,-161.62109375,-574.21875,0.0,0,0
1772272561.799416,1772272561.768849,-323.2421875,-37.109375,-97.65625,-1000.0,0.0,0,0
1772272561.799474,1772272561.7727416,-86.9140625,-10.7421875,43.45703125,-229.00390625,0.0,0,0
1772272561.858895,1772272561.776748,218.75,8.7890625,105.46875,-972.16796875,0.0,0,0
1772272561.859057,1772272561.7806406,216.796875,-12.20703125,-0.9765625,796.875,0.0,0,0
1772272561.8591151,1772272561.784533,-133.7890625,-43.9453125,-161.62109375,-389.6484375,0.0,0,0
1772272561.8591712,1772272561.7884257,-339.35546875,-41.9921875,-129.8828125,-1000.0,0.0,0,0
1772272561.8592231,1772272561.7923183,-139.16015625,-10.25390625,20.5078125,-390.625,0.0,0,0
1772272561.859274,1772272561.796211,180.17578125,-1.46484375,98.14453125,899.4140625,0.0,0,0
1772272561.85955,1772272561.8001034,220.703125,-32.71484375,22.94921875,947.265625,0.0,0,0
1772272561.859592,1772272561.803996,-87.890625,-47.36328125,-164.0625,-217.28515625,0.0,0,0
1772272561.8596292,1772272561.8078887,-333.49609375,-50.29296875,-184.08203125,-1000.0,0.0,0,0
1772272561.85968,1772272561.8117812,-179.19921875,-18.5546875,-14.6484375,-523.92578125,0.0,0,0
1772272561.859721,1772272561.8156738,167.96875,16.11328125,94.7265625,750.0,0.0,0,0
1772272561.8597581,1772272561.8195665,265.625,2.9296875,25.87890625,-953.61328125,0.0,0,0
1772272561.905003,1772272561.8236423,-24.90234375,-28.80859375,-127.44140625,-63.96484375,0.0,0,0
1772272561.905102,1772272561.827535,-318.359375,-32.2265625,-141.6015625,-1000.0,0.0,0,0
1772272561.9051552,1772272561.8314273,-233.88671875,-15.13671875,-9.27734375,-643.5546875,0.0,0,0
1772272561.9052072,1772272561.83532,104.98046875,-2.44140625,96.19140625,590.33203125,0.0,0,0
1772272561.905258,1772272561.8392127,255.37109375,-9.27734375,46.875,-884.765625,0.0,0,0
1772272561.905308,1772272561.8431053,15.625,-41.9921875,-96.19140625,110.3515625,0.0,0,0
1772272561.905358,1772272561.846998,-283.69140625,-61.03515625,-154.296875,-1000.0,0.0,0,0
1772272561.905411,1772272561.8508904,-255.859375,-27.83203125,-53.22265625,-783.69140625,0.0,0,0
1772272561.905469,1772272561.854783,80.56640625,7.32421875,85.9375,411.62109375,0.0,0,0
1772272561.905518,1772272561.8586757,263.671875,-20.99609375,71.2890625,-848.14453125,0.0,0,0
1772272561.905555,1772272561.8625684,69.3359375,-41.015625,-72.75390625,275.87890625,0.0,0,0
1772272561.90561,1772272561.8664608,-239.2578125,-42.48046875,-144.53125,-1000.0,0.0,0,0
1772272561.94909,1772272561.8705285,-291.015625,-37.109375,-54.6875,-921.875,0.0,0,0
1772272561.949226,1772272561.8744211,6.8359375,-11.71875,96.6796875,243.65234375,0.0,0,0
1772272561.9492679,1772272561.8783138,223.14453125,-5.37109375,84.47265625,-849.12109375,0.0,0,0
1772272561.94931,1772272561.8822064,53.22265625,-33.69140625,-67.87109375,381.34765625,0.0,0,0
1772272561.9493482,1772272561.886099,-307.12890625,-67.3828125,-158.69140625,-897.4609375,0.0,0,0
1772272561.949385,1772272561.8899918,-364.74609375,-52.734375,-86.9140625,-1000.0,0.0,0,0
1772272561.9494221,1772272561.8938842,-7.32421875,-5.37109375,97.16796875,101.07421875,0.0,0,0
1772272561.949461,1772272561.8977768,246.09375,10.25390625,92.28515625,-859.86328125,0.0,0,0
1772272561.9494982,1772272561.9016695,108.3984375,-49.8046875,-64.453125,501.46484375,0.0,0,0
1772272561.949535,1772272561.9055622,-228.02734375,-100.5859375,-143.06640625,-767.578125,0.0,0,0
1772272561.949573,1772272561.9094548,-333.49609375,-42.48046875,-81.54296875,-1000.0,0.0,0,0
1772272561.949609,1772272561.9133475,-66.40625,-2.9296875,58.59375,-37.109375,0.0,0,0
1772272561.995695,1772272561.9174128,212.40234375,-6.8359375,89.84375,-902.34375,0.0,0,0
1772272561.995785,1772272561.9213054,159.1796875,-21.484375,-28.80859375,657.71484375,0.0,0,0
1772272561.9958248,1772272561.925198,-168.45703125,-48.828125,-151.3671875,-558.59375,0.0,0,0
1772272561.9958642,1772272561.9290907,-335.44921875,-56.15234375,-110.3515625,-1000.0,0.0,0,0
1772272561.9959009,1772272561.9329834,-83.984375,-29.296875,43.45703125,-206.0546875,0.0,0,0
1772272561.995938,1772272561.936876,229.00390625,-6.34765625,98.6328125,-960.44921875,0.0,0,0
1772272561.995976,1772272561.9407687,220.703125,-21.484375,-11.71875,789.0625,0.0,0,0
1772272561.9960132,1772272561.9446614,-105.95703125,-34.66796875,-148.4375,-394.53125,0.0,0,0
1772272561.99605,1772272561.948554,-307.12890625,-72.265625,-119.62890625,-1000.0,0.0,0,0
1772272561.996087,1772272561.9524467,-108.88671875,-47.36328125,37.59765625,-331.54296875,0.0,0,0
1772272561.996125,1772272561.9563394,198.2421875,14.6484375,104.00390625,952.63671875,0.0,0,0
1772272561.9961998,1772272561.960232,221.19140625,-7.32421875,9.27734375,906.25,0.0,0,0
1772272562.040149,1772272561.9642782,-96.6796875,-46.38671875,-156.73828125,-257.8125,0.0,0,0
1772272562.04029,1772272561.968171,-320.80078125,-46.38671875,-158.69140625,-1000.0,0.0,0,0
1772272562.040344,1772272561.9720635,-168.45703125,-19.04296875,-7.32421875,-479.00390625,0.0,0,0
1772272562.0403981,1772272561.9759562,167.48046875,-4.8828125,95.703125,806.640625,0.0,0,0
1772272562.0404491,1772272561.9798489,266.6015625,-0.48828125,33.69140625,-977.5390625,0.0,0,0
1772272562.040502,1772272561.9837415,-24.90234375,-26.3671875,-135.7421875,-100.09765625,0.0,0,0
1772272562.0405529,1772272561.9876342,-300.29296875,-36.1328125,-149.90234375,-1000.0,0.0,0,0
1772272562.040598,1772272561.9915268,-212.890625,-46.38671875,-39.0625,-637.20703125,0.0,0,0
1772272562.0406349,1772272561.9954195,125.0,-48.828125,64.94140625,596.19140625,0.0,0,0
1772272562.040672,1772272561.9993124,273.92578125,-14.16015625,46.875,-893.5546875,0.0,0,0
1772272562.040708,1772272562.003205,4.39453125,-34.66796875,-100.5859375,65.91796875,0.0,0,0
1772272562.040765,1772272562.0070977,-287.59765625,-53.22265625,-149.90234375,-1000.0,0.0,0,0
1772272562.08382,1772272562.0111322,-253.41796875,-44.921875,-56.15234375,-756.34765625,0.0,0,0
1772272562.0838988,1772272562.015025,95.21484375,-2.44140625,94.7265625,439.94140625,0.0,0,0
1772272562.0839412,1772272562.0189176,287.59765625,5.37109375,84.47265625,-854.4921875,0.0,0,0
1772272562.08398,1772272562.0228102,66.40625,-38.57421875,-92.28515625,211.42578125,0.0,0,0
1772272562.084018,1772272562.026703,-245.1171875,-49.31640625,-150.87890625,-1000.0,0.0,0,0
1772272562.0840561,1772272562.0305955,-266.6015625,-32.2265625,-49.8046875,-866.2109375,0.0,0,0
1772272562.084094,1772272562.0344884,57.12890625,-2.44140625,92.28515625,310.546875,0.0,0,0
1772272562.084131,1772272562.038381,257.8125,-32.71484375,68.359375,-848.14453125,0.0,0,0
1772272562.084168,1772272562.0422738,55.17578125,-66.89453125,-89.35546875,329.58984375,0.0,0,0
1772272562.084206,1772272562.0461664,-252.44140625,-39.55078125,-142.08984375,-944.3359375,0.0,0,0
1772272562.084245,1772272562.050059,-293.9453125,-25.390625,-65.91796875,-988.28125,0.0,0,0
1772272562.0842812,1772272562.053952,4.8828125,-6.34765625,86.42578125,150.390625,0.0,0,0
1772272562.1288562,1772272562.0579767,244.62890625,0.48828125,89.84375,-861.328125,0.0,0,0
1772272562.12895,1772272562.0618696,109.86328125,-19.53125,-56.15234375,486.81640625,0.0,0,0
1772272562.129003,1772272562.0657623,-221.6796875,-43.9453125,-150.87890625,-776.3671875,0.0,0,0
1772272562.129054,1772272562.069655,-314.453125,-37.59765625,-93.26171875,-1000.0,0.0,0,0
1772272562.129104,1772272562.0735476,-42.96875,-12.6953125,61.5234375,-23.92578125,0.0,0,0
1772272562.129154,1772272562.0774405,228.02734375,2.44140625,93.75,-894.04296875,0.0,0,0
1772272562.129206,1772272562.0813332,155.2734375,-21.484375,-23.4375,625.48828125,0.0,0,0
1772272562.129258,1772272562.0852258,-185.05859375,-73.73046875,-161.1328125,-628.90625,0.0,0,0
1772272562.129316,1772272562.0891187,-343.75,-61.03515625,-140.13671875,-1000.0,0.0,0,0
1772272562.129389,1772272562.0930114,-86.9140625,-5.859375,42.48046875,-104.00390625,0.0,0,0
1772272562.129457,1772272562.096904,221.19140625,13.671875,109.375,-954.58984375,0.0,0,0
1772272562.129552,1772272562.1007967,182.12890625,-18.5546875,-7.8125,750.9765625,0.0,0,0
1772272562.175005,1772272562.104813,-150.390625,-42.48046875,-145.99609375,-439.94140625,0.0,0,0
1772272562.175134,1772272562.108706,-342.7734375,-37.109375,-136.23046875,-1000.0,0.0,0,0
1772272562.175186,1772272562.1125987,-138.18359375,-13.671875,34.1796875,-318.84765625,0.0,0,0
1772272562.1752372,1772272562.1164913,194.82421875,4.39453125,118.65234375,967.28515625,0.0,0,0
1772272562.175288,1772272562.1203842,211.9140625,-10.7421875,11.23046875,892.578125,0.0,0,0
1772272562.17534,1772272562.1242769,-135.25390625,-30.2734375,-149.4140625,-274.90234375,0.0,0,0
1772272562.17539,1772272562.1281695,-355.46875,-69.3359375,-144.04296875,-1000.0,0.0,0,0
1772272562.1754391,1772272562.1320624,-192.3828125,-48.828125,5.37109375,-465.8203125,0.0,0,0
1772272562.1754901,1772272562.135955,138.671875,-1.46484375,90.33203125,822.265625,0.0,0,0
1772272562.175539,1772272562.1398478,217.7734375,-20.99609375,15.625,-999.51171875,0.0,0,0
1772272562.175827,1772272562.1437407,-66.89453125,-36.1328125,-145.01953125,-138.671875,0.0,0,0
1772272562.175882,1772272562.1476333,-324.21875,-43.45703125,-143.06640625,-1000.0,0.0,0,0
1772272562.2329972,1772272562.1516418,-230.95703125,-36.62109375,-7.32421875,-591.30859375,0.0,0,0
1772272562.233066,1772272562.1555347,109.375,-8.7890625,89.84375,658.203125,0.0,0,0
1772272562.233099,1772272562.1594274,245.60546875,-1.953125,51.7578125,-902.83203125,0.0,0,0
1772272562.23313,1772272562.16332,-20.99609375,-43.45703125,-113.28125,40.0390625,0.0,0,0
1772272562.23316,1772272562.167213,-303.22265625,-56.15234375,-162.109375,-1000.0,0.0,0,0
1772272562.2331898,1772272562.1711056,-232.421875,-31.25,-20.01953125,-681.640625,0.0,0,0
1772272562.2332191,1772272562.1749985,106.4453125,-25.390625,109.86328125,542.96875,0.0,0,0
1772272562.233249,1772272562.1788912,268.06640625,-16.11328125,47.8515625,-867.1875,0.0,0,0
1772272562.233278,1772272562.1827838,28.80859375,-34.66796875,-100.5859375,155.2734375,0.0,0,0
1772272562.2333078,1772272562.1866767,-291.50390625,-56.640625,-141.6015625,-1000.0,0.0,0,0
1772272562.2333372,1772272562.1905694,-285.15625,-35.64453125,-41.015625,-854.00390625,0.0,0,0
1772272562.233367,1772272562.1944623,49.31640625,2.9296875,100.5859375,317.3828125,0.0,0,0
1772272562.278711,1772272562.1985369,250.9765625,2.44140625,79.1015625,-847.16796875,0.0,0,0
1772272562.278812,1772272562.2024298,77.1484375,-30.76171875,-69.82421875,323.2421875,0.0,0,0
1772272562.2788448,1772272562.2063224,-237.3046875,-49.8046875,-142.08984375,-948.73046875,0.0,0,0
1772272562.278877,1772272562.2102153,-297.36328125,-29.78515625,-62.98828125,-936.03515625,0.0,0,0
1772272562.278906,1772272562.214108,35.64453125,4.39453125,96.19140625,218.26171875,0.0,0,0
1772272562.278974,1772272562.218001,284.66796875,-8.7890625,95.703125,-849.12109375,0.0,0,0
1772272562.279011,1772272562.2218935,111.328125,-40.0390625,-69.82421875,417.48046875,0.0,0,0
1772272562.279078,1772272562.2257864,-224.609375,-46.38671875,-157.2265625,-853.02734375,0.0,0,0
1772272562.279113,1772272562.229679,-304.6875,-33.69140625,-79.58984375,-1000.0,0.0,0,0
1772272562.279189,1772272562.233572,-17.08984375,-16.11328125,69.82421875,22.4609375,0.0,0,0
1772272562.279237,1772272562.2374647,257.32421875,-8.30078125,96.6796875,-876.46484375,0.0,0,0
1772272562.279304,1772272562.2413576,144.53125,-30.2734375,-44.43359375,562.98828125,0.0,0,0
1772272562.3395252,1772272562.2455006,-195.80078125,-50.29296875,-163.57421875,-690.91796875,0.0,0,0
1772272562.3396502,1772272562.2493935,-309.5703125,-43.45703125,-105.46875,-1000.0,0.0,0,0
1772272562.3396852,1772272562.2532861,-48.33984375,-17.578125,46.38671875,-119.62890625,0.0,0,0
1772272562.3397162,1772272562.257179,225.5859375,3.90625,88.8671875,-922.8515625,0.0,0,0
1772272562.3397472,1772272562.261072,177.734375,-14.6484375,-8.7890625,714.35546875,0.0,0,0
1772272562.339776,1772272562.2649646,-157.2265625,-36.62109375,-125.48828125,-478.02734375,0.0,0,0
1772272562.339807,1772272562.2688575,-324.21875,-43.45703125,-108.88671875,-1000.0,0.0,0,0
1772272562.339862,1772272562.2727504,-104.4921875,-20.5078125,25.87890625,-277.83203125,0.0,0,0
1772272562.339892,1772272562.276643,196.77734375,-16.6015625,72.265625,995.60546875,0.0,0,0
1772272562.33994,1772272562.280536,207.51953125,-51.26953125,-23.92578125,849.609375,0.0,0,0
1772272562.339969,1772272562.2844288,-95.21484375,-43.45703125,-150.390625,-324.70703125,0.0,0,0
1772272562.340008,1772272562.2883215,-310.05859375,-38.57421875,-125.9765625,-1000.0,0.0,0,0
1772272562.369628,1772272562.292381,-138.671875,-21.97265625,18.06640625,-421.38671875,0.0,0,0
1772272562.369707,1772272562.296274,191.40625,-2.44140625,93.75,876.953125,0.0,0,0
1772272562.369759,1772272562.3001668,245.60546875,-20.01953125,12.20703125,959.9609375,0.0,0,0
1772272562.369814,1772272562.3040595,-55.6640625,-42.96875,-148.4375,-187.5,0.0,0,0
1772272562.369865,1772272562.3079524,-307.12890625,-52.734375,-157.2265625,-1000.0,0.0,0,0
1772272562.369914,1772272562.3118453,-169.921875,-27.34375,0.48828125,-523.92578125,0.0,0,0
1772272562.3699672,1772272562.3157382,156.25,-15.13671875,88.37890625,759.27734375,0.0,0,0
1772272562.370017,1772272562.319631,223.6328125,-37.59765625,14.6484375,-954.58984375,0.0,0,0
1772272562.370067,1772272562.3235238,-45.41015625,-54.19921875,-132.32421875,-64.94140625,0.0,0,0
1772272562.370118,1772272562.3274167,-291.9921875,-50.29296875,-155.76171875,-1000.0,0.0,0,0
1772272562.370187,1772272562.3313096,-206.54296875,-23.92578125,-30.76171875,-676.7578125,0.0,0,0
1772272562.3702452,1772272562.3352025,115.234375,-16.6015625,81.54296875,529.78515625,0.0,0,0
1772272562.413651,1772272562.3392458,270.01953125,-33.69140625,50.78125,-872.0703125,0.0,0,0
1772272562.413737,1772272562.3431385,31.25,-47.36328125,-100.09765625,138.671875,0.0,0,0
1772272562.413773,1772272562.3470314,-280.2734375,-42.96875,-145.01953125,-1000.0,0.0,0,0
1772272562.413804,1772272562.3509243,-250.0,-20.5078125,-32.71484375,-766.6015625,0.0,0,0
1772272562.413835,1772272562.3548172,70.3125,-5.37109375,93.26171875,428.7109375,0.0,0,0
1772272562.4138649,1772272562.35871,237.79296875,-14.6484375,68.359375,-854.00390625,0.0,0,0
1772272562.413895,1772272562.362603,53.7109375,-29.296875,-84.47265625,300.78125,0.0,0,0
1772272562.4139252,1772272562.3664958,-277.34375,-67.87109375,-160.64453125,-971.19140625,0.0,0,0
1772272562.413955,1772272562.3703887,-325.1953125,-80.078125,-73.2421875,-965.8203125,0.0,0,0
1772272562.413985,1772272562.3742814,9.765625,-20.99609375,96.19140625,182.6171875,0.0,0,0
1772272562.414015,1772272562.3781743,238.76953125,-5.37109375,91.796875,-848.14453125,0.0,0,0
1772272562.4140449,1772272562.3820672,81.54296875,-38.0859375,-64.94140625,414.0625,0.0,0,0
1772272562.45939,1772272562.3860996,-252.9296875,-51.7578125,-154.296875,-865.72265625,0.0,0,0
1772272562.459466,1772272562.3899925,-334.47265625,-36.1328125,-83.984375,-1000.0,0.0,0,0
1772272562.459498,1772272562.3938854,-51.26953125,-15.625,72.75390625,46.875,0.0,0,0
1772272562.459529,1772272562.3977783,236.81640625,-4.39453125,94.23828125,-871.09375,0.0,0,0
1772272562.459559,1772272562.4016712,126.46484375,-27.83203125,-50.29296875,544.43359375,0.0,0,0
1772272562.459588,1772272562.405564,-231.4453125,-52.734375,-165.0390625,-717.28515625,0.0,0,0
1772272562.4596171,1772272562.409457,-347.65625,-35.15625,-112.79296875,-1000.0,0.0,0,0
1772272562.459646,1772272562.4133499,-76.171875,-32.2265625,52.734375,-102.05078125,0.0,0,0
1772272562.4596748,1772272562.4172428,223.6328125,-25.390625,109.375,-912.59765625,0.0,0,0
1772272562.4597042,1772272562.4211357,152.34375,-19.04296875,-17.08984375,686.5234375,0.0,0,0
1772272562.459733,1772272562.4250286,-185.546875,-46.38671875,-157.71484375,-527.83203125,0.0,0,0
1772272562.459763,1772272562.4289215,-345.21484375,-54.6875,-128.90625,-1000.0,0.0,0,0
1772272562.504565,1772272562.4329455,-127.9296875,-26.3671875,25.390625,-263.18359375,0.0,0,0
1772272562.504749,1772272562.4368384,186.03515625,-0.48828125,90.33203125,-989.74609375,0.0,0,0
1772272562.504862,1772272562.4407313,168.45703125,-28.80859375,-4.8828125,818.84765625,0.0,0,0
1772272562.504909,1772272562.4446242,-156.25,-51.26953125,-147.4609375,-368.65234375,0.0,0,0
1772272562.504949,1772272562.448517,-347.65625,-49.31640625,-138.671875,-1000.0,0.0,0,0
1772272562.504986,1772272562.45241,-174.8046875,-20.99609375,10.7421875,-400.390625,0.0,0,0
1772272562.505024,1772272562.4563031,144.04296875,-12.6953125,96.19140625,900.390625,0.0,0,0
1772272562.5050619,1772272562.460196,188.96484375,-55.17578125,9.27734375,936.03515625,0.0,0,0
1772272562.505099,1772272562.464089,-115.234375,-53.7109375,-153.3203125,-231.4453125,0.0,0,0
1772272562.505136,1772272562.4679818,-347.65625,-43.9453125,-158.69140625,-1000.0,0.0,0,0
1772272562.505172,1772272562.4718747,-201.66015625,-23.4375,-4.39453125,-522.4609375,0.0,0,0
1772272562.505208,1772272562.4757676,135.25390625,-0.9765625,81.0546875,751.46484375,0.0,0,0
1772272562.5643158,1772272562.47986,224.609375,-11.71875,16.6015625,-948.2421875,0.0,0,0
1772272562.5644522,1772272562.483753,-44.43359375,-48.828125,-134.27734375,-53.22265625,0.0,0,0
1772272562.564656,1772272562.4876459,-312.98828125,-62.98828125,-160.15625,-1000.0,0.0,0,0
1772272562.5646982,1772272562.4915388,-249.0234375,-35.15625,-25.87890625,-649.4140625,0.0,0,0
1772272562.564735,1772272562.4954317,81.54296875,-3.90625,95.21484375,585.44921875,0.0,0,0
1772272562.5647721,1772272562.4993248,225.09765625,-1.46484375,62.01171875,-881.34765625,0.0,0,0
1772272562.5648088,1772272562.5032177,-24.90234375,-57.6171875,-87.890625,106.4453125,0.0,0,0
1772272562.564845,1772272562.5071106,-338.8671875,-84.47265625,-149.4140625,-1000.0,0.0,0,0
1772272562.5648808,1772272562.5110035,-306.640625,-31.73828125,-41.9921875,-783.203125,0.0,0,0
1772272562.564918,1772272562.5148964,60.05859375,-3.90625,105.46875,414.55078125,0.0,0,0
1772272562.564954,1772272562.5187893,232.91015625,-13.18359375,72.265625,-850.5859375,0.0,0,0
1772272562.564991,1772272562.5226824,11.71875,-39.55078125,-77.63671875,245.60546875,0.0,0,0
1772272562.63887,1772272562.5266871,-297.8515625,-44.43359375,-137.6953125,-1000.0,0.0,0,0
1772272562.6389859,1772272562.53058,-338.8671875,-35.64453125,-56.15234375,-911.1328125,0.0,0,0
1772272562.6390452,1772272562.534473,-1.953125,-6.8359375,103.515625,252.9296875,0.0,0,0
1772272562.639097,1772272562.538366,236.81640625,5.859375,97.65625,-847.65625,0.0,0,0
1772272562.639148,1772272562.542259,60.546875,-30.2734375,-71.2890625,382.8125,0.0,0,0
1772272562.639254,1772272562.5461519,-270.01953125,-40.52734375,-143.5546875,-906.73828125,0.0,0,0
1772272562.639341,1772272562.5500448,-339.84375,-16.6015625,-62.01171875,-1000.0,0.0,0,0
1772272562.6393988,1772272562.553938,-20.5078125,-3.41796875,69.3359375,132.32421875,0.0,0,0
1772272562.63946,1772272562.5578308,229.00390625,-1.46484375,81.54296875,-870.1171875,0.0,0,0
1772272562.639519,1772272562.5617237,101.07421875,-44.921875,-47.8515625,540.52734375,0.0,0,0
1772272562.639571,1772272562.5656166,-230.95703125,-89.35546875,-144.53125,-713.37890625,0.0,0,0
1772272562.639622,1772272562.5695097,-346.19140625,-47.8515625,-83.49609375,-1000.0,0.0,0,0
1772272562.6538298,1772272562.5735197,-71.77734375,-6.8359375,74.70703125,-61.5234375,0.0,0,0
1772272562.65397,1772272562.5774126,203.61328125,-6.8359375,107.91015625,-901.85546875,0.0,0,0
1772272562.654031,1772272562.5813055,133.30078125,-34.1796875,-21.97265625,653.3203125,0.0,0,0
1772272562.6540859,1772272562.5851986,-173.33984375,-61.03515625,-145.5078125,-572.265625,0.0,0,0
1772272562.654138,1772272562.5890915,-312.5,-44.921875,-97.65625,-1000.0,0.0,0,0
1772272562.654188,1772272562.5929844,-49.8046875,-7.32421875,63.96484375,-180.6640625,0.0,0,0
1772272562.654238,1772272562.5968776,262.6953125,5.859375,100.5859375,-948.73046875,0.0,0,0
1772272562.6542878,1772272562.6007705,240.72265625,-14.6484375,-8.30078125,774.4140625,0.0,0,0
1772272562.654339,1772272562.6046634,-100.09765625,-53.7109375,-157.71484375,-416.50390625,0.0,0,0
1772272562.65439,1772272562.6085563,-304.6875,-45.8984375,-133.7890625,-1000.0,0.0,0,0
1772272562.654439,1772272562.6124494,-110.3515625,-7.8125,30.2734375,-350.09765625,0.0,0,0
1772272562.654498,1772272562.6163423,201.66015625,-0.9765625,80.078125,926.26953125,0.0,0,0
1772272562.698866,1772272562.6204042,250.9765625,-9.27734375,7.32421875,918.9453125,0.0,0,0
1772272562.698956,1772272562.6242974,-66.89453125,-35.15625,-147.94921875,-242.1875,0.0,0,0
1772272562.698997,1772272562.6281903,-302.24609375,-50.78125,-147.4609375,-1000.0,0.0,0,0
1772272562.699035,1772272562.6320834,-133.7890625,-19.04296875,19.04296875,-481.4453125,0.0,0,0
1772272562.699073,1772272562.6359763,186.03515625,-1.953125,106.4453125,792.96875,0.0,0,0
1772272562.699109,1772272562.6398692,264.16015625,-28.3203125,33.203125,-960.44921875,0.0,0,0
1772272562.699148,1772272562.6437624,-1.46484375,-42.48046875,-121.09375,-62.01171875,0.0,0,0
1772272562.699188,1772272562.6476552,-268.5546875,-40.0390625,-149.4140625,-1000.0,0.0,0,0
1772272562.6992252,1772272562.6515484,-186.03515625,-42.96875,-19.04296875,-621.09375,0.0,0,0
1772272562.699262,1772272562.6554413,137.20703125,-36.1328125,100.09765625,625.48828125,0.0,0,0
1772272562.6993,1772272562.6593342,267.578125,-13.671875,43.9453125,-899.4140625,0.0,0,0
1772272562.699348,1772272562.6632273,6.8359375,-37.109375,-113.76953125,49.31640625,0.0,0,0
1772272562.7450671,1772272562.6672795,-285.15625,-48.828125,-148.92578125,-1000.0,0.0,0,0
1772272562.745183,1772272562.6711724,-228.515625,-17.08984375,-28.3203125,-729.00390625,0.0,0,0
1772272562.745238,1772272562.6750655,111.328125,16.11328125,115.234375,478.515625,0.0,0,0
1772272562.7452888,1772272562.6789584,255.859375,10.25390625,75.68359375,-854.98046875,0.0,0,0
1772272562.7453399,1772272562.6828516,29.296875,-26.85546875,-100.5859375,217.28515625,0.0,0,0
1772272562.745388,1772272562.6867445,-278.80859375,-44.43359375,-145.01953125,-1000.0,0.0,0,0
1772272562.745425,1772272562.6906376,-288.0859375,-27.34375,-40.0390625,-856.93359375,0.0,0,0
1772272562.745464,1772272562.6945305,53.22265625,-0.48828125,88.8671875,313.4765625,0.0,0,0
1772272562.745501,1772272562.6984236,249.51171875,-40.52734375,67.87109375,-852.5390625,0.0,0,0
1772272562.745547,1772272562.7023165,61.03515625,-67.87109375,-81.0546875,333.0078125,0.0,0,0
1772272562.745583,1772272562.7062097,-254.39453125,-44.43359375,-141.6015625,-944.3359375,0.0,0,0
1772272562.745638,1772272562.7101026,-295.41015625,-27.83203125,-60.05859375,-984.86328125,0.0,0,0
1772272562.789241,1772272562.7141433,14.16015625,-6.34765625,87.890625,154.78515625,0.0,0,0
1772272562.789321,1772272562.7180364,250.9765625,-3.90625,91.796875,-861.81640625,0.0,0,0
1772272562.7893739,1772272562.7219293,128.41796875,-26.85546875,-53.7109375,495.1171875,0.0,0,0
1772272562.789439,1772272562.7258224,-214.35546875,-49.31640625,-150.87890625,-769.53125,0.0,0,0
1772272562.789491,1772272562.7297153,-325.68359375,-39.55078125,-96.19140625,-1000.0,0.0,0,0
1772272562.789541,1772272562.7336085,-41.015625,-12.20703125,67.3828125,-39.0625,0.0,0,0
1772272562.789591,1772272562.7375016,243.65234375,6.34765625,110.3515625,-885.25390625,0.0,0,0
1772272562.789642,1772272562.7413945,162.109375,-34.66796875,-35.64453125,608.3984375,0.0,0,0
1772272562.789692,1772272562.7452877,-157.2265625,-89.35546875,-178.7109375,-636.23046875,0.0,0,0
1772272562.7897458,1772272562.7491806,-308.59375,-55.6640625,-119.140625,-1000.0,0.0,0,0
1772272562.7897978,1772272562.7530737,-77.63671875,-10.25390625,42.96875,-186.5234375,0.0,0,0
1772272562.789854,1772272562.7569668,232.421875,0.0,86.42578125,-952.1484375,0.0,0,0
1772272562.8340921,1772272562.7610023,227.05078125,-15.625,-14.6484375,760.25390625,0.0,0,0
1772272562.834168,1772272562.7648954,-119.62890625,-42.96875,-156.25,-432.12890625,0.0,0,0
1772272562.834209,1772272562.7687886,-334.47265625,-46.875,-132.32421875,-1000.0,0.0,0,0
1772272562.8342469,1772272562.7726815,-106.93359375,-18.06640625,26.3671875,-316.89453125,0.0,0,0
1772272562.834286,1772272562.7765746,209.47265625,-2.9296875,77.63671875,960.9375,0.0,0,0
1772272562.834323,1772272562.7804677,232.421875,-9.27734375,-5.859375,902.34375,0.0,0,0
1772272562.8343601,1772272562.7843606,-96.6796875,-29.78515625,-150.390625,-254.8828125,0.0,0,0
1772272562.834402,1772272562.7882538,-356.4453125,-69.82421875,-151.3671875,-1000.0,0.0,0,0
1772272562.8344388,1772272562.792147,-202.63671875,-42.48046875,9.27734375,-451.171875,0.0,0,0
1772272562.834477,1772272562.7960398,135.25390625,18.06640625,97.65625,844.7265625,0.0,0,0
1772272562.834514,1772272562.799933,208.49609375,4.8828125,11.23046875,993.65234375,0.0,0,0
1772272562.834551,1772272562.803826,-104.00390625,-33.203125,-147.94921875,-146.97265625,0.0,0,0
1772272562.895092,1772272562.807855,-354.00390625,-41.015625,-145.01953125,-1000.0,0.0,0,0
1772272562.895235,1772272562.811748,-239.74609375,-22.94921875,-6.8359375,-590.8203125,0.0,0,0
1772272562.895293,1772272562.8156412,82.03125,-9.765625,92.28515625,661.62109375,0.0,0,0
1772272562.895348,1772272562.819534,213.37890625,-11.71875,58.10546875,-908.203125,0.0,0,0
1772272562.895401,1772272562.8234272,-43.9453125,-37.59765625,-100.09765625,32.71484375,0.0,0,0
1772272562.895453,1772272562.8273203,-335.9375,-37.59765625,-155.2734375,-1000.0,0.0,0,0
1772272562.895683,1772272562.8312135,-269.53125,-26.85546875,-29.78515625,-719.23828125,0.0,0,0
1772272562.8957398,1772272562.8351066,89.35546875,-28.3203125,97.65625,486.328125,0.0,0,0
1772272562.895791,1772272562.8389995,246.58203125,-17.578125,56.15234375,-860.83984375,0.0,0,0
1772272562.895854,1772272562.8428926,27.34375,-34.1796875,-97.16796875,209.9609375,0.0,0,0
1772272562.895904,1772272562.8467858,-254.8828125,-47.36328125,-141.11328125,-1000.0,0.0,0,0
1772272562.895953,1772272562.850679,-269.53125,-28.3203125,-46.38671875,-846.19140625,0.0,0,0
1772272562.9386811,1772272562.8547692,67.87109375,1.953125,107.91015625,344.23828125,0.0,0,0
1772272562.938827,1772272562.8586624,279.296875,0.0,85.9375,-847.65625,0.0,0,0
1772272562.938868,1772272562.8625555,69.3359375,-28.80859375,-88.8671875,324.21875,0.0,0,0
1772272562.938907,1772272562.8664486,-251.46484375,-49.8046875,-155.2734375,-951.171875,0.0,0,0
1772272562.938946,1772272562.8703418,-296.38671875,-47.36328125,-75.68359375,-979.4921875,0.0,0,0
1772272562.93903,1772272562.874235,1.46484375,-11.23046875,100.09765625,160.15625,0.0,0,0
1772272562.9390771,1772272562.8781278,247.0703125,-11.71875,112.79296875,-856.93359375,0.0,0,0
1772272562.939109,1772272562.882021,104.00390625,-43.45703125,-58.59375,464.35546875,0.0,0,0
1772272562.9391391,1772272562.885914,-238.76953125,-46.38671875,-148.92578125,-812.98828125,0.0,0,0
1772272562.939178,1772272562.8898072,-326.66015625,-38.0859375,-79.58984375,-1000.0,0.0,0,0
1772272562.9392068,1772272562.8937004,-38.57421875,-14.6484375,78.61328125,24.4140625,0.0,0,0
1772272562.9392378,1772272562.8975935,225.5859375,-2.9296875,109.86328125,-878.90625,0.0,0,0
1772272562.983649,1772272562.9015973,142.578125,-25.87890625,-25.390625,591.796875,0.0,0,0
1772272562.983756,1772272562.9054904,-191.40625,-46.875,-142.578125,-655.2734375,0.0,0,0
1772272562.983808,1772272562.9093835,-329.58984375,-33.69140625,-96.19140625,-1000.0,0.0,0,0
1772272562.983859,1772272562.9132767,-61.5234375,-4.39453125,63.4765625,-118.65234375,0.0,0,0
1772272562.9838989,1772272562.9171698,224.609375,3.90625,111.81640625,-927.24609375,0.0,0,0
1772272562.983936,1772272562.921063,186.5234375,-10.7421875,-3.90625,739.74609375,0.0,0,0
1772272562.983972,1772272562.9249558,-149.90234375,-37.59765625,-146.484375,-453.61328125,0.0,0,0
1772272562.98402,1772272562.928849,-332.51953125,-49.31640625,-116.69921875,-1000.0,0.0,0,0
1772272562.9840572,1772272562.932742,-129.8828125,-20.99609375,45.41015625,-294.43359375,0.0,0,0
1772272562.984103,1772272562.9366353,181.640625,-16.11328125,94.23828125,979.98046875,0.0,0,0
1772272562.984141,1772272562.9405284,205.078125,-35.64453125,-1.953125,844.23828125,0.0,0,0
1772272562.9841778,1772272562.9444215,-123.046875,-47.36328125,-154.78515625,-335.44921875,0.0,0,0
1772272563.029718,1772272562.9484918,-322.265625,-49.8046875,-148.92578125,-1000.0,0.0,0,0
1772272563.029823,1772272562.952385,-140.625,-28.3203125,4.8828125,-437.5,0.0,0,0
1772272563.0298629,1772272562.956278,163.0859375,0.9765625,97.65625,856.4453125,0.0,0,0
1772272563.0299048,1772272562.9601712,239.2578125,-1.953125,23.92578125,965.33203125,0.0,0,0
1772272563.029942,1772272562.9640644,-47.8515625,-34.66796875,-135.25390625,-198.2421875,0.0,0,0
1772272563.02998,1772272562.9679575,-291.015625,-31.73828125,-134.27734375,-1000.0,0.0,0,0
1772272563.0300171,1772272562.9718506,-150.87890625,-10.25390625,6.34765625,-523.4375,0.0,0,0
1772272563.0300539,1772272562.9757438,165.52734375,3.90625,95.21484375,744.140625,0.0,0,0
1772272563.030102,1772272562.979637,246.58203125,-10.25390625,38.57421875,-941.40625,0.0,0,0
1772272563.03014,1772272562.98353,-16.6015625,-58.59375,-112.3046875,-30.2734375,0.0,0,0
1772272563.030189,1772272562.9874232,-275.390625,-60.05859375,-157.2265625,-1000.0,0.0,0,0
1772272563.030228,1772272562.9913163,-190.4296875,-20.99609375,-13.671875,-647.94921875,0.0,0,0
1772272563.074375,1772272562.9953754,144.53125,-7.32421875,126.46484375,583.984375,0.0,0,0
1772272563.074482,1772272562.9992685,279.296875,-16.6015625,64.453125,-873.046875,0.0,0,0
1772272563.0745401,1772272563.0031617,58.59375,-36.1328125,-101.5625,139.16015625,0.0,0,0
1772272563.074593,1772272563.0070548,-223.6328125,-45.8984375,-151.85546875,-1000.0,0.0,0,0
1772272563.074643,1772272563.0109482,-217.7734375,-34.1796875,-47.8515625,-820.80078125,0.0,0,0
1772272563.074694,1772272563.0148413,101.5625,-3.90625,114.74609375,364.2578125,0.0,0,0
1772272563.0747452,1772272563.0187345,299.8046875,-0.48828125,91.30859375,-844.23828125,0.0,0,0
1772272563.074796,1772272563.0226276,101.07421875,-34.1796875,-91.30859375,273.4375,0.0,0,0
1772272563.0748448,1772272563.0265207,-220.703125,-72.75390625,-162.109375,-1000.0,0.0,0,0
1772272563.0748959,1772272563.0304139,-248.53515625,-71.2890625,-57.12890625,-939.94140625,0.0,0,0
1772272563.074948,1772272563.034307,94.23828125,-19.53125,93.26171875,217.28515625,0.0,0,0
1772272563.074997,1772272563.0382004,312.98828125,-15.13671875,76.171875,-851.5625,0.0,0,0
1772272563.118714,1772272563.042251,123.046875,-43.45703125,-58.10546875,421.38671875,0.0,0,0
1772272563.1188328,1772272563.0461442,-200.1953125,-53.22265625,-134.27734375,-855.46875,0.0,0,0
1772272563.1188679,1772272563.0500374,-286.62109375,-37.109375,-73.73046875,-1000.0,0.0,0,0
1772272563.1188989,1772272563.0539308,17.08984375,-8.30078125,92.28515625,72.75390625,0.0,0,0
1772272563.118929,1772272563.057824,297.8515625,-3.90625,98.14453125,-878.90625,0.0,0,0
1772272563.1189592,1772272563.061717,201.66015625,-16.11328125,-43.45703125,600.5859375,0.0,0,0
1772272563.118988,1772272563.0656102,-125.9765625,-38.57421875,-152.34375,-636.23046875,0.0,0,0
1772272563.1190221,1772272563.0695035,-280.2734375,-42.96875,-112.79296875,-1000.0,0.0,0,0
1772272563.119051,1772272563.0733967,-46.875,-41.9921875,44.921875,-122.55859375,0.0,0,0
1772272563.119081,1772272563.0772898,257.8125,-24.4140625,95.703125,-917.48046875,0.0,0,0
1772272563.1191108,1772272563.081183,221.19140625,-17.578125,-27.34375,697.75390625,0.0,0,0
1772272563.119173,1772272563.0850763,-126.953125,-44.921875,-178.22265625,-507.8125,0.0,0,0
1772272563.167386,1772272563.0891216,-293.45703125,-41.50390625,-146.484375,-1000.0,0.0,0,0
1772272563.1675148,1772272563.0930147,-62.01171875,-14.6484375,16.11328125,-262.6953125,0.0,0,0
1772272563.167573,1772272563.0969079,235.83984375,-1.46484375,90.8203125,-989.2578125,0.0,0,0
1772272563.167625,1772272563.1008012,225.09765625,-24.90234375,-5.37109375,826.66015625,0.0,0,0
1772272563.167677,1772272563.1046944,-97.65625,-53.22265625,-163.57421875,-348.14453125,0.0,0,0
1772272563.1677282,1772272563.1085875,-303.7109375,-48.33984375,-150.87890625,-1000.0,0.0,0,0
1772272563.167778,1772272563.1124809,-93.75,-6.34765625,21.97265625,-359.375,0.0,0,0
1772272563.167828,1772272563.116374,212.890625,-22.94921875,85.9375,928.7109375,0.0,0,0
1772272563.1678772,1772272563.1202672,246.09375,-66.89453125,-4.39453125,935.05859375,0.0,0,0
1772272563.167928,1772272563.1241605,-39.55078125,-45.8984375,-139.6484375,-211.42578125,0.0,0,0
1772272563.167995,1772272563.1280537,-290.52734375,-38.0859375,-155.2734375,-1000.0,0.0,0,0
1772272563.168067,1772272563.1319468,-164.55078125,-28.3203125,-14.16015625,-528.3203125,0.0,0,0
1772272563.239273,1772272563.1361299,178.22265625,-3.41796875,104.00390625,751.953125,0.0,0,0
1772272563.239398,1772272563.140023,277.34375,-5.859375,37.109375,-949.70703125,0.0,0,0
1772272563.239447,1772272563.1439164,-9.27734375,-35.15625,-135.25390625,-67.87109375,0.0,0,0
1772272563.2394838,1772272563.1478095,-264.6484375,-41.50390625,-160.15625,-1000.0,0.0,0,0
1772272563.239522,1772272563.151703,-177.24609375,-32.2265625,-45.8984375,-659.1796875,0.0,0,0
1772272563.23956,1772272563.155596,150.87890625,-4.8828125,95.21484375,566.40625,0.0,0,0
1772272563.2395961,1772272563.1594894,297.8515625,-3.41796875,53.22265625,-881.34765625,0.0,0,0
1772272563.239632,1772272563.1633825,34.1796875,-81.0546875,-114.74609375,104.98046875,0.0,0,0
1772272563.239669,1772272563.167276,-263.671875,-94.7265625,-145.99609375,-1000.0,0.0,0,0
1772272563.239709,1772272563.171169,-207.03125,-29.78515625,-34.1796875,-765.13671875,0.0,0,0
1772272563.2399302,1772272563.1750624,110.3515625,-3.90625,100.5859375,427.734375,0.0,0,0
1772272563.239969,1772272563.1789556,278.3203125,-0.9765625,67.87109375,-850.09765625,0.0,0,0
1772272563.254175,1772272563.1829815,65.4296875,-29.296875,-91.796875,258.7890625,0.0,0,0
1772272563.254275,1772272563.1868746,-272.94921875,-45.41015625,-153.3203125,-1000.0,0.0,0,0
1772272563.254334,1772272563.190768,-298.828125,-19.53125,-44.43359375,-920.41015625,0.0,0,0
1772272563.254387,1772272563.1946611,38.0859375,0.0,108.3984375,242.1875,0.0,0,0
1772272563.254438,1772272563.1985545,262.20703125,0.9765625,94.7265625,-853.515625,0.0,0,0
1772272563.2544892,1772272563.2024477,88.8671875,-19.04296875,-51.7578125,423.33984375,0.0,0,0
1772272563.25454,1772272563.206341,-217.28515625,-42.96875,-145.01953125,-855.46875,0.0,0,0
1772272563.254591,1772272563.2102344,-265.625,-36.62109375,-87.890625,-1000.0,0.0,0,0
1772272563.25464,1772272563.2141275,26.85546875,-10.25390625,70.80078125,73.73046875,0.0,0,0
1772272563.2546911,1772272563.218021,266.11328125,-7.32421875,93.75,-871.09375,0.0,0,0
1772272563.25474,1772272563.221914,153.3203125,-35.64453125,-37.109375,535.64453125,0.0,0,0
1772272563.2547898,1772272563.2258074,-168.45703125,-55.6640625,-143.5546875,-726.5625,0.0,0,0
1772272563.3000069,1772272563.2298188,-273.92578125,-37.59765625,-98.6328125,-1000.0,0.0,0,0
1772272563.3001301,1772272563.2337122,-19.04296875,-2.44140625,64.453125,-62.98828125,0.0,0,0
1772272563.300189,1772272563.2376053,242.1875,-27.34375,91.796875,-903.80859375,0.0,0,0
1772272563.300246,1772272563.2414987,199.21875,-54.19921875,-35.15625,666.015625,0.0,0,0
1772272563.300298,1772272563.245392,-127.44140625,-43.45703125,-152.83203125,-551.26953125,0.0,0,0
1772272563.30035,1772272563.2492852,-296.38671875,-33.203125,-104.4921875,-1000.0,0.0,0,0
1772272563.3004,1772272563.2531786,-63.4765625,-49.31640625,47.8515625,-203.61328125,0.0,0,0
1772272563.300452,1772272563.257072,222.65625,-41.9921875,94.23828125,-954.1015625,0.0,0,0
1772272563.300502,1772272563.260965,191.40625,-17.578125,-28.3203125,751.953125,0.0,0,0
1772272563.3005388,1772272563.2648585,-138.671875,-42.48046875,-179.19921875,-447.265625,0.0,0,0
1772272563.300577,1772272563.2687519,-333.0078125,-39.0625,-138.18359375,-1000.0,0.0,0,0
1772272563.3006349,1772272563.272645,-139.6484375,-17.08984375,22.4609375,-345.703125,0.0,0,0
1772272563.3586812,1772272563.2766476,196.77734375,7.32421875,98.6328125,932.6171875,0.0,0,0
1772272563.3588128,1772272563.280541,238.28125,-7.32421875,20.01953125,924.31640625,0.0,0,0
1772272563.358867,1772272563.284434,-101.5625,-50.29296875,-145.01953125,-229.00390625,0.0,0,0
1772272563.358919,1772272563.2883275,-338.37890625,-62.5,-162.109375,-1000.0,0.0,0,0
1772272563.358969,1772272563.2922208,-177.734375,-29.78515625,-2.9296875,-503.90625,0.0,0,0
1772272563.359019,1772272563.2961142,155.76171875,-11.23046875,102.05078125,771.97265625,0.0,0,0
1772272563.359081,1772272563.3000073,263.18359375,-42.96875,28.80859375,-987.3046875,0.0,0,0
1772272563.359134,1772272563.3039007,-13.671875,-48.33984375,-137.20703125,-103.02734375,0.0,0,0
1772272563.359185,1772272563.307794,-276.85546875,-40.0390625,-169.921875,-1000.0,0.0,0,0
1772272563.3592598,1772272563.3116875,-187.5,-19.53125,-20.99609375,-643.5546875,0.0,0,0
1772272563.359328,1772272563.3155806,156.73828125,11.71875,110.83984375,598.6328125,0.0,0,0
1772272563.3593862,1772272563.319474,302.24609375,4.8828125,49.31640625,-889.6484375,0.0,0,0
1772272563.404067,1772272563.32354,23.92578125,-29.78515625,-106.93359375,73.2421875,0.0,0,0
1772272563.404156,1772272563.3274333,-284.66796875,-56.15234375,-163.0859375,-1000.0,0.0,0,0
1772272563.404206,1772272563.3313267,-232.421875,-37.109375,-42.96875,-743.1640625,0.0,0,0
1772272563.404245,1772272563.33522,126.46484375,-2.9296875,124.0234375,464.84375,0.0,0,0
1772272563.404282,1772272563.3391132,311.03515625,0.48828125,80.078125,-856.93359375,0.0,0,0
1772272563.404321,1772272563.3430066,68.359375,-27.34375,-88.8671875,221.6796875,0.0,0,0
1772272563.4043589,1772272563.3469,-250.48828125,-52.734375,-147.94921875,-1000.0,0.0,0,0
1772272563.404396,1772272563.3507934,-248.53515625,-40.52734375,-56.15234375,-886.71875,0.0,0,0
1772272563.404433,1772272563.3546867,69.3359375,-7.8125,108.88671875,282.71484375,0.0,0,0
1772272563.40447,1772272563.35858,279.296875,-13.671875,90.33203125,-850.5859375,0.0,0,0
1772272563.4045062,1772272563.3624732,108.3984375,-39.55078125,-78.61328125,367.1875,0.0,0,0
1772272563.404544,1772272563.3663666,-204.58984375,-38.0859375,-143.5546875,-910.64453125,0.0,0,0
1772272563.449561,1772272563.3704267,-272.4609375,-27.34375,-68.359375,-1000.0,0.0,0,0
1772272563.449708,1772272563.37432,7.32421875,-13.18359375,80.078125,128.41796875,0.0,0,0
1772272563.44975,1772272563.3782134,241.69921875,-7.8125,110.3515625,-857.421875,0.0,0,0
1772272563.449791,1772272563.3821068,95.21484375,-33.203125,-43.9453125,491.69921875,0.0,0,0
1772272563.4498298,1772272563.3860002,-231.93359375,-58.59375,-167.48046875,-784.66796875,0.0,0,0
1772272563.4498692,1772272563.3898935,-315.4296875,-32.71484375,-85.9375,-1000.0,0.0,0,0
1772272563.449905,1772272563.3937867,-46.38671875,-9.765625,83.49609375,-24.4140625,0.0,0,0
1772272563.449951,1772272563.39768,206.54296875,-10.25390625,93.75,-885.25390625,0.0,0,0
1772272563.449996,1772272563.4015734,93.75,-44.43359375,-47.36328125,580.078125,0.0,0,0
1772272563.4500532,1772272563.4054668,-232.91015625,-71.2890625,-161.62109375,-666.015625,0.0,0,0
1772272563.450099,1772272563.4093602,-354.00390625,-30.76171875,-93.75,-1000.0,0.0,0,0
1772272563.450154,1772272563.4132535,-122.55859375,-1.953125,73.73046875,-207.51953125,0.0,0,0
1772272563.4937322,1772272563.417302,169.921875,4.39453125,115.72265625,-951.66015625,0.0,0,0
1772272563.493829,1772272563.4211953,107.421875,-18.06640625,3.41796875,723.6328125,0.0,0,0
1772272563.493867,1772272563.4250886,-227.5390625,-32.2265625,-144.53125,-491.2109375,0.0,0,0
1772272563.493907,1772272563.428982,-386.71875,-25.87890625,-113.28125,-1000.0,0.0,0,0
1772272563.493943,1772272563.4328754,-180.17578125,-0.48828125,54.19921875,-362.79296875,0.0,0,0
1772272563.4939818,1772272563.4367688,120.1171875,25.87890625,117.67578125,939.453125,0.0,0,0
1772272563.494019,1772272563.4406621,124.51171875,8.30078125,17.08984375,860.3515625,0.0,0,0
1772272563.4940548,1772272563.4445555,-200.68359375,-13.671875,-145.5078125,-338.37890625,0.0,0,0
1772272563.494093,1772272563.448449,-411.1328125,-57.6171875,-128.41796875,-1000.0,0.0,0,0
1772272563.4941282,1772272563.4523423,-252.9296875,-42.96875,32.71484375,-530.2734375,0.0,0,0
1772272563.494165,1772272563.4562356,63.4765625,16.11328125,129.8828125,766.11328125,0.0,0,0
1772272563.494216,1772272563.460129,114.2578125,-8.30078125,42.96875,985.3515625,0.0,0,0
1772272563.538595,1772272563.4641676,-182.12890625,-41.015625,-132.8125,-197.265625,0.0,0,0
1772272563.5386748,1772272563.468061,-399.4140625,-36.1328125,-137.6953125,-1000.0,0.0,0,0
1772272563.538717,1772272563.4719543,-279.78515625,-8.7890625,-2.44140625,-617.67578125,0.0,0,0
1772272563.538761,1772272563.475848,55.17578125,8.30078125,102.5390625,623.53515625,0.0,0,0
1772272563.5388002,1772272563.4797413,187.98828125,-9.765625,41.015625,-918.45703125,0.0,0,0
1772272563.538838,1772272563.4836347,-71.77734375,-36.1328125,-125.9765625,-1.46484375,0.0,0,0
1772272563.5388749,1772272563.487528,-326.66015625,-34.1796875,-153.3203125,-1000.0,0.0,0,0
1772272563.538912,1772272563.4914215,-264.6484375,-31.25,-45.8984375,-753.90625,0.0,0,0
1772272563.5389519,1772272563.4953148,49.31640625,-20.01953125,90.8203125,440.91796875,0.0,0,0
1772272563.538989,1772272563.4992082,219.7265625,-8.7890625,58.59375,-863.28125,0.0,0,0
1772272563.5390248,1772272563.5031016,-12.6953125,-37.59765625,-124.0234375,159.66796875,0.0,0,0
1772272563.539062,1772272563.506995,-306.15234375,-50.29296875,-169.43359375,-1000.0,0.0,0,0
1772272563.584728,1772272563.5110228,-302.24609375,-31.25,-61.5234375,-870.60546875,0.0,0,0
1772272563.58483,1772272563.5149164,27.83203125,-2.44140625,87.890625,294.43359375,0.0,0,0
1772272563.5848892,1772272563.5188098,242.67578125,-4.8828125,70.3125,-844.23828125,0.0,0,0
1772272563.585108,1772272563.5227032,23.4375,-43.45703125,-105.46875,307.6171875,0.0,0,0
1772272563.585166,1772272563.5265965,-309.5703125,-64.453125,-189.94140625,-971.19140625,0.0,0,0
1772272563.585218,1772272563.53049,-312.98828125,-40.52734375,-91.796875,-962.890625,0.0,0,0
1772272563.58527,1772272563.5343833,14.16015625,-11.71875,62.5,185.05859375,0.0,0,0
1772272563.58533,1772272563.538277,238.76953125,-40.52734375,43.45703125,-855.95703125,0.0,0,0
1772272563.58538,1772272563.5421703,103.02734375,-68.84765625,-107.421875,453.125,0.0,0,0
1772272563.58543,1772272563.5460637,-210.44921875,-58.59375,-192.3828125,-820.80078125,0.0,0,0
1772272563.585479,1772272563.549957,-314.94140625,-55.17578125,-124.0234375,-1000.0,0.0,0,0
1772272563.5855281,1772272563.5538504,-18.5546875,-24.4140625,48.828125,32.71484375,0.0,0,0
1772272563.628665,1772272563.5578687,265.13671875,-16.6015625,69.3359375,-891.11328125,0.0,0,0
1772272563.628771,1772272563.561762,184.5703125,-40.52734375,-73.2421875,634.765625,0.0,0,0
1772272563.6288278,1772272563.5656555,-129.8828125,-60.05859375,-179.19921875,-586.9140625,0.0,0,0
1772272563.628893,1772272563.5695488,-271.484375,-62.01171875,-135.7421875,-1000.0,0.0,0,0
1772272563.6289449,1772272563.5734425,-29.78515625,-23.4375,39.0625,-118.65234375,0.0,0,0
1772272563.628997,1772272563.5773358,261.23046875,0.48828125,103.02734375,-926.7578125,0.0,0,0
1772272563.629051,1772272563.5812292,226.5625,-30.2734375,-27.34375,748.046875,0.0,0,0
1772272563.629101,1772272563.5851226,-127.44140625,-81.0546875,-201.66015625,-440.4296875,0.0,0,0
1772272563.629152,1772272563.5890162,-320.80078125,-72.75390625,-166.50390625,-1000.0,0.0,0,0
1772272563.629202,1772272563.5929096,-82.51953125,-27.34375,12.6953125,-283.203125,0.0,0,0
1772272563.6292522,1772272563.596803,232.421875,-10.25390625,77.63671875,989.74609375,0.0,0,0
1772272563.629302,1772272563.6006963,236.328125,-29.296875,-15.625,861.328125,0.0,0,0
1772272563.673781,1772272563.6047063,-67.3828125,-54.6875,-174.8046875,-300.29296875,0.0,0,0
1772272563.673862,1772272563.6086,-276.3671875,-59.08203125,-164.55078125,-1000.0,0.0,0,0
1772272563.6739042,1772272563.6124933,-117.67578125,-33.203125,16.11328125,-411.62109375,0.0,0,0
1772272563.6739452,1772272563.6163867,201.171875,-16.11328125,105.95703125,886.71875,0.0,0,0
1772272563.6739929,1772272563.6202803,249.0234375,-35.15625,9.27734375,962.40234375,0.0,0,0
1772272563.674031,1772272563.6241736,-48.33984375,-49.8046875,-145.5078125,-181.15234375,0.0,0,0
1772272563.6740701,1772272563.628067,-291.015625,-74.70703125,-171.38671875,-1000.0,0.0,0,0
1772272563.6741068,1772272563.6319604,-170.8984375,-57.12890625,-22.4609375,-559.5703125,0.0,0,0
1772272563.674145,1772272563.635854,175.29296875,-9.27734375,102.5390625,704.1015625,0.0,0,0
1772272563.674182,1772272563.6397474,297.8515625,-21.484375,30.76171875,-919.43359375,0.0,0,0
1772272563.674237,1772272563.6436408,26.85546875,-51.7578125,-126.46484375,19.53125,0.0,0,0
1772272563.674283,1772272563.6475344,-260.25390625,-59.5703125,-160.15625,-1000.0,0.0,0,0
1772272563.733624,1772272563.6515346,-186.5234375,-33.203125,-22.94921875,-698.73046875,0.0,0,0
1772272563.7337432,1772272563.6554282,165.52734375,-5.859375,106.93359375,523.92578125,0.0,0,0
1772272563.7337852,1772272563.6593215,312.98828125,-11.71875,48.33984375,-865.234375,0.0,0,0
1772272563.7338219,1772272563.663215,54.6875,-41.50390625,-110.3515625,166.50390625,0.0,0,0
1772272563.733859,1772272563.6671085,-235.3515625,-52.24609375,-153.80859375,-1000.0,0.0,0,0
1772272563.7338948,1772272563.671002,-212.890625,-46.875,-29.296875,-809.5703125,0.0,0,0
1772272563.733932,1772272563.6748953,107.91015625,-40.52734375,121.09375,383.7890625,0.0,0,0
1772272563.733969,1772272563.678789,305.6640625,-23.92578125,67.87109375,-844.7265625,0.0,0,0
1772272563.734008,1772272563.6826823,108.3984375,-42.96875,-113.28125,245.60546875,0.0,0,0
1772272563.734045,1772272563.686576,-225.09765625,-56.640625,-169.43359375,-1000.0,0.0,0,0
1772272563.734089,1772272563.6904693,-268.5546875,-39.0625,-76.171875,-969.7265625,0.0,0,0
1772272563.734136,1772272563.6943626,47.36328125,-14.16015625,91.30859375,153.80859375,0.0,0,0
1772272563.779362,1772272563.6984332,292.96875,-5.37109375,92.7734375,-853.515625,0.0,0,0
1772272563.7794602,1772272563.7023265,128.90625,-29.78515625,-65.4296875,441.40625,0.0,0,0
1772272563.7795022,1772272563.7062201,-199.70703125,-46.875,-146.484375,-833.0078125,0.0,0,0
1772272563.779542,1772272563.7101135,-265.625,-36.1328125,-84.9609375,-1000.0,0.0,0,0
1772272563.7795799,1772272563.7140071,15.625,-15.625,68.359375,39.0625,0.0,0,0
1772272563.779617,1772272563.7179005,289.55078125,-9.765625,106.93359375,-873.53515625,0.0,0,0
1772272563.77966,1772272563.7217941,205.078125,-37.59765625,-40.0390625,561.5234375,0.0,0,0
1772272563.7796988,1772272563.7256875,-147.4609375,-62.5,-165.0390625,-700.68359375,0.0,0,0
1772272563.779739,1772272563.729581,-280.76171875,-46.38671875,-86.42578125,-1000.0,0.0,0,0
1772272563.779775,1772272563.7334745,-28.3203125,-35.64453125,64.94140625,-83.0078125,0.0,0,0
1772272563.779812,1772272563.737368,223.6328125,-29.78515625,91.796875,-915.0390625,0.0,0,0
1772272563.779849,1772272563.7412615,170.41015625,-32.71484375,-31.73828125,692.3828125,0.0,0,0
1772272563.86939,1772272563.7455423,-151.3671875,-56.15234375,-169.921875,-517.08984375,0.0,0,0
1772272563.869473,1772272563.7494357,-319.82421875,-51.7578125,-131.8359375,-1000.0,0.0,0,0
1772272563.869513,1772272563.7533293,-91.796875,-20.01953125,25.390625,-259.27734375,0.0,0,0
1772272563.8695521,1772272563.757223,223.14453125,-5.859375,95.703125,-989.2578125,0.0,0,0
1772272563.86959,1772272563.7611163,209.47265625,-29.296875,-6.34765625,820.80078125,0.0,0,0
1772272563.869627,1772272563.7650099,-117.67578125,-49.8046875,-149.4140625,-358.3984375,0.0,0,0
1772272563.869665,1772272563.7689035,-316.40625,-47.8515625,-132.8125,-1000.0,0.0,0,0
1772272563.869707,1772272563.772797,-121.58203125,-23.92578125,20.5078125,-406.73828125,0.0,0,0
1772272563.869747,1772272563.7766905,191.40625,-19.04296875,95.21484375,881.8359375,0.0,0,0
1772272563.869785,1772272563.780584,236.328125,-46.38671875,10.7421875,954.1015625,0.0,0,0
1772272563.869822,1772272563.7844777,-70.80078125,-55.6640625,-146.484375,-210.9375,0.0,0,0
1772272563.869899,1772272563.788371,-318.84765625,-49.31640625,-137.20703125,-1000.0,0.0,0,0
1772272563.871043,1772272563.7924337,-190.91796875,-30.2734375,0.9765625,-562.01171875,0.0,0,0
1772272563.871109,1772272563.7963274,137.6953125,-12.6953125,88.8671875,705.56640625,0.0,0,0
1772272563.87115,1772272563.8002207,246.09375,-21.97265625,40.0390625,-939.94140625,0.0,0,0
1772272563.8711889,1772272563.8041143,-40.52734375,-54.19921875,-128.41796875,-51.26953125,0.0,0,0
1772272563.8712661,1772272563.808008,-330.078125,-60.05859375,-158.69140625,-1000.0,0.0,0,0
1772272563.87131,1772272563.8119016,-225.09765625,-28.3203125,-4.8828125,-618.1640625,0.0,0,0
1772272563.87134,1772272563.8157952,137.6953125,-10.25390625,107.421875,625.48828125,0.0,0,0
1772272563.871369,1772272563.8196886,275.87890625,-16.11328125,44.921875,-886.71875,0.0,0,0
1772272563.871401,1772272563.8235822,23.92578125,-39.0625,-114.74609375,90.33203125,0.0,0,0
1772272563.87143,1772272563.8274758,-289.55078125,-55.17578125,-163.0859375,-1000.0,0.0,0,0
1772272563.871458,1772272563.8313694,-263.671875,-38.0859375,-51.26953125,-818.359375,0.0,0,0
1772272563.871487,1772272563.835263,79.1015625,-11.71875,102.05078125,360.3515625,0.0,0,0
1772272563.928863,1772272563.8393047,260.25390625,-11.23046875,72.75390625,-847.65625,0.0,0,0
1772272563.929085,1772272563.8431983,39.0625,-41.015625,-95.703125,248.046875,0.0,0,0
1772272563.929157,1772272563.847092,-257.8125,-46.875,-136.71875,-1000.0,0.0,0,0
1772272563.929208,1772272563.8509855,-270.01953125,-29.296875,-47.8515625,-913.0859375,0.0,0,0
1772272563.929264,1772272563.8548791,49.31640625,-5.859375,100.5859375,254.8828125,0.0,0,0
1772272563.9293609,1772272563.8587728,273.92578125,-3.41796875,108.88671875,-856.93359375,0.0,0,0
1772272563.929493,1772272563.8626664,109.375,-26.3671875,-58.59375,435.05859375,0.0,0,0
1772272563.929718,1772272563.86656,-202.1484375,-49.31640625,-159.66796875,-836.9140625,0.0,0,0
1772272563.9297779,1772272563.8704534,-278.3203125,-48.33984375,-90.8203125,-1000.0,0.0,0,0
1772272563.9298298,1772272563.874347,16.6015625,-12.6953125,83.49609375,70.80078125,0.0,0,0
1772272563.929881,1772272563.8782406,278.3203125,-1.953125,107.421875,-862.3046875,0.0,0,0
1772272563.929932,1772272563.8821342,152.83203125,-29.78515625,-44.43359375,522.4609375,0.0,0,0
1772272563.960256,1772272563.8861694,-206.0546875,-58.10546875,-161.1328125,-744.62890625,0.0,0,0
1772272563.9603431,1772272563.890063,-329.58984375,-47.8515625,-93.75,-1000.0,0.0,0,0
1772272563.960381,1772272563.8939567,-54.6875,-14.16015625,87.890625,-54.6875,0.0,0,0
1772272563.960418,1772272563.8978503,233.3984375,-11.23046875,119.140625,-900.390625,0.0,0,0
1772272563.960456,1772272563.901744,170.8984375,-41.50390625,-34.66796875,653.3203125,0.0,0,0
1772272563.960494,1772272563.9056375,-165.52734375,-51.26953125,-158.69140625,-564.94140625,0.0,0,0
1772272563.960532,1772272563.9095309,-327.1484375,-41.50390625,-105.95703125,-1000.0,0.0,0,0
1772272563.960568,1772272563.9134245,-105.95703125,-35.64453125,37.59765625,-236.328125,0.0,0,0
1772272563.9606059,1772272563.917318,187.98828125,-19.53125,91.796875,-982.421875,0.0,0,0
1772272563.9606478,1772272563.9212117,166.50390625,-19.53125,-4.39453125,803.7109375,0.0,0,0
1772272563.960686,1772272563.9251053,-143.06640625,-42.48046875,-157.71484375,-380.37109375,0.0,0,0
1772272563.960723,1772272563.928999,-321.77734375,-55.17578125,-138.671875,-1000.0,0.0,0,0
1772272564.0049,1772272563.9330165,-145.99609375,-29.78515625,22.4609375,-381.8359375,0.0,0,0
1772272564.004992,1772272563.9369102,174.31640625,-2.9296875,94.7265625,916.9921875,0.0,0,0
1772272564.005121,1772272563.9408038,230.46875,-19.53125,6.8359375,917.96875,0.0,0,0
1772272564.005197,1772272563.9446974,-78.61328125,-50.29296875,-159.66796875,-249.51171875,0.0,0,0
1772272564.0052512,1772272563.948591,-316.40625,-61.03515625,-166.50390625,-1000.0,0.0,0,0
1772272564.005302,1772272563.9524846,-162.109375,-29.78515625,7.8125,-476.5625,0.0,0,0
1772272564.005352,1772272563.9563782,179.6875,-5.859375,114.74609375,814.453125,0.0,0,0
1772272564.005402,1772272563.9602718,236.328125,-32.2265625,30.2734375,-979.00390625,0.0,0,0
1772272564.005454,1772272563.9641654,-74.21875,-44.43359375,-136.71875,-99.12109375,0.0,0,0
1772272564.005504,1772272563.968059,-321.77734375,-41.015625,-157.71484375,-1000.0,0.0,0,0
1772272564.005555,1772272563.9719527,-223.6328125,-31.73828125,-13.18359375,-652.83203125,0.0,0,0
1772272564.0056052,1772272563.9758463,99.609375,-14.6484375,113.28125,583.0078125,0.0,0,0
1772272564.049527,1772272563.9798558,227.05078125,-19.04296875,53.7109375,-902.34375,0.0,0,0
1772272564.049684,1772272563.9837494,-22.4609375,-43.45703125,-113.28125,43.9453125,0.0,0,0
1772272564.04974,1772272563.9876432,-298.33984375,-51.26953125,-156.25,-1000.0,0.0,0,0
1772272564.049796,1772272563.9915369,-277.34375,-36.62109375,-42.48046875,-781.25,0.0,0,0
1772272564.049855,1772272563.9954305,45.41015625,-18.5546875,103.515625,408.69140625,0.0,0,0
1772272564.049928,1772272563.999324,246.58203125,-2.9296875,85.44921875,-851.07421875,0.0,0,0
1772272564.04998,1772272564.0032177,18.5546875,-50.78125,-91.30859375,177.24609375,0.0,0,0
1772272564.050035,1772272564.0071113,-309.08203125,-77.63671875,-159.66796875,-1000.0,0.0,0,0
1772272564.0500858,1772272564.011005,-306.640625,-33.203125,-49.31640625,-899.90234375,0.0,0,0
1772272564.050163,1772272564.0148985,20.5078125,-3.41796875,110.83984375,242.1875,0.0,0,0
1772272564.0502322,1772272564.0187924,218.26171875,-0.9765625,115.234375,-845.21484375,0.0,0,0
1772272564.050289,1772272564.022686,34.1796875,-27.34375,-49.31640625,346.6796875,0.0,0,0
1772272564.137872,1772272564.0266852,-293.9453125,-39.0625,-141.6015625,-912.109375,0.0,0,0
1772272564.138022,1772272564.0305789,-364.2578125,-33.69140625,-73.2421875,-1000.0,0.0,0,0
1772272564.138078,1772272564.0344727,-66.89453125,-8.7890625,97.65625,19.04296875,0.0,0,0
1772272564.1381319,1772272564.0383663,208.0078125,4.8828125,118.65234375,-851.07421875,0.0,0,0
1772272564.138186,1772272564.04226,61.03515625,-24.90234375,-54.19921875,432.6171875,0.0,0,0
1772272564.138238,1772272564.0461535,-283.203125,-39.55078125,-137.20703125,-840.8203125,0.0,0,0
1772272564.138289,1772272564.0500472,-387.6953125,-29.296875,-56.640625,-1000.0,0.0,0,0
1772272564.138339,1772272564.0539408,-121.58203125,-6.34765625,90.33203125,-103.02734375,0.0,0,0
1772272564.138391,1772272564.0578346,154.296875,6.8359375,129.39453125,-899.4140625,0.0,0,0
