timestamp,lsl_timestamp,TP9,AF7,AF8,TP10,Right AUX,keypress_A,keypress_B
1772272336.3943381,1772272336.3261945,-1.953125,-29.296875,-208.984375,92.28515625,0.0,0,0
1772272336.39518,1772272336.3300898,-268.5546875,-31.73828125,-299.8046875,-1000.0,0.0,0,0
1772272336.395206,1772272336.3339849,-254.39453125,-29.78515625,-51.7578125,-770.99609375,0.0,0,0
1772272336.395539,1772272336.3378801,38.57421875,-18.06640625,229.98046875,476.5625,0.0,0,0
1772272336.395562,1772272336.3417752,274.90234375,-12.20703125,172.36328125,-821.77734375,0.0,0,0
1772272336.395583,1772272336.3456705,105.46875,-5.37109375,-126.46484375,222.65625,0.0,0,0
1772272336.395602,1772272336.3495655,-253.41796875,-54.19921875,-285.64453125,-1000.0,0.0,0,0
1772272336.395621,1772272336.3534608,-306.640625,-62.98828125,-120.60546875,-931.15234375,0.0,0,0
1772272336.3956401,1772272336.3573558,40.52734375,1.46484375,219.23828125,264.16015625,0.0,0,0
1772272336.395819,1772272336.361251,258.7890625,-5.859375,208.49609375,-810.05859375,0.0,0,0
1772272336.39584,1772272336.3651462,56.15234375,-51.7578125,-126.46484375,288.0859375,0.0,0,0
1772272336.3959308,1772272336.3690414,-246.09375,-57.12890625,-270.01953125,-990.234375,0.0,0,0
1772272336.451901,1772272336.3730485,-262.20703125,-31.73828125,-63.96484375,-993.1640625,0.0,0,0
1772272336.45194,1772272336.3769436,8.7890625,-10.7421875,235.3515625,133.7890625,0.0,0,0
1772272336.451953,1772272336.3808389,212.890625,-17.08984375,233.3984375,-826.66015625,0.0,0,0
1772272336.4519649,1772272336.384734,140.13671875,-23.4375,-76.66015625,436.5234375,0.0,0,0
1772272336.4519758,1772272336.3886292,-176.26953125,-35.15625,-285.64453125,-857.421875,0.0,0,0
1772272336.4519858,1772272336.3925245,-301.26953125,-48.33984375,-138.671875,-1000.0,0.0,0,0
1772272336.451997,1772272336.3964195,-22.4609375,-43.45703125,149.4140625,-56.640625,0.0,0,0
1772272336.4520068,1772272336.4003148,265.625,-17.08984375,223.6328125,-862.3046875,0.0,0,0
1772272336.452018,1772272336.4042099,179.19921875,-33.203125,-22.94921875,596.6796875,0.0,0,0
1772272336.4520278,1772272336.4081051,-173.828125,-69.3359375,-295.41015625,-694.3359375,0.0,0,0
1772272336.452039,1772272336.4120002,-293.45703125,-42.96875,-204.1015625,-1000.0,0.0,0,0
1772272336.4520488,1772272336.4158955,-43.45703125,-11.71875,159.1796875,-135.25390625,0.0,0,0
1772272336.498419,1772272336.419979,203.125,-20.99609375,261.23046875,-903.80859375,0.0,0,0
1772272336.498455,1772272336.4238744,165.0390625,-39.55078125,-11.23046875,742.1875,0.0,0,0
1772272336.498469,1772272336.4277694,-136.71875,-50.78125,-299.8046875,-512.20703125,0.0,0,0
1772272336.498482,1772272336.4316647,-278.80859375,-25.87890625,-230.46875,-1000.0,0.0,0,0
1772272336.498496,1772272336.43556,-58.10546875,14.16015625,94.7265625,-240.72265625,0.0,0,0
1772272336.498527,1772272336.439455,230.46875,22.94921875,252.9296875,-965.33203125,0.0,0,0
1772272336.498561,1772272336.4433503,223.6328125,-22.4609375,31.25,875.9765625,0.0,0,0
1772272336.498576,1772272336.4472456,-102.05078125,-57.12890625,-297.8515625,-327.1484375,0.0,0,0
1772272336.49859,1772272336.4511409,-290.52734375,-49.31640625,-260.7421875,-1000.0,0.0,0,0
1772272336.498603,1772272336.455036,-121.58203125,-36.62109375,54.19921875,-373.53515625,0.0,0,0
1772272336.498629,1772272336.4589312,189.94140625,0.0,227.05078125,921.38671875,0.0,0,0
1772272336.498707,1772272336.4628265,287.59765625,19.04296875,72.75390625,-973.14453125,0.0,0,0
1772272336.542748,1772272336.4668987,-11.71875,-28.80859375,-240.72265625,-89.35546875,0.0,0,0
1772272336.542795,1772272336.470794,-295.41015625,-67.3828125,-284.66796875,-1000.0,0.0,0,0
1772272336.5428128,1772272336.4746892,-175.78125,-38.57421875,-6.8359375,-495.60546875,0.0,0,0
1772272336.542828,1772272336.4785843,133.7890625,-4.8828125,225.5859375,794.43359375,0.0,0,0
1772272336.542855,1772272336.4824796,249.0234375,-14.16015625,126.46484375,-894.53125,0.0,0,0
1772272336.5428789,1772272336.4863749,-12.20703125,-53.22265625,-192.87109375,43.9453125,0.0,0,0
1772272336.5428932,1772272336.4902701,-290.0390625,-58.10546875,-276.85546875,-1000.0,0.0,0,0
1772272336.542908,1772272336.4941654,-198.73046875,-28.80859375,-29.296875,-703.125,0.0,0,0
1772272336.542922,1772272336.4980607,83.0078125,-27.83203125,212.890625,567.3828125,0.0,0,0
1772272336.542936,1772272336.5019557,234.375,-13.18359375,131.8359375,-835.9375,0.0,0,0
1772272336.54295,1772272336.505851,19.04296875,-26.85546875,-182.6171875,136.71875,0.0,0,0
1772272336.542964,1772272336.5097463,-283.69140625,-76.171875,-298.828125,-1000.0,0.0,0,0
1772272336.5878642,1772272336.5138066,-290.0390625,-56.640625,-73.73046875,-826.171875,0.0,0,0
1772272336.587905,1772272336.5177019,59.5703125,-5.859375,255.37109375,406.25,0.0,0,0
1772272336.587925,1772272336.521597,288.0859375,-7.32421875,204.1015625,-816.40625,0.0,0,0
1772272336.5879428,1772272336.5254922,90.8203125,-34.1796875,-139.16015625,248.046875,0.0,0,0
1772272336.58797,1772272336.5293875,-207.51953125,-42.96875,-247.55859375,-1000.0,0.0,0,0
1772272336.587987,1772272336.5332828,-254.8828125,-41.50390625,-67.3828125,-972.65625,0.0,0,0
1772272336.588004,1772272336.537178,43.45703125,-30.2734375,216.30859375,187.01171875,0.0,0,0
1772272336.588021,1772272336.5410733,274.4140625,-12.6953125,215.33203125,-815.91796875,0.0,0,0
1772272336.588037,1772272336.5449686,114.2578125,-23.4375,-94.7265625,335.44921875,0.0,0,0
1772272336.588054,1772272336.548864,-189.94140625,-41.015625,-264.6484375,-945.3125,0.0,0,0
1772272336.5880709,1772272336.5527592,-281.73828125,-27.34375,-128.90625,-1000.0,0.0,0,0
1772272336.588087,1772272336.5566545,-22.94921875,-7.32421875,170.41015625,-15.13671875,0.0,0,0
1772272336.648833,1772272336.5607913,252.9296875,3.90625,240.234375,-843.75,0.0,0,0
1772272336.648875,1772272336.5646865,172.36328125,-20.01953125,-35.64453125,509.765625,0.0,0,0
1772272336.6489012,1772272336.5685818,-163.57421875,-45.41015625,-295.41015625,-786.1328125,0.0,0,0
1772272336.648949,1772272336.572477,-294.43359375,-36.62109375,-187.01171875,-1000.0,0.0,0,0
1772272336.6489851,1772272336.5763724,-46.875,-39.55078125,142.08984375,-106.93359375,0.0,0,0
1772272336.64901,1772272336.5802677,221.19140625,-33.69140625,226.5625,-879.39453125,0.0,0,0
1772272336.649035,1772272336.584163,150.390625,-26.85546875,-25.87890625,652.34375,0.0,0,0
1772272336.649058,1772272336.5880585,-180.6640625,-26.3671875,-322.75390625,-631.34765625,0.0,0,0
1772272336.6490822,1772272336.5919538,-299.31640625,-11.23046875,-224.609375,-1000.0,0.0,0,0
1772272336.6491048,1772272336.595849,-75.68359375,-4.39453125,128.90625,-193.359375,0.0,0,0
1772272336.649156,1772272336.5997443,203.61328125,1.46484375,228.515625,-922.8515625,0.0,0,0
1772272336.649211,1772272336.6036396,189.453125,-23.4375,18.5546875,779.78515625,0.0,0,0
1772272336.678109,1772272336.6076858,-130.37109375,-45.8984375,-268.06640625,-459.9609375,0.0,0,0
1772272336.67819,1772272336.611581,-336.9140625,-44.43359375,-242.1875,-1000.0,0.0,0,0
1772272336.67822,1772272336.6154766,-145.99609375,-26.85546875,55.17578125,-335.9375,0.0,0,0
1772272336.678245,1772272336.619372,174.31640625,-9.765625,198.73046875,-992.1875,0.0,0,0
1772272336.678275,1772272336.6232672,186.03515625,-15.13671875,9.765625,850.09765625,0.0,0,0
1772272336.6783,1772272336.6271625,-82.51953125,-15.625,-270.01953125,-376.953125,0.0,0,0
1772272336.678324,1772272336.6310577,-291.9921875,-36.62109375,-266.11328125,-1000.0,0.0,0,0
1772272336.678348,1772272336.6349533,-184.08203125,-40.52734375,6.8359375,-461.9140625,0.0,0,0
1772272336.6783712,1772272336.6388485,125.0,1.46484375,230.46875,838.37890625,0.0,0,0
1772272336.678394,1772272336.6427438,245.60546875,-16.6015625,127.44140625,-932.12890625,0.0,0,0
1772272336.678418,1772272336.646639,6.8359375,-63.4765625,-229.4921875,-38.0859375,0.0,0,0
1772272336.6784441,1772272336.6505346,-292.48046875,-47.36328125,-305.6640625,-1000.0,0.0,0,0
1772272336.723184,1772272336.6545644,-182.12890625,-1.46484375,0.48828125,-574.70703125,0.0,0,0
1772272336.7232902,1772272336.6584597,147.94921875,22.94921875,239.2578125,712.890625,0.0,0,0
1772272336.72332,1772272336.662355,261.23046875,-5.859375,134.27734375,-861.81640625,0.0,0,0
1772272336.723788,1772272336.6662505,37.109375,-55.6640625,-164.55078125,115.234375,0.0,0,0
1772272336.723815,1772272336.6701458,-250.0,-51.7578125,-258.30078125,-1000.0,0.0,0,0
1772272336.7238421,1772272336.674041,-215.8203125,-23.92578125,-42.48046875,-775.87890625,0.0,0,0
1772272336.723872,1772272336.6779366,102.05078125,-20.99609375,212.890625,483.3984375,0.0,0,0
1772272336.723896,1772272336.6818318,258.7890625,-14.16015625,144.04296875,-822.75390625,0.0,0,0
1772272336.7239199,1772272336.6857271,57.6171875,-8.30078125,-152.83203125,179.19921875,0.0,0,0
1772272336.723947,1772272336.6896226,-237.3046875,-27.83203125,-275.390625,-1000.0,0.0,0,0
1772272336.7239711,1772272336.693518,-259.27734375,-38.0859375,-97.16796875,-928.22265625,0.0,0,0
1772272336.723995,1772272336.6974132,25.390625,-10.7421875,211.9140625,233.88671875,0.0,0,0
1772272336.769235,1772272336.7014325,258.7890625,3.90625,210.9375,-817.3828125,0.0,0,0
1772272336.769331,1772272336.7053277,112.79296875,-40.0390625,-95.703125,321.77734375,0.0,0,0
1772272336.769373,1772272336.709223,-213.8671875,-63.4765625,-251.953125,-979.4921875,0.0,0,0
1772272336.769403,1772272336.7131186,-286.62109375,-20.01953125,-118.65234375,-1000.0,0.0,0,0
1772272336.769427,1772272336.7170138,3.41796875,23.4375,188.4765625,113.28125,0.0,0,0
1772272336.769454,1772272336.7209094,225.5859375,16.11328125,226.5625,-830.56640625,0.0,0,0
1772272336.7694788,1772272336.7248046,95.21484375,11.71875,-55.17578125,436.03515625,0.0,0,0
1772272336.7695029,1772272336.7287,-200.1953125,-13.671875,-243.65234375,-855.46875,0.0,0,0
1772272336.7695282,1772272336.7325954,-308.10546875,-48.828125,-156.25,-1000.0,0.0,0,0
1772272336.7695549,1772272336.7364907,-34.66796875,-24.4140625,152.83203125,-43.45703125,0.0,0,0
1772272336.769579,1772272336.740386,250.48828125,0.9765625,240.72265625,-865.72265625,0.0,0,0
1772272336.7696111,1772272336.7442815,167.96875,-29.296875,-4.8828125,609.375,0.0,0,0
1772272336.828001,1772272336.7482884,-158.69140625,-59.5703125,-265.625,-668.9453125,0.0,0,0
1772272336.828095,1772272336.752184,-261.71875,-40.0390625,-185.546875,-1000.0,0.0,0,0
1772272336.8281221,1772272336.7560792,-42.96875,-23.4375,117.1875,-167.48046875,0.0,0,0
1772272336.828146,1772272336.7599747,199.21875,1.953125,221.6796875,-911.1328125,0.0,0,0
1772272336.8281898,1772272336.76387,193.359375,0.9765625,-0.48828125,737.79296875,0.0,0,0
1772272336.828334,1772272336.7677655,-96.6796875,-34.66796875,-271.97265625,-508.30078125,0.0,0,0
1772272336.8284092,1772272336.7716608,-286.1328125,-55.6640625,-229.00390625,-1000.0,0.0,0,0
1772272336.828473,1772272336.7755563,-81.0546875,-32.71484375,79.58984375,-269.53125,0.0,0,0
1772272336.828536,1772272336.7794516,201.171875,-8.30078125,227.5390625,-991.2109375,0.0,0,0
1772272336.828586,1772272336.783347,223.6328125,-12.20703125,53.7109375,923.33984375,0.0,0,0
1772272336.8286111,1772272336.7872424,-52.24609375,-34.66796875,-259.765625,-244.62890625,0.0,0,0
1772272336.828635,1772272336.7911377,-303.7109375,-37.59765625,-267.578125,-1000.0,0.0,0,0
1772272336.873228,1772272336.7952201,-148.4375,-12.6953125,49.8046875,-390.625,0.0,0,0
1772272336.873324,1772272336.7991154,158.203125,-12.6953125,224.609375,916.9921875,0.0,0,0
1772272336.8733509,1772272336.803011,216.796875,-32.71484375,87.890625,-979.98046875,0.0,0,0
1772272336.873377,1772272336.8069062,-48.33984375,-54.6875,-235.83984375,-105.46875,0.0,0,0
1772272336.873408,1772272336.8108017,-287.109375,-58.10546875,-261.71875,-1000.0,0.0,0,0
1772272336.873434,1772272336.8146973,-162.59765625,-9.27734375,46.875,-463.8671875,0.0,0,0
1772272336.873458,1772272336.8185925,142.08984375,10.7421875,232.421875,829.58984375,0.0,0,0
1772272336.873483,1772272336.822488,243.1640625,-21.484375,119.140625,-901.3671875,0.0,0,0
1772272336.8735108,1772272336.8263834,0.9765625,-39.0625,-185.546875,45.41015625,0.0,0,0
1772272336.873536,1772272336.8302789,-274.4140625,-45.41015625,-245.1171875,-1000.0,0.0,0,0
1772272336.873559,1772272336.8341744,-204.58984375,-28.80859375,-5.859375,-673.828125,0.0,0,0
1772272336.873583,1772272336.8380697,110.3515625,-9.765625,205.56640625,598.6328125,0.0,0,0
1772272336.949259,1772272336.842311,258.7890625,0.9765625,152.83203125,-838.37890625,0.0,0,0
1772272336.9493601,1772272336.8462064,36.1328125,-12.20703125,-131.34765625,163.0859375,0.0,0,0
1772272336.9494069,1772272336.850102,-256.8359375,-48.33984375,-255.859375,-1000.0,0.0,0,0
1772272336.9494321,1772272336.8539975,-229.98046875,-45.8984375,-40.0390625,-810.546875,0.0,0,0
1772272336.949461,1772272336.857893,90.33203125,-7.32421875,241.69921875,433.59375,0.0,0,0
1772272336.9494872,1772272336.8617885,260.7421875,-0.9765625,190.91796875,-818.84765625,0.0,0,0
1772272336.949512,1772272336.8656838,41.015625,-49.8046875,-139.16015625,230.95703125,0.0,0,0
1772272336.949537,1772272336.8695793,-250.48828125,-55.17578125,-279.296875,-1000.0,0.0,0,0
1772272336.949562,1772272336.8734748,-266.11328125,-44.43359375,-102.5390625,-982.421875,0.0,0,0
1772272336.9495869,1772272336.8773704,20.99609375,-33.203125,222.16796875,161.62109375,0.0,0,0
1772272336.9496121,1772272336.8812659,235.3515625,-6.8359375,239.2578125,-819.82421875,0.0,0,0
1772272336.949636,1772272336.8851612,103.515625,-18.06640625,-83.0078125,374.51171875,0.0,0,0
1772272336.963337,1772272336.8892262,-192.3828125,-49.31640625,-265.13671875,-928.22265625,0.0,0,0
1772272336.963439,1772272336.8931217,-251.46484375,-45.41015625,-121.09375,-1000.0,0.0,0,0
1772272336.963479,1772272336.8970172,25.87890625,0.0,183.10546875,32.2265625,0.0,0,0
1772272336.963508,1772272336.9009128,268.06640625,5.37109375,237.3046875,-844.7265625,0.0,0,0
1772272336.9635332,1772272336.9048083,159.1796875,-38.57421875,-38.0859375,510.25390625,0.0,0,0
1772272336.963558,1772272336.9087038,-172.8515625,-59.5703125,-267.578125,-779.78515625,0.0,0,0
1772272336.9635808,1772272336.9125993,-301.26953125,-36.62109375,-176.7578125,-1000.0,0.0,0,0
1772272336.963605,1772272336.9164946,-62.5,-15.625,133.30078125,-116.2109375,0.0,0,0
1772272336.96363,1772272336.9203901,203.61328125,-7.32421875,227.05078125,-885.7421875,0.0,0,0
1772272336.963655,1772272336.9242857,165.0390625,-3.41796875,-15.13671875,667.96875,0.0,0,0
1772272336.963679,1772272336.9281812,-142.578125,-21.97265625,-279.296875,-594.23828125,0.0,0,0
1772272336.9637032,1772272336.9320767,-310.546875,-32.71484375,-208.49609375,-1000.0,0.0,0,0
1772272337.022322,1772272336.9361243,-139.16015625,-24.4140625,85.44921875,-226.5625,0.0,0,0
1772272337.0224462,1772272336.9400198,132.32421875,-10.7421875,196.77734375,-948.2421875,0.0,0,0
1772272337.022474,1772272336.9439154,193.359375,-8.7890625,35.64453125,825.1953125,0.0,0,0
1772272337.022499,1772272336.947811,-104.98046875,-52.734375,-251.46484375,-394.53125,0.0,0,0
1772272337.0225248,1772272336.9517064,-348.6328125,-74.21875,-246.58203125,-1000.0,0.0,0,0
1772272337.02255,1772272336.955602,-179.6875,-26.3671875,76.171875,-283.69140625,0.0,0,0
1772272337.0225742,1772272336.9594975,128.41796875,-0.9765625,226.5625,999.0234375,0.0,0,0
1772272337.022599,1772272336.963393,185.546875,-29.296875,41.015625,952.63671875,0.0,0,0
1772272337.022629,1772272336.9672885,-88.8671875,-48.33984375,-268.06640625,-203.125,0.0,0,0
1772272337.0226529,1772272336.971184,-330.078125,-40.52734375,-243.65234375,-1000.0,0.0,0,0
1772272337.022677,1772272336.9750798,-214.35546875,-14.16015625,49.31640625,-439.453125,0.0,0,0
1772272337.022701,1772272336.9789753,102.05078125,8.7890625,205.078125,855.95703125,0.0,0,0
1772272337.0686982,1772272336.9831038,180.6640625,11.71875,92.28515625,-933.10546875,0.0,0,0
1772272337.0688782,1772272336.9869993,-91.30859375,-34.66796875,-216.796875,-27.34375,0.0,0,0
1772272337.068911,1772272336.990895,-333.984375,-58.59375,-276.3671875,-1000.0,0.0,0,0
1772272337.068937,1772272336.9947906,-252.9296875,-15.625,-5.37109375,-581.0546875,0.0,0,0
1772272337.068962,1772272336.998686,62.5,-4.39453125,219.23828125,710.44921875,0.0,0,0
1772272337.0689862,1772272337.0025816,172.36328125,-18.5546875,136.71875,-865.234375,0.0,0,0
1772272337.06901,1772272337.006477,-49.8046875,-50.78125,-174.8046875,93.26171875,0.0,0,0
1772272337.069173,1772272337.0103729,-299.8046875,-65.4296875,-267.578125,-1000.0,0.0,0,0
1772272337.0691998,1772272337.0142684,-265.13671875,-38.0859375,-44.43359375,-766.11328125,0.0,0,0
1772272337.069228,1772272337.018164,65.4296875,-9.27734375,213.37890625,488.28125,0.0,0,0
1772272337.069252,1772272337.0220594,243.1640625,-3.41796875,153.80859375,-826.171875,0.0,0,0
1772272337.0692759,1772272337.025955,28.3203125,-42.48046875,-179.19921875,176.26953125,0.0,0,0
1772272337.127969,1772272337.030149,-275.87890625,-57.6171875,-289.0625,-1000.0,0.0,0,0
1772272337.128021,1772272337.0340445,-292.48046875,-30.76171875,-77.63671875,-875.9765625,0.0,0,0
1772272337.128043,1772272337.0379403,6.8359375,-14.6484375,222.16796875,324.70703125,0.0,0,0
1772272337.128062,1772272337.0418358,204.58984375,-18.5546875,185.546875,-818.359375,0.0,0,0
1772272337.1280792,1772272337.0457313,38.0859375,-45.8984375,-114.2578125,300.78125,0.0,0,0
1772272337.128096,1772272337.049627,-224.609375,-48.828125,-236.328125,-974.609375,0.0,0,0
1772272337.1281128,1772272337.0535226,-297.8515625,-34.1796875,-134.27734375,-1000.0,0.0,0,0
1772272337.128129,1772272337.0574183,-48.33984375,-6.34765625,169.921875,55.17578125,0.0,0,0
1772272337.128145,1772272337.0613139,200.1953125,-14.6484375,212.890625,-826.66015625,0.0,0,0
1772272337.128194,1772272337.0652094,80.078125,-61.5234375,-86.9140625,415.0390625,0.0,0,0
1772272337.1282141,1772272337.0691051,-233.88671875,-62.98828125,-261.23046875,-885.7421875,0.0,0,0
1772272337.128234,1772272337.0730007,-325.68359375,-48.828125,-145.01953125,-1000.0,0.0,0,0
1772272337.142869,1772272337.0770202,-33.69140625,-16.11328125,186.5234375,-28.3203125,0.0,0,0
1772272337.14291,1772272337.0809157,244.62890625,-3.41796875,238.28125,-858.3984375,0.0,0,0
1772272337.142925,1772272337.0848112,179.19921875,-41.50390625,-48.33984375,571.2890625,0.0,0,0
1772272337.1429389,1772272337.088707,-93.75,-51.7578125,-250.0,-711.42578125,0.0,0,0
1772272337.142953,1772272337.0926025,-224.12109375,-26.85546875,-158.69140625,-1000.0,0.0,0,0
1772272337.142965,1772272337.0964983,-5.37109375,0.48828125,128.41796875,-137.6953125,0.0,0,0
1772272337.142978,1772272337.1003938,266.6015625,7.8125,210.9375,-895.01953125,0.0,0,0
1772272337.142991,1772272337.1042895,217.7734375,-11.23046875,-8.7890625,697.75390625,0.0,0,0
1772272337.143004,1772272337.108185,-93.75,-46.875,-261.23046875,-560.546875,0.0,0,0
1772272337.1430159,1772272337.1120808,-263.671875,-74.70703125,-200.68359375,-1000.0,0.0,0,0
1772272337.143028,1772272337.1159763,-55.6640625,-22.4609375,98.14453125,-250.48828125,0.0,0,0
1772272337.1430411,1772272337.119872,219.23828125,6.34765625,211.42578125,-971.19140625,0.0,0,0
1772272337.203578,1772272337.1238768,208.0078125,-23.92578125,22.94921875,875.48828125,0.0,0,0
1772272337.203625,1772272337.1277723,-43.45703125,-51.7578125,-242.67578125,-314.94140625,0.0,0,0
1772272337.2036428,1772272337.131668,-232.91015625,-74.21875,-222.65625,-1000.0,0.0,0,0
1772272337.2036579,1772272337.1355639,-86.42578125,-15.625,65.4296875,-339.84375,0.0,0,0
1772272337.2036731,1772272337.1394594,211.42578125,27.34375,230.95703125,954.58984375,0.0,0,0
1772272337.203687,1772272337.1433551,259.27734375,-12.6953125,76.66015625,995.60546875,0.0,0,0
1772272337.203702,1772272337.1472507,-33.203125,-47.8515625,-254.39453125,-134.765625,0.0,0,0
1772272337.203716,1772272337.1511464,-295.41015625,-70.3125,-295.41015625,-1000.0,0.0,0,0
1772272337.2037299,1772272337.155042,-179.19921875,-35.15625,-7.8125,-514.6484375,0.0,0,0
1772272337.203744,1772272337.1589377,139.16015625,15.13671875,225.5859375,785.15625,0.0,0,0
1772272337.203758,1772272337.1628332,240.72265625,-4.8828125,116.69921875,-901.3671875,0.0,0,0
1772272337.2037718,1772272337.166729,-0.48828125,-38.0859375,-196.77734375,11.23046875,0.0,0,0
1772272337.2480042,1772272337.1708033,-237.3046875,-41.015625,-258.30078125,-1000.0,0.0,0,0
1772272337.248058,1772272337.174699,-166.50390625,-23.92578125,-26.3671875,-668.9453125,0.0,0,0
1772272337.2480798,1772272337.1785948,127.44140625,9.765625,208.49609375,605.95703125,0.0,0,0
1772272337.248099,1772272337.1824903,274.4140625,-0.48828125,141.11328125,-843.75,0.0,0,0
1772272337.248116,1772272337.186386,58.59375,-55.6640625,-159.1796875,121.58203125,0.0,0,0
1772272337.2481332,1772272337.1902819,-220.21484375,-52.734375,-242.1875,-1000.0,0.0,0,0
1772272337.248149,1772272337.1941774,-206.54296875,-17.08984375,-68.359375,-836.9140625,0.0,0,0
1772272337.2481658,1772272337.1980731,73.73046875,-1.46484375,183.59375,373.53515625,0.0,0,0
1772272337.248182,1772272337.201969,260.7421875,-10.7421875,148.92578125,-819.3359375,0.0,0,0
1772272337.248199,1772272337.2058644,80.078125,-46.38671875,-135.7421875,234.375,0.0,0,0
1772272337.248215,1772272337.2097602,-227.5390625,-60.546875,-273.4375,-1000.0,0.0,0,0
1772272337.24823,1772272337.213656,-267.08984375,-26.85546875,-114.74609375,-951.171875,0.0,0,0
1772272337.29295,1772272337.2177193,23.92578125,-15.625,207.03125,221.19140625,0.0,0,0
1772272337.2929862,1772272337.221615,282.71484375,-11.71875,190.4296875,-816.40625,0.0,0,0
1772272337.2930071,1772272337.2255108,139.6484375,-34.1796875,-127.44140625,334.47265625,0.0,0,0
1772272337.2930272,1772272337.2294064,-174.31640625,-68.359375,-256.34765625,-949.70703125,0.0,0,0
1772272337.293047,1772272337.233302,-250.48828125,-49.31640625,-109.375,-1000.0,0.0,0,0
1772272337.293066,1772272337.2371979,20.01953125,4.39453125,172.36328125,18.06640625,0.0,0,0
1772272337.293086,1772272337.2410936,249.0234375,16.6015625,192.87109375,-839.35546875,0.0,0,0
1772272337.293107,1772272337.2449892,119.62890625,-34.1796875,-93.75,489.2578125,0.0,0,0
1772272337.2931259,1772272337.248885,-182.12890625,-64.94140625,-280.76171875,-805.6640625,0.0,0,0
1772272337.293173,1772272337.2527807,-311.5234375,-58.59375,-163.0859375,-1000.0,0.0,0,0
1772272337.29321,1772272337.2566764,-97.65625,-34.1796875,128.90625,-85.44921875,0.0,0,0
1772272337.293231,1772272337.2605722,183.10546875,-21.97265625,208.984375,-886.23046875,0.0,0,0
1772272337.339108,1772272337.264625,146.484375,-27.34375,-5.37109375,679.19921875,0.0,0,0
1772272337.339149,1772272337.2685208,-146.97265625,-38.0859375,-280.2734375,-585.9375,0.0,0,0
1772272337.33918,1772272337.2724166,-307.12890625,-31.25,-205.56640625,-1000.0,0.0,0,0
1772272337.3392088,1772272337.2763124,-96.6796875,-20.99609375,103.515625,-182.12890625,0.0,0,0
1772272337.339239,1772272337.280208,202.63671875,-6.34765625,206.0546875,-934.5703125,0.0,0,0
1772272337.3393211,1772272337.2841039,171.875,-6.34765625,27.83203125,821.2890625,0.0,0,0
1772272337.339398,1772272337.2879996,-140.13671875,-40.0390625,-268.06640625,-396.484375,0.0,0,0
1772272337.339435,1772272337.2918954,-338.8671875,-48.33984375,-249.51171875,-1000.0,0.0,0,0
1772272337.339467,1772272337.295791,-184.08203125,-27.83203125,52.734375,-306.15234375,0.0,0,0
1772272337.3394969,1772272337.2996867,124.0234375,-4.8828125,205.078125,991.2109375,0.0,0,0
1772272337.3395278,1772272337.3035824,153.80859375,-20.99609375,35.64453125,927.734375,0.0,0,0
1772272337.339558,1772272337.3074782,-162.59765625,-49.31640625,-265.13671875,-248.046875,0.0,0,0
1772272337.38345,1772272337.3115199,-366.69921875,-41.50390625,-227.05078125,-1000.0,0.0,0,0
1772272337.3835258,1772272337.3154156,-226.07421875,-3.41796875,33.69140625,-433.59375,0.0,0,0
1772272337.383553,1772272337.3193114,67.87109375,14.6484375,182.12890625,872.0703125,0.0,0,0
1772272337.383638,1772272337.3232071,155.2734375,-15.625,85.44921875,-960.44921875,0.0,0,0
1772272337.383703,1772272337.327103,-130.37109375,-42.96875,-233.88671875,-86.9140625,0.0,0,0
1772272337.383801,1772272337.3309987,-370.1171875,-31.25,-268.5546875,-1000.0,0.0,0,0
1772272337.3840609,1772272337.3348944,-243.1640625,-18.5546875,-10.25390625,-564.453125,0.0,0,0
1772272337.384151,1772272337.3387902,31.73828125,-25.390625,183.10546875,718.75,0.0,0,0
1772272337.384214,1772272337.342686,120.1171875,-16.6015625,104.98046875,-872.55859375,0.0,0,0
1772272337.384255,1772272337.3465817,-93.75,-24.4140625,-173.33984375,70.80078125,0.0,0,0
1772272337.3843782,1772272337.3504775,-307.6171875,-54.6875,-268.06640625,-1000.0,0.0,0,0
1772272337.3845272,1772272337.3543732,-234.86328125,-31.25,-42.96875,-736.81640625,0.0,0,0
1772272337.428353,1772272337.3584044,45.41015625,8.30078125,216.796875,516.6015625,0.0,0,0
1772272337.428422,1772272337.3623002,187.98828125,14.6484375,170.8984375,-827.63671875,0.0,0,0
1772272337.42845,1772272337.366196,14.16015625,-18.06640625,-118.65234375,213.8671875,0.0,0,0
1772272337.428475,1772272337.3700917,-260.7421875,-47.36328125,-254.8828125,-1000.0,0.0,0,0
1772272337.428499,1772272337.3739874,-290.52734375,-32.2265625,-75.1953125,-887.6953125,0.0,0,0
1772272337.428523,1772272337.3778834,10.25390625,-0.48828125,228.02734375,337.40234375,0.0,0,0
1772272337.4286342,1772272337.3817792,216.796875,-10.25390625,165.52734375,-812.01171875,0.0,0,0
1772272337.4287202,1772272337.385675,8.30078125,-63.4765625,-141.6015625,263.18359375,0.0,0,0
1772272337.4287481,1772272337.3895707,-273.92578125,-71.2890625,-240.234375,-1000.0,0.0,0,0
1772272337.4287722,1772272337.3934665,-266.6015625,-34.66796875,-92.28515625,-1000.0,0.0,0,0
1772272337.4287958,1772272337.3973622,20.99609375,-18.5546875,166.9921875,90.8203125,0.0,0,0
1772272337.428819,1772272337.401258,229.00390625,-8.7890625,191.40625,-831.54296875,0.0,0,0
1772272337.473504,1772272337.4052773,108.88671875,-5.37109375,-53.7109375,434.08203125,0.0,1,0
1772272337.473556,1772272337.409173,-204.1015625,-31.25,-239.2578125,-867.67578125,0.0,0,0
1772272337.473567,1772272337.4130688,-308.59375,-26.85546875,-151.85546875,-1000.0,0.0,0,0
1772272337.4735758,1772272337.4169645,-28.3203125,-10.7421875,152.34375,-18.06640625,0.0,0,0
1772272337.4735842,1772272337.4208605,234.375,-18.5546875,207.51953125,-855.95703125,0.0,0,0
1772272337.473593,1772272337.4247563,150.87890625,-25.390625,-26.85546875,564.453125,0.0,0,0
1772272337.473602,1772272337.428652,-141.6015625,-70.80078125,-264.16015625,-713.8671875,0.0,0,0
1772272337.47361,1772272337.4325478,-272.94921875,-92.28515625,-216.30859375,-1000.0,0.0,0,0
1772272337.4736571,1772272337.4364436,-55.17578125,-43.45703125,104.00390625,-160.64453125,0.0,0,0
1772272337.473679,1772272337.4403393,252.44140625,-18.06640625,216.30859375,-904.78515625,0.0,0,0
1772272337.473788,1772272337.4442353,254.8828125,-30.2734375,-4.39453125,714.35546875,0.0,0,0
1772272337.473835,1772272337.448131,-64.94140625,-57.12890625,-291.015625,-548.33984375,0.0,0,0
1772272337.53136,1772272337.4521399,-220.21484375,-61.03515625,-227.5390625,-1000.0,0.0,0,0
1772272337.531393,1772272337.4560356,-3.90625,-22.4609375,96.6796875,-245.1171875,0.0,0,0
1772272337.531404,1772272337.4599314,259.27734375,-1.953125,206.0546875,-974.609375,0.0,0,0
1772272337.531413,1772272337.4638271,292.96875,-24.90234375,30.2734375,889.6484375,0.0,0,0
1772272337.531421,1772272337.4677231,23.92578125,-45.8984375,-240.72265625,-289.0625,0.0,0,0
1772272337.53143,1772272337.471619,-210.9375,-41.50390625,-249.51171875,-1000.0,0.0,0,0
1772272337.531438,1772272337.4755147,-64.94140625,-22.4609375,21.484375,-402.83203125,0.0,0,0
1772272337.531446,1772272337.4794104,240.72265625,-25.87890625,186.5234375,911.62109375,0.0,0,0
1772272337.531455,1772272337.4833062,288.0859375,-47.8515625,72.265625,999.51171875,0.0,0,0
1772272337.531463,1772272337.4872022,-2.44140625,-49.31640625,-225.5859375,-146.484375,0.0,0,0
1772272337.531472,1772272337.491098,-241.69921875,-54.19921875,-271.97265625,-1000.0,0.0,0,0
1772272337.53148,1772272337.4949937,-127.44140625,-36.62109375,3.90625,-501.46484375,0.0,0,0
1772272337.576708,1772272337.4989913,192.3828125,-3.41796875,218.26171875,801.7578125,0.0,0,0
1772272337.57674,1772272337.502887,282.71484375,-9.765625,120.1171875,-914.55078125,0.0,0,0
1772272337.576751,1772272337.5067828,30.76171875,-38.0859375,-204.58984375,-13.671875,0.0,0,0
1772272337.576761,1772272337.5106788,-198.2421875,-41.50390625,-256.34765625,-1000.0,0.0,0,0
1772272337.5767722,1772272337.5145745,-133.30078125,-6.34765625,-9.27734375,-659.1796875,0.0,0,0
1772272337.576782,1772272337.5184703,147.4609375,16.11328125,223.14453125,619.140625,0.0,0,0
1772272337.576792,1772272337.522366,280.2734375,0.9765625,147.4609375,-849.609375,0.0,0,0
1772272337.576803,1772272337.526262,53.22265625,-42.96875,-186.03515625,93.26171875,0.0,0,0
1772272337.576812,1772272337.5301578,-255.37109375,-59.08203125,-281.73828125,-1000.0,0.0,0,0
1772272337.576822,1772272337.5340536,-245.1171875,-46.875,-62.98828125,-794.43359375,0.0,0,0
1772272337.5768309,1772272337.5379496,77.1484375,-17.08984375,189.453125,432.6171875,0.0,0,0
1772272337.5768409,1772272337.5418453,242.1875,-7.32421875,153.80859375,-821.2890625,0.0,0,0
1772272337.623831,1772272337.5459163,43.45703125,-28.80859375,-126.46484375,234.86328125,0.0,0,0
1772272337.623883,1772272337.549812,-223.14453125,-30.76171875,-252.44140625,-1000.0,0.0,0,0
1772272337.623905,1772272337.553708,-254.39453125,-15.625,-71.2890625,-935.546875,0.0,0,0
1772272337.6239228,1772272337.5576038,24.4140625,-3.41796875,221.19140625,249.0234375,0.0,0,0
1772272337.6239412,1772272337.5614998,234.375,-16.6015625,197.265625,-822.265625,0.0,0,0
1772272337.624005,1772272337.5653956,70.80078125,-34.1796875,-65.91796875,359.86328125,0.0,0,0
1772272337.624046,1772272337.5692914,-236.81640625,-66.40625,-246.09375,-936.03515625,0.0,0,0
1772272337.6241012,1772272337.5731874,-315.4296875,-66.40625,-136.23046875,-1000.0,0.0,0,0
1772272337.6241212,1772272337.577083,-10.7421875,-0.9765625,188.4765625,69.82421875,0.0,0,0
1772272337.6241941,1772272337.580979,243.1640625,3.41796875,194.3359375,-833.984375,0.0,0,0
1772272337.624219,1772272337.5848749,108.3984375,-42.96875,-102.5390625,458.49609375,0.0,0,0
1772272337.624285,1772272337.5887709,-190.91796875,-47.8515625,-263.671875,-835.44921875,0.0,0,0
1772272337.667732,1772272337.592831,-300.78125,-49.8046875,-129.8828125,-1000.0,0.0,0,0
1772272337.667763,1772272337.5967267,-50.78125,-21.484375,166.9921875,-64.94140625,0.0,0,0
1772272337.667774,1772272337.6006227,218.75,5.859375,217.28515625,-882.32421875,0.0,0,0
1772272337.667784,1772272337.6045184,141.11328125,-22.94921875,-14.16015625,670.8984375,0.0,0,0
1772272337.667795,1772272337.6084144,-170.41015625,-48.33984375,-263.18359375,-587.890625,0.0,0,0
1772272337.667805,1772272337.6123102,-315.4296875,-36.1328125,-203.125,-1000.0,0.0,0,0
1772272337.6678138,1772272337.6162062,-94.23828125,-29.296875,87.890625,-203.61328125,0.0,0,0
1772272337.667824,1772272337.620102,161.62109375,-23.4375,187.01171875,-929.6875,0.0,0,0
1772272337.667834,1772272337.623998,125.9765625,-39.55078125,4.39453125,779.78515625,0.0,0,0
1772272337.667844,1772272337.6278937,-195.80078125,-66.89453125,-259.765625,-463.8671875,0.0,0,0
1772272337.667865,1772272337.6317897,-346.19140625,-52.734375,-225.5859375,-1000.0,0.0,0,0
1772272337.6678889,1772272337.6356854,-119.140625,-5.859375,63.96484375,-287.109375,0.0,0,0
1772272337.727764,1772272337.639817,171.875,15.13671875,199.70703125,994.62890625,0.0,0,0
1772272337.727795,1772272337.6437128,191.40625,-24.4140625,50.78125,945.80078125,0.0,0,0
1772272337.7278059,1772272337.6476088,-116.69921875,-61.5234375,-248.53515625,-212.890625,0.0,0,0
1772272337.727815,1772272337.6515048,-354.98046875,-75.1953125,-272.94921875,-1000.0,0.0,0,0
1772272337.727825,1772272337.6554005,-204.58984375,-28.80859375,28.3203125,-385.7421875,0.0,0,0
1772272337.727833,1772272337.6592965,83.984375,-3.41796875,193.84765625,909.1796875,0.0,0,0
1772272337.727842,1772272337.6631925,170.8984375,-36.1328125,72.75390625,-961.9140625,0.0,0,0
1772272337.72785,1772272337.6670883,-60.05859375,-60.05859375,-201.66015625,-63.4765625,0.0,0,0
1772272337.7278578,1772272337.6709843,-322.265625,-60.05859375,-259.765625,-1000.0,0.0,0,0
1772272337.727867,1772272337.6748803,-238.76953125,-15.13671875,5.859375,-548.828125,0.0,0,0
1772272337.727875,1772272337.678776,57.6171875,20.5078125,203.125,744.62890625,0.0,0,0
1772272337.727883,1772272337.682672,159.1796875,3.41796875,113.28125,-881.8359375,0.0,0,0
1772272337.7584288,1772272337.6867096,-80.56640625,-39.55078125,-167.48046875,62.5,0.0,0,0
1772272337.758464,1772272337.6906056,-340.33203125,-64.94140625,-270.5078125,-1000.0,0.0,0,0
1772272337.758475,1772272337.6945014,-259.27734375,-40.52734375,-38.0859375,-661.62109375,0.0,0,0
1772272337.7585258,1772272337.6983974,60.546875,-5.859375,244.140625,619.62890625,0.0,0,0
1772272337.7585359,1772272337.7022934,228.515625,-20.01953125,158.69140625,-842.7734375,0.0,0,0
1772272337.7585459,1772272337.7061894,37.109375,-43.45703125,-159.1796875,165.52734375,0.0,0,0
1772272337.758555,1772272337.7100852,-250.9765625,-39.55078125,-272.4609375,-1000.0,0.0,0,0
1772272337.758564,1772272337.7139812,-233.3984375,-12.6953125,-89.84375,-868.1640625,0.0,0,0
1772272337.758572,1772272337.7178771,85.9375,24.90234375,209.9609375,339.35546875,0.0,0,0
1772272337.758581,1772272337.7217731,273.92578125,16.6015625,184.5703125,-816.89453125,0.0,0,0
1772272337.75859,1772272337.725669,108.88671875,-20.99609375,-125.48828125,263.671875,0.0,0,0
1772272337.7585988,1772272337.729565,-208.984375,-50.29296875,-253.90625,-1000.0,0.0,0,0
1772272337.8026931,1772272337.7335927,-244.62890625,-43.9453125,-83.984375,-969.7265625,0.0,0,0
1772272337.802729,1772272337.7374887,48.33984375,-11.23046875,187.98828125,189.453125,0.0,0,0
1772272337.802742,1772272337.7413847,240.72265625,-12.6953125,179.19921875,-822.75390625,0.0,0,0
1772272337.8027542,1772272337.7452807,119.62890625,-37.59765625,-101.07421875,368.1640625,0.0,0,0
1772272337.8027651,1772272337.7491767,-190.91796875,-55.17578125,-265.13671875,-923.828125,0.0,0,0
1772272337.8027751,1772272337.7530727,-284.1796875,-25.87890625,-127.44140625,-1000.0,0.0,0,0
1772272337.802786,1772272337.7569685,-34.66796875,4.39453125,149.4140625,14.6484375,0.0,0,0
1772272337.8027961,1772272337.7608645,213.37890625,-15.13671875,193.359375,-850.5859375,0.0,0,0
1772272337.802807,1772272337.7647605,120.60546875,-38.0859375,-48.828125,536.1328125,0.0,0,0
1772272337.802817,1772272337.7686565,-192.87109375,-50.29296875,-275.390625,-748.53515625,0.0,0,0
1772272337.802828,1772272337.7725525,-305.6640625,-53.7109375,-177.734375,-1000.0,0.0,0,0
1772272337.802838,1772272337.7764485,-74.21875,-12.6953125,131.8359375,-117.1875,0.0,0,0
1772272337.847754,1772272337.7804642,152.83203125,11.23046875,203.125,-893.06640625,0.0,0,0
1772272337.847785,1772272337.7843602,114.74609375,-27.83203125,-20.5078125,697.75390625,0.0,0,0
1772272337.847801,1772272337.7882562,-164.0625,-48.33984375,-290.0390625,-562.01171875,0.0,0,0
1772272337.8478148,1772272337.7921522,-337.40234375,-37.59765625,-214.84375,-1000.0,0.0,0,0
1772272337.847828,1772272337.7960482,-108.88671875,-15.13671875,81.54296875,-218.26171875,0.0,0,0
1772272337.847841,1772272337.7999442,193.359375,3.41796875,194.3359375,-953.125,0.0,0,0
1772272337.8478541,1772272337.8038402,194.82421875,-17.08984375,29.296875,846.19140625,0.0,0,0
1772272337.8478668,1772272337.8077362,-141.11328125,-49.31640625,-261.23046875,-358.3984375,0.0,0,0
1772272337.84788,1772272337.8116322,-356.4453125,-54.6875,-239.74609375,-1000.0,0.0,0,0
1772272337.847892,1772272337.815528,-176.7578125,-21.97265625,45.8984375,-331.0546875,0.0,0,0
1772272337.847905,1772272337.819424,138.671875,12.6953125,201.171875,957.03125,0.0,0,0
1772272337.847917,1772272337.82332,201.171875,-7.8125,70.3125,995.60546875,0.0,0,0
1772272337.9063911,1772272337.8273268,-63.96484375,-56.15234375,-244.140625,-158.203125,0.0,0,0
1772272337.906434,1772272337.8312228,-265.13671875,-56.15234375,-249.51171875,-1000.0,0.0,0,0
1772272337.90645,1772272337.8351188,-122.0703125,-2.9296875,45.41015625,-413.0859375,0.0,0,0
1772272337.906464,1772272337.8390148,190.91796875,11.71875,191.89453125,819.82421875,0.0,0,0
1772272337.906477,1772272337.8429108,249.51171875,-34.1796875,62.01171875,-921.38671875,0.0,0,0
1772272337.9064891,1772272337.8468068,5.859375,-45.8984375,-208.0078125,-13.18359375,0.0,0,0
1772272337.9065018,1772272337.8507028,-271.484375,-48.828125,-277.83203125,-1000.0,0.0,0,0
1772272337.906515,1772272337.8545988,-221.19140625,-46.38671875,-40.52734375,-641.11328125,0.0,0,0
1772272337.906528,1772272337.8584948,145.99609375,-10.7421875,203.61328125,635.25390625,0.0,0,0
1772272337.906541,1772272337.8623908,270.99609375,-14.16015625,136.23046875,-854.98046875,0.0,0,0
1772272337.9065542,1772272337.8662868,18.06640625,-39.55078125,-168.9453125,92.28515625,0.0,0,0
1772272337.906566,1772272337.8701828,-232.91015625,-38.0859375,-251.46484375,-1000.0,0.0,0,0
1772272337.95209,1772272337.874178,-187.5,-28.80859375,-34.66796875,-769.04296875,0.0,0,0
1772272337.952131,1772272337.878074,156.73828125,4.39453125,202.63671875,473.14453125,0.0,0,0
1772272337.952152,1772272337.88197,298.828125,-9.27734375,150.87890625,-824.21875,0.0,0,0
1772272337.952169,1772272337.885866,86.42578125,-50.29296875,-118.1640625,246.09375,0.0,0,0
1772272337.9521868,1772272337.889762,-155.76171875,-53.7109375,-248.046875,-1000.0,0.0,0,0
1772272337.952205,1772272337.893658,-209.47265625,-23.92578125,-81.0546875,-935.546875,0.0,0,0
1772272337.952221,1772272337.897554,69.82421875,-1.953125,198.2421875,255.859375,0.0,0,0
1772272337.9522371,1772272337.90145,285.64453125,-26.3671875,171.875,-814.453125,0.0,0,0
1772272337.952254,1772272337.905346,120.1171875,-30.76171875,-121.58203125,284.1796875,0.0,0,0
1772272337.95227,1772272337.909242,-181.640625,-20.01953125,-235.83984375,-989.74609375,0.0,0,0
1772272337.952287,1772272337.913138,-255.859375,-18.06640625,-107.91015625,-1000.0,0.0,0,0
1772272337.9523032,1772272337.9170341,21.484375,1.46484375,168.9453125,58.59375,0.0,0,0
1772272338.028042,1772272337.9212658,251.46484375,1.46484375,203.125,-835.9375,0.0,0,0
1772272338.028117,1772272337.9251618,89.35546875,-29.78515625,-68.84765625,464.84375,0.0,0,0
1772272338.0281541,1772272337.9290578,-208.49609375,-43.45703125,-238.76953125,-835.44921875,0.0,0,0
1772272338.028186,1772272337.9329538,-295.41015625,-40.0390625,-142.578125,-1000.0,0.0,0,0
1772272338.02822,1772272337.93685,-25.87890625,-18.5546875,148.92578125,-31.25,0.0,0,0
1772272338.0282502,1772272337.940746,247.0703125,7.8125,230.95703125,-865.72265625,0.0,0,0
1772272338.02828,1772272337.944642,140.13671875,-17.08984375,-25.390625,608.88671875,0.0,0,0
1772272338.02831,1772272337.9485383,-146.484375,-47.36328125,-256.34765625,-666.50390625,0.0,0,0
1772272338.028341,1772272337.9524343,-270.5078125,-26.85546875,-169.43359375,-1000.0,0.0,0,0
1772272338.028373,1772272337.9563303,-80.56640625,-13.671875,100.09765625,-166.9921875,0.0,0,0
1772272338.028455,1772272337.9602263,181.640625,-10.7421875,182.6171875,-930.6640625,0.0,0,0
1772272338.028527,1772272337.9641225,170.8984375,-23.92578125,21.484375,803.7109375,0.0,0,0
1772272338.043809,1772272337.9681847,-116.69921875,-51.7578125,-245.60546875,-412.109375,0.0,0,0
1772272338.043882,1772272337.972081,-321.77734375,-60.546875,-234.375,-1000.0,0.0,0,0
1772272338.043909,1772272337.975977,-169.921875,-31.73828125,73.2421875,-281.25,0.0,0,0
1772272338.0439339,1772272337.9798732,127.9296875,14.16015625,208.0078125,-997.0703125,0.0,0,0
1772272338.04396,1772272337.9837692,217.28515625,12.20703125,51.26953125,924.8046875,0.0,0,0
1772272338.043984,1772272337.9876652,-58.10546875,-42.48046875,-232.91015625,-231.93359375,0.0,0,0
1772272338.044012,1772272337.9915614,-308.10546875,-70.3125,-259.27734375,-1000.0,0.0,0,0
1772272338.044037,1772272337.9954574,-145.99609375,-32.71484375,12.6953125,-419.43359375,0.0,0,0
1772272338.0440671,1772272337.9993536,142.578125,2.44140625,213.37890625,894.53125,0.0,0,0
1772272338.044091,1772272338.0032496,206.0546875,-17.08984375,82.51953125,-984.86328125,0.0,0,0
1772272338.044117,1772272338.0071456,-71.2890625,-64.94140625,-235.3515625,-128.41796875,0.0,0,0
1772272338.0441442,1772272338.0110419,-311.5234375,-34.1796875,-248.53515625,-1000.0,0.0,0,0
1772272338.088209,1772272338.0150898,-204.1015625,5.37109375,9.27734375,-564.94140625,0.0,0,0
1772272338.088305,1772272338.018986,113.28125,1.46484375,184.08203125,727.05078125,0.0,0,0
1772272338.088334,1772272338.022882,246.58203125,-1.953125,80.56640625,-893.06640625,0.0,0,0
1772272338.0883589,1772272338.0267782,-13.18359375,-19.53125,-200.1953125,20.99609375,0.0,0,0
1772272338.088383,1772272338.0306742,-270.01953125,-30.76171875,-253.41796875,-1000.0,0.0,0,0
1772272338.088407,1772272338.0345705,-186.5234375,-17.08984375,-19.53125,-682.12890625,0.0,0,0
1772272338.088651,1772272338.0384665,92.28515625,-14.6484375,183.59375,578.61328125,0.0,0,0
1772272338.0886772,1772272338.0423627,203.125,-22.94921875,123.53515625,-836.9140625,0.0,0,0
1772272338.088701,1772272338.0462587,14.6484375,-46.38671875,-150.87890625,168.45703125,0.0,0,0
1772272338.088726,1772272338.050155,-280.2734375,-60.546875,-266.11328125,-1000.0,0.0,0,0
1772272338.088751,1772272338.054051,-286.1328125,-30.2734375,-57.6171875,-848.6328125,0.0,0,0
1772272338.088775,1772272338.0579472,57.12890625,-20.01953125,216.30859375,367.1875,0.0,0,0
1772272338.133173,1772272338.0619888,236.81640625,-9.765625,167.96875,-818.359375,0.0,0,0
1772272338.133266,1772272338.065885,11.71875,-19.04296875,-115.234375,247.55859375,0.0,0,0
1772272338.133296,1772272338.069781,-259.765625,-34.66796875,-222.65625,-1000.0,0.0,0,0
1772272338.133322,1772272338.0736773,-305.17578125,-23.92578125,-83.49609375,-998.53515625,0.0,0,0
1772272338.133347,1772272338.0775733,-25.87890625,-29.78515625,168.9453125,126.46484375,0.0,0,0
1772272338.1333718,1772272338.0814695,227.5390625,-25.87890625,196.77734375,-822.75390625,0.0,0,0
1772272338.133396,1772272338.0853655,66.40625,-42.96875,-65.4296875,377.44140625,0.0,0,0
1772272338.13342,1772272338.0892618,-238.28125,-52.734375,-251.46484375,-916.015625,0.0,0,0
1772272338.133444,1772272338.093158,-317.3828125,-33.69140625,-145.5078125,-1000.0,0.0,0,0
1772272338.133468,1772272338.097054,-8.30078125,-15.625,138.671875,-20.01953125,0.0,0,0
1772272338.133497,1772272338.1009502,265.13671875,13.18359375,201.66015625,-847.16796875,0.0,0,0
1772272338.133522,1772272338.1048462,121.58203125,-7.32421875,-41.9921875,516.6015625,0.0,0,0
1772272338.179497,1772272338.1088772,-188.4765625,-41.9921875,-254.39453125,-770.99609375,0.0,0,0
1772272338.1795819,1772272338.1127732,-328.61328125,-48.828125,-167.96875,-1000.0,0.0,0,0
1772272338.179609,1772272338.1166694,-139.6484375,-39.0625,108.88671875,-135.25390625,0.0,0,0
1772272338.1796339,1772272338.1205657,107.91015625,-18.5546875,208.0078125,-896.97265625,0.0,0,0
1772272338.179689,1772272338.1244617,76.66015625,-31.25,-8.7890625,695.80078125,0.0,0,0
1772272338.1797178,1772272338.128358,-209.9609375,-41.9921875,-251.953125,-558.10546875,0.0,0,0
1772272338.1797419,1772272338.1322541,-376.46484375,-26.85546875,-182.12890625,-1000.0,0.0,0,0
1772272338.1797671,1772272338.1361504,-141.11328125,5.859375,70.80078125,-238.28125,0.0,0,0
1772272338.1797912,1772272338.1400464,187.01171875,0.48828125,173.828125,-957.51953125,0.0,0,0
1772272338.179819,1772272338.1439426,179.19921875,-35.15625,22.4609375,840.33203125,0.0,0,0
1772272338.179842,1772272338.1478388,-158.69140625,-52.734375,-266.6015625,-375.48828125,0.0,0,0
1772272338.179866,1772272338.1517348,-354.98046875,-41.50390625,-235.83984375,-1000.0,0.0,0,0
1772272338.223032,1772272338.1557558,-171.38671875,-14.6484375,71.2890625,-319.82421875,0.0,0,0
1772272338.223124,1772272338.159652,121.58203125,3.41796875,187.5,964.84375,0.0,0,0
1772272338.2231522,1772272338.163548,149.4140625,-4.39453125,67.3828125,982.91015625,0.0,0,0
1772272338.223179,1772272338.1674442,-141.11328125,-38.57421875,-205.56640625,-143.5546875,0.0,0,0
1772272338.2232041,1772272338.1713405,-355.46875,-49.8046875,-272.4609375,-1000.0,0.0,0,0
1772272338.223228,1772272338.1752367,-199.21875,-9.765625,20.5078125,-417.48046875,0.0,0,0
1772272338.223253,1772272338.1791327,116.2109375,5.859375,185.05859375,881.8359375,0.0,0,0
1772272338.223277,1772272338.183029,169.921875,-19.53125,48.33984375,-936.5234375,0.0,0,0
1772272338.2233012,1772272338.1869252,-87.890625,-52.734375,-197.265625,-23.4375,0.0,0,0
1772272338.223325,1772272338.1908214,-338.37890625,-68.359375,-264.6484375,-1000.0,0.0,0,0
1772272338.223348,1772272338.1947174,-262.6953125,-37.109375,-48.33984375,-620.60546875,0.0,0,0
1772272338.2233758,1772272338.1986136,81.0546875,-4.39453125,204.1015625,660.64453125,0.0,0,0
1772272338.2681432,1772272338.202624,227.05078125,-2.9296875,131.34765625,-858.88671875,0.0,0,0
1772272338.268248,1772272338.2065203,22.4609375,-39.0625,-158.203125,94.7265625,0.0,0,0
1772272338.2682738,1772272338.2104166,-224.609375,-59.5703125,-235.83984375,-1000.0,0.0,0,0
1772272338.268299,1772272338.2143126,-209.47265625,-18.5546875,-40.52734375,-741.2109375,0.0,0,0
1772272338.2683258,1772272338.2182088,103.02734375,9.765625,199.70703125,503.90625,0.0,0,0
1772272338.268351,1772272338.222105,291.9921875,1.46484375,146.484375,-829.1015625,0.0,0,0
1772272338.268376,1772272338.2260013,81.54296875,-46.38671875,-147.4609375,195.3125,0.0,0,0
1772272338.2684002,1772272338.2298975,-237.3046875,-80.078125,-258.30078125,-1000.0,0.0,0,0
1772272338.268424,1772272338.2337937,-228.515625,-42.96875,-77.1484375,-891.6015625,0.0,0,0
1772272338.268451,1772272338.2376897,98.14453125,-4.8828125,202.1484375,300.78125,0.0,0,0
1772272338.268476,1772272338.241586,277.34375,-10.25390625,168.45703125,-820.80078125,0.0,0,0
1772272338.2684999,1772272338.2454822,112.79296875,-34.66796875,-104.00390625,305.6640625,0.0,0,0
1772272338.330878,1772272338.2495627,-151.3671875,-41.50390625,-241.2109375,-976.5625,0.0,0,0
1772272338.3310342,1772272338.253459,-228.515625,-29.78515625,-121.58203125,-1000.0,0.0,0,0
1772272338.331062,1772272338.2573552,27.34375,-3.41796875,174.8046875,90.33203125,0.0,0,0
1772272338.3310878,1772272338.2612514,284.66796875,16.6015625,207.03125,-829.1015625,0.0,0,0
1772272338.3311129,1772272338.2651477,135.7421875,-12.6953125,-56.15234375,426.7578125,0.0,0,0
1772272338.3311381,1772272338.269044,-163.0859375,-36.1328125,-235.83984375,-859.86328125,0.0,0,0
1772272338.3311622,1772272338.2729402,-232.91015625,-52.24609375,-159.66796875,-1000.0,0.0,0,0
1772272338.3311858,1772272338.2768364,14.16015625,-29.296875,123.046875,-87.890625,0.0,0,0
1772272338.33121,1772272338.2807324,276.3671875,13.671875,223.6328125,-867.67578125,0.0,0,0
1772272338.331233,1772272338.2846286,184.08203125,-32.71484375,-23.92578125,598.6328125,0.0,0,0
1772272338.331257,1772272338.2885249,-145.99609375,-70.80078125,-254.8828125,-680.6640625,0.0,0,0
1772272338.331281,1772272338.292421,-265.625,-42.96875,-178.22265625,-1000.0,0.0,0,0
1772272338.373617,1772272338.296491,-49.31640625,-15.13671875,104.98046875,-165.0390625,0.0,0,0
1772272338.373725,1772272338.3003871,220.21484375,-0.48828125,209.9609375,-930.17578125,0.0,0,0
1772272338.373754,1772272338.3042834,198.73046875,-1.953125,52.734375,814.94140625,0.0,0,0
1772272338.37378,1772272338.3081796,-117.67578125,-40.52734375,-244.62890625,-409.66796875,0.0,0,0
1772272338.373813,1772272338.3120759,-259.27734375,-42.48046875,-225.5859375,-1000.0,0.0,0,0
1772272338.373842,1772272338.315972,-47.36328125,-8.30078125,86.9140625,-236.328125,0.0,0,0
1772272338.373867,1772272338.3198683,228.515625,-22.94921875,185.05859375,-962.40234375,0.0,0,0
1772272338.373894,1772272338.3237646,244.140625,-39.55078125,29.78515625,877.44140625,0.0,0,0
1772272338.373919,1772272338.3276608,-40.52734375,-43.45703125,-240.234375,-309.5703125,0.0,0,0
1772272338.373942,1772272338.331557,-253.90625,-39.0625,-239.2578125,-1000.0,0.0,0,0
1772272338.373966,1772272338.3354533,-79.1015625,-7.8125,39.0625,-378.90625,0.0,0,0
1772272338.373991,1772272338.3393495,204.1015625,17.578125,199.70703125,915.0390625,0.0,0,0
1772272338.418158,1772272338.3434088,262.20703125,14.6484375,66.40625,-974.12109375,0.0,0,0
1772272338.4182599,1772272338.347305,20.5078125,-20.01953125,-230.46875,-82.03125,0.0,0,0
1772272338.418287,1772272338.3512015,-236.328125,-30.76171875,-255.859375,-1000.0,0.0,0,0
1772272338.4183118,1772272338.3550978,-129.39453125,-7.8125,23.92578125,-480.95703125,0.0,0,0
1772272338.418338,1772272338.358994,164.0625,-6.8359375,194.3359375,814.453125,0.0,0,0
1772272338.4183621,1772272338.3628902,273.92578125,-11.23046875,81.0546875,-899.90234375,0.0,0,0
1772272338.418389,1772272338.3667865,38.57421875,-29.296875,-201.66015625,38.0859375,0.0,0,0
1772272338.4184132,1772272338.3706827,-250.9765625,-63.96484375,-283.203125,-1000.0,0.0,0,0
1772272338.418436,1772272338.374579,-187.5,-37.109375,-47.36328125,-675.78125,0.0,0,0
1772272338.4184608,1772272338.3784754,119.140625,7.32421875,208.49609375,589.84375,0.0,0,0
1772272338.418624,1772272338.3823717,274.90234375,-11.23046875,132.32421875,-845.703125,0.0,0,0
1772272338.4186502,1772272338.386268,46.38671875,-46.875,-167.96875,133.7890625,0.0,0,0
1772272338.465646,1772272338.3903174,-266.11328125,-39.55078125,-247.0703125,-1000.0,0.0,0,0
1772272338.465908,1772272338.3942137,-217.28515625,-30.76171875,-43.45703125,-815.91796875,0.0,0,0
1772272338.465943,1772272338.3981102,108.3984375,-20.01953125,204.58984375,406.73828125,0.0,0,0
1772272338.465974,1772272338.4020064,261.71875,-7.32421875,159.66796875,-821.2890625,0.0,0,0
1772272338.4659991,1772272338.4059026,80.56640625,-23.92578125,-107.91015625,243.1640625,0.0,0,0
1772272338.466024,1772272338.409799,-231.4453125,-31.73828125,-238.76953125,-1000.0,0.0,0,0
1772272338.466048,1772272338.4136953,-281.25,-17.578125,-109.375,-968.75,0.0,0,0
1772272338.466072,1772272338.4175916,51.26953125,5.37109375,170.8984375,189.453125,0.0,0,0
1772272338.4660962,1772272338.4214878,260.7421875,-5.859375,192.87109375,-816.89453125,0.0,0,0
1772272338.4661498,1772272338.4253843,85.44921875,-52.734375,-96.6796875,331.54296875,0.0,0,0
1772272338.466252,1772272338.4292805,-199.70703125,-64.94140625,-279.296875,-959.47265625,0.0,0,0
1772272338.46628,1772272338.4331768,-275.390625,-28.3203125,-129.39453125,-1000.0,0.0,0,0
1772272338.5077739,1772272338.4372141,-9.765625,-0.9765625,190.4296875,46.38671875,0.0,0,0
1772272338.507818,1772272338.4411106,255.37109375,1.46484375,217.7734375,-844.23828125,0.0,0,0
1772272338.5078342,1772272338.4450068,148.4375,-25.390625,-55.6640625,507.32421875,0.0,0,0
1772272338.50785,1772272338.448903,-175.78125,-47.8515625,-248.046875,-779.78515625,0.0,0,0
1772272338.507864,1772272338.4527996,-277.34375,-51.7578125,-167.96875,-1000.0,0.0,0,0
1772272338.5078778,1772272338.4566958,-16.11328125,-16.6015625,122.55859375,-104.4921875,0.0,0,0
1772272338.507893,1772272338.4605923,228.02734375,4.8828125,192.3828125,-887.6953125,0.0,0,0
1772272338.5079072,1772272338.4644885,178.7109375,-36.1328125,-32.2265625,680.6640625,0.0,0,0
1772272338.507954,1772272338.4683847,-100.5859375,-52.24609375,-243.65234375,-582.03125,0.0,0,0
1772272338.507977,1772272338.4722812,-268.06640625,-20.01953125,-176.7578125,-1000.0,0.0,0,0
1772272338.507992,1772272338.4761775,-63.4765625,-12.20703125,84.47265625,-196.2890625,0.0,0,0
1772272338.508008,1772272338.4800737,205.56640625,-36.1328125,198.73046875,-943.359375,0.0,0,0
1772272338.570024,1772272338.4841807,193.84765625,-36.62109375,32.2265625,834.47265625,0.0,0,0
1772272338.570074,1772272338.488077,-95.21484375,-38.0859375,-260.25390625,-372.0703125,0.0,0,0
1772272338.5700889,1772272338.4919734,-320.3125,-37.109375,-231.93359375,-1000.0,0.0,0,0
1772272338.5701041,1772272338.4958696,-137.20703125,-8.30078125,69.3359375,-292.48046875,0.0,0,0
1772272338.570119,1772272338.499766,183.10546875,-1.46484375,194.82421875,986.81640625,0.0,0,0
1772272338.570134,1772272338.5036623,209.47265625,-14.16015625,75.1953125,965.33203125,0.0,0,0
1772272338.570148,1772272338.5075588,-74.21875,-53.22265625,-227.05078125,-167.96875,0.0,0,0
1772272338.570163,1772272338.511455,-307.12890625,-81.54296875,-258.30078125,-1000.0,0.0,0,0
1772272338.570178,1772272338.5153515,-159.1796875,-17.578125,36.1328125,-444.82421875,0.0,0,0
1772272338.5701919,1772272338.5192478,149.90234375,21.97265625,187.98828125,867.67578125,0.0,0,0
1772272338.570206,1772272338.5231442,187.98828125,-20.01953125,49.8046875,-958.49609375,0.0,0,0
1772272338.570221,1772272338.5270405,-74.70703125,-50.29296875,-222.65625,-77.63671875,0.0,0,0
1772272338.6308448,1772272338.531219,-306.15234375,-36.1328125,-258.7890625,-1000.0,0.0,0,0
1772272338.630893,1772272338.5351155,-234.375,-20.01953125,-26.3671875,-603.02734375,0.0,0,0
1772272338.630921,1772272338.539012,81.0546875,0.48828125,216.796875,683.59375,0.0,0,0
1772272338.630944,1772272338.5429082,200.68359375,-11.71875,141.11328125,-870.1171875,0.0,0,0
1772272338.630966,1772272338.5468047,-61.5234375,-52.734375,-166.50390625,58.59375,0.0,0,0
1772272338.630986,1772272338.5507011,-304.6875,-59.5703125,-231.93359375,-1000.0,0.0,0,0
1772272338.6310048,1772272338.5545974,-211.9140625,-46.38671875,-56.15234375,-759.765625,0.0,0,0
1772272338.6310248,1772272338.5584939,103.02734375,-5.859375,192.3828125,473.6328125,0.0,0,0
1772272338.631045,1772272338.5623903,254.8828125,11.71875,155.76171875,-828.125,0.0,0,0
1772272338.631063,1772272338.5662866,26.3671875,-36.62109375,-158.203125,180.17578125,0.0,0,0
1772272338.631082,1772272338.570183,-250.0,-69.82421875,-257.8125,-1000.0,0.0,0,0
1772272338.631101,1772272338.5740795,-225.5859375,-50.78125,-71.77734375,-880.859375,0.0,0,0
1772272338.643104,1772272338.5780892,47.36328125,-0.48828125,202.63671875,320.3125,0.0,0,0
1772272338.6431518,1772272338.5819857,231.4453125,0.48828125,175.29296875,-818.359375,0.0,0,0
1772272338.643177,1772272338.5858822,64.453125,-46.38671875,-116.69921875,300.29296875,0.0,0,0
1772272338.643199,1772272338.5897784,-217.7734375,-56.15234375,-266.11328125,-985.3515625,0.0,0,0
1772272338.643221,1772272338.593675,-265.625,-32.2265625,-133.30078125,-1000.0,0.0,0,0
1772272338.643241,1772272338.5975714,-2.44140625,9.27734375,183.10546875,109.375,0.0,0,0
1772272338.643261,1772272338.6014676,239.2578125,5.37109375,187.01171875,-825.68359375,0.0,0,0
1772272338.6432798,1772272338.605364,135.25390625,-37.109375,-96.6796875,403.3203125,0.0,0,0
1772272338.643299,1772272338.6092606,-190.91796875,-54.19921875,-232.91015625,-891.11328125,0.0,0,0
1772272338.6433191,1772272338.613157,-294.43359375,-32.71484375,-124.0234375,-1000.0,0.0,0,0
1772272338.643368,1772272338.6170533,-25.87890625,-8.7890625,156.25,-13.18359375,0.0,0,0
1772272338.643399,1772272338.6209497,212.40234375,-10.7421875,199.21875,-857.421875,0.0,0,0
1772272338.702813,1772272338.6249394,123.046875,-39.0625,-51.26953125,569.82421875,0.0,0,0
1772272338.702893,1772272338.628836,-214.35546875,-53.22265625,-279.296875,-705.078125,0.0,0,0
1772272338.70292,1772272338.6327324,-345.703125,-33.69140625,-210.9375,-1000.0,0.0,0,0
1772272338.702946,1772272338.6366289,-77.63671875,0.48828125,109.86328125,-154.78515625,0.0,0,0
1772272338.702971,1772272338.6405253,216.30859375,6.34765625,218.26171875,-910.15625,0.0,0,0
1772272338.702995,1772272338.6444216,188.4765625,-26.85546875,5.859375,743.1640625,0.0,0,0
1772272338.703019,1772272338.648318,-122.55859375,-64.94140625,-279.78515625,-498.53515625,0.0,0,0
1772272338.7030451,1772272338.6522145,-279.78515625,-64.453125,-219.23828125,-1000.0,0.0,0,0
1772272338.703069,1772272338.656111,-68.84765625,-30.2734375,87.40234375,-227.5390625,0.0,0,0
1772272338.703093,1772272338.6600072,217.7734375,-24.4140625,182.6171875,-970.21484375,0.0,0,0
1772272338.703119,1772272338.6639037,239.74609375,-39.0625,36.62109375,897.94921875,0.0,0,0
1772272338.7031438,1772272338.6678002,-33.203125,-56.15234375,-247.0703125,-268.5546875,0.0,0,0
1772272338.7491012,1772272338.6718612,-263.18359375,-39.0625,-236.328125,-1000.0,0.0,0,0
1772272338.749187,1772272338.6757576,-133.7890625,1.953125,39.0625,-366.69921875,0.0,0,0
1772272338.749215,1772272338.6796541,166.50390625,-4.39453125,162.59765625,932.12890625,0.0,0,0
1772272338.749242,1772272338.6835506,235.3515625,-22.4609375,34.1796875,-995.60546875,0.0,0,0
1772272338.74927,1772272338.687447,-25.87890625,-50.78125,-226.5625,-123.046875,0.0,0,0
1772272338.749295,1772272338.6913433,-265.625,-62.01171875,-235.3515625,-1000.0,0.0,0,0
1772272338.749321,1772272338.6952398,-169.921875,-35.64453125,17.08984375,-498.53515625,0.0,0,0
1772272338.749345,1772272338.6991363,99.609375,-17.578125,189.453125,794.43359375,0.0,0,0
1772272338.7493708,1772272338.7030327,214.35546875,-20.99609375,104.98046875,-902.83203125,0.0,0,0
1772272338.749395,1772272338.7069292,5.37109375,-41.015625,-182.12890625,25.87890625,0.0,0,0
1772272338.7494211,1772272338.7108257,-279.296875,-61.03515625,-278.3203125,-1000.0,0.0,0,0
1772272338.7494452,1772272338.7147222,-204.1015625,-51.7578125,-58.10546875,-655.2734375,0.0,0,0
1772272338.7932212,1772272338.7187731,166.015625,3.90625,182.12890625,626.953125,0.0,0,0
1772272338.7933152,1772272338.7226696,306.15234375,3.41796875,118.1640625,-852.5390625,0.0,0,0
1772272338.793504,1772272338.726566,61.5234375,-47.8515625,-173.33984375,100.09765625,0.0,0,0
1772272338.793532,1772272338.7304626,-241.2109375,-56.640625,-251.46484375,-1000.0,0.0,0,0
1772272338.793561,1772272338.734359,-259.27734375,-38.57421875,-46.38671875,-828.125,0.0,0,0
1772272338.7935848,1772272338.7382555,67.87109375,-7.32421875,205.56640625,393.5546875,0.0,0,0
1772272338.793609,1772272338.742152,288.57421875,-0.48828125,174.31640625,-816.89453125,0.0,0,0
1772272338.793633,1772272338.7460485,48.33984375,-37.109375,-121.58203125,220.21484375,0.0,0,0
1772272338.793657,1772272338.749945,-260.7421875,-65.4296875,-257.32421875,-1000.0,0.0,0,0
1772272338.79368,1772272338.7538414,-244.62890625,-37.109375,-102.5390625,-947.75390625,0.0,0,0
1772272338.7937028,1772272338.7577379,39.0625,2.9296875,165.0390625,217.28515625,0.0,0,0
1772272338.793726,1772272338.7616343,248.53515625,-2.9296875,175.29296875,-820.80078125,0.0,0,0
1772272338.838316,1772272338.7656744,102.5390625,-35.15625,-83.0078125,359.375,0.0,0,0
1772272338.838419,1772272338.7695708,-209.47265625,-79.58984375,-248.53515625,-935.546875,0.0,0,0
1772272338.838449,1772272338.7734673,-271.97265625,-66.89453125,-121.09375,-1000.0,0.0,0,0
1772272338.838474,1772272338.7773638,-3.41796875,-15.625,159.66796875,43.9453125,0.0,0,0
1772272338.838502,1772272338.7812603,250.48828125,-2.44140625,199.70703125,-846.19140625,0.0,0,0
1772272338.83853,1772272338.7851567,118.65234375,-33.69140625,-44.43359375,507.8125,0.0,0,0
1772272338.838557,1772272338.7890534,-204.1015625,-52.734375,-262.20703125,-786.1328125,0.0,0,0
1772272338.8385851,1772272338.79295,-283.69140625,-20.5078125,-162.59765625,-1000.0,0.0,0,0
1772272338.838612,1772272338.7968464,-50.29296875,12.20703125,150.87890625,-71.77734375,0.0,0,0
1772272338.8386402,1772272338.8007429,216.30859375,12.6953125,208.984375,-872.55859375,0.0,0,0
1772272338.838667,1772272338.8046393,154.78515625,-22.94921875,-36.1328125,630.37109375,0.0,0,0
1772272338.8386939,1772272338.8085358,-172.8515625,-67.3828125,-263.671875,-646.484375,0.0,0,0
1772272338.884467,1772272338.8125656,-349.12109375,-67.87109375,-194.3359375,-1000.0,0.0,0,0
1772272338.8845608,1772272338.816462,-125.48828125,-15.625,98.6328125,-177.24609375,0.0,0,0
1772272338.884589,1772272338.8203585,174.8046875,7.8125,195.80078125,-934.08203125,0.0,0,0
1772272338.884614,1772272338.824255,180.17578125,-20.99609375,5.37109375,817.87109375,0.0,0,0
1772272338.8846452,1772272338.8281515,-93.75,-51.26953125,-259.765625,-392.578125,0.0,0,0
1772272338.884672,1772272338.832048,-274.4140625,-49.8046875,-220.21484375,-1000.0,0.0,0,0
1772272338.884695,1772272338.8359447,-80.56640625,-16.11328125,59.08203125,-304.19921875,0.0,0,0
1772272338.884722,1772272338.8398411,213.8671875,-11.23046875,185.05859375,991.2109375,0.0,0,0
1772272338.884751,1772272338.8437376,220.21484375,-19.53125,46.38671875,934.08203125,0.0,0,0
1772272338.884775,1772272338.847634,-67.87109375,-43.9453125,-236.328125,-236.328125,0.0,0,0
1772272338.884799,1772272338.8515306,-279.78515625,-53.7109375,-266.6015625,-1000.0,0.0,0,0
1772272338.884824,1772272338.855427,-179.19921875,-21.484375,10.25390625,-437.01171875,0.0,0,0
1772272338.940095,1772272338.8595195,106.4453125,7.8125,205.078125,862.79296875,0.0,0,0
1772272338.9401221,1772272338.863416,208.49609375,-0.9765625,86.9140625,-949.70703125,0.0,0,0
1772272338.940133,1772272338.8673124,-58.59375,-39.55078125,-206.0546875,-58.59375,0.0,0,0
1772272338.940144,1772272338.8712091,-309.08203125,-52.734375,-250.9765625,-1000.0,0.0,0,0
1772272338.940154,1772272338.8751056,-210.44921875,-23.4375,-3.41796875,-563.96484375,0.0,0,0
1772272338.940164,1772272338.879002,135.7421875,1.46484375,219.23828125,737.3046875,0.0,0,0
1772272338.940175,1772272338.8828988,239.74609375,-29.296875,95.703125,-889.16015625,0.0,0,0
1772272338.940186,1772272338.8867953,-10.7421875,-56.640625,-211.9140625,21.97265625,0.0,0,0
1772272338.940196,1772272338.8906918,-245.60546875,-53.7109375,-245.1171875,-1000.0,0.0,0,0
1772272338.940206,1772272338.8945882,-227.05078125,-43.45703125,-50.29296875,-737.79296875,0.0,0,0
1772272338.940217,1772272338.898485,53.22265625,-7.8125,170.8984375,497.55859375,0.0,0,0
1772272338.940227,1772272338.9023814,228.515625,20.01953125,139.16015625,-830.56640625,0.0,0,0
1772272338.9725912,1772272338.9063938,1.953125,-10.25390625,-129.8828125,177.734375,0.0,0,0
1772272338.972641,1772272338.9102905,-304.19921875,-27.83203125,-244.62890625,-1000.0,0.0,0,0
1772272338.972657,1772272338.914187,-298.828125,-19.53125,-72.265625,-871.58203125,0.0,0,0
1772272338.972671,1772272338.9180834,-25.390625,-1.953125,204.58984375,332.51953125,0.0,0,0
1772272338.972685,1772272338.9219801,169.43359375,-0.48828125,176.26953125,-821.77734375,0.0,0,0
1772272338.9726982,1772272338.9258766,28.3203125,-28.80859375,-90.33203125,321.2890625,0.0,0,0
1772272338.9727108,1772272338.929773,-293.45703125,-51.26953125,-242.67578125,-972.65625,0.0,0,0
1772272338.972725,1772272338.9336698,-373.046875,-51.26953125,-126.953125,-1000.0,0.0,0,0
1772272338.972738,1772272338.9375663,-94.7265625,-37.59765625,168.45703125,127.9296875,0.0,0,0
1772272338.9727502,1772272338.9414628,149.90234375,-13.671875,193.84765625,-833.984375,0.0,0,0
1772272338.972791,1772272338.9453595,23.92578125,-4.8828125,-57.12890625,441.40625,0.0,0,0
1772272338.972806,1772272338.949256,-262.6953125,-44.43359375,-234.86328125,-859.375,0.0,0,0
1772272339.0199091,1772272338.953255,-341.30859375,-54.6875,-155.76171875,-1000.0,0.0,0,0
1772272339.0200472,1772272338.9571517,-106.4453125,-7.8125,127.44140625,-1.46484375,0.0,0,0
1772272339.020093,1772272338.9610481,147.94921875,-3.90625,180.6640625,-860.83984375,0.0,0,0
1772272339.020134,1772272338.9649446,71.77734375,-37.109375,-62.01171875,577.1484375,0.0,0,0
1772272339.020172,1772272338.9688413,-213.8671875,-41.9921875,-268.06640625,-702.1484375,0.0,0,0
1772272339.020211,1772272338.9727378,-312.98828125,-39.0625,-156.73828125,-1000.0,0.0,0,0
1772272339.020283,1772272338.9766345,-87.890625,-19.04296875,110.83984375,-127.44140625,0.0,0,0
1772272339.020326,1772272338.980531,168.45703125,-6.8359375,185.546875,-913.57421875,0.0,0,0
1772272339.020362,1772272338.9844277,160.64453125,-20.01953125,38.0859375,765.625,0.0,0,0
1772272339.020399,1772272338.9883242,-112.79296875,-34.66796875,-216.30859375,-461.9140625,0.0,0,0
1772272339.020436,1772272338.9922206,-289.55078125,-37.109375,-186.5234375,-1000.0,0.0,0,0
1772272339.020472,1772272338.9961174,-116.69921875,-5.37109375,81.0546875,-233.88671875,0.0,0,0
1772272339.078059,1772272339.0001838,178.22265625,18.06640625,172.36328125,-964.84375,0.0,0,0
1772272339.078135,1772272339.0040805,199.70703125,-2.44140625,32.2265625,876.46484375,0.0,0,0
1772272339.078163,1772272339.007977,-98.6328125,-32.71484375,-255.37109375,-304.19921875,0.0,0,0
1772272339.078188,1772272339.0118737,-292.48046875,-33.69140625,-250.0,-1000.0,0.0,0,0
1772272339.078212,1772272339.0157702,-137.6953125,-35.64453125,49.8046875,-396.484375,0.0,0,0
1772272339.0782359,1772272339.019667,136.23046875,-20.5078125,211.9140625,921.38671875,0.0,0,0
1772272339.07826,1772272339.0235634,166.9921875,-30.2734375,67.87109375,982.421875,0.0,0,0
1772272339.0782862,1772272339.02746,-99.12109375,-72.265625,-239.74609375,-175.29296875,0.0,0,0
1772272339.0783098,1772272339.0313566,-330.078125,-62.5,-250.9765625,-1000.0,0.0,0,0
1772272339.0783339,1772272339.0352533,-225.5859375,-17.08984375,5.859375,-492.1875,0.0,0,0
1772272339.078357,1772272339.0391498,103.02734375,15.13671875,180.6640625,806.15234375,0.0,0,0
1772272339.078381,1772272339.0430465,195.80078125,-13.671875,68.84765625,-914.55078125,0.0,0,0
1772272339.1370082,1772272339.047103,-75.1953125,-57.6171875,-212.40234375,-9.765625,0.0,0,0
1772272339.137086,1772272339.0509996,-328.125,-47.8515625,-250.9765625,-1000.0,0.0,0,0
1772272339.1371121,1772272339.0548964,-269.04296875,-29.296875,-42.48046875,-673.33984375,0.0,0,0
1772272339.137138,1772272339.0587928,9.27734375,-17.08984375,171.38671875,578.61328125,0.0,0,0
1772272339.137163,1772272339.0626895,191.89453125,-19.04296875,133.30078125,-840.8203125,0.0,0,0
1772272339.13729,1772272339.0665863,4.8828125,-47.36328125,-130.37109375,154.296875,0.0,0,0
1772272339.1373172,1772272339.0704827,-281.73828125,-49.31640625,-241.2109375,-1000.0,0.0,0,0
1772272339.137341,1772272339.0743794,-238.76953125,-29.78515625,-59.08203125,-802.24609375,0.0,0,0
1772272339.137366,1772272339.078276,87.40234375,-18.06640625,201.171875,436.5234375,0.0,0,0
1772272339.1373901,1772272339.0821726,273.4375,26.3671875,157.2265625,-823.2421875,0.0,0,0
1772272339.1374211,1772272339.0860693,104.00390625,1.46484375,-122.55859375,215.33203125,0.0,0,0
1772272339.137446,1772272339.0899658,-187.5,-52.24609375,-255.859375,-1000.0,0.0,0,0
1772272339.169343,1772272339.0940125,-187.5,-24.4140625,-83.49609375,-919.43359375,0.0,0,0
1772272339.1694221,1772272339.0979092,129.39453125,-4.8828125,224.609375,272.94921875,0.0,0,0
1772272339.1694489,1772272339.101806,302.734375,-17.578125,197.265625,-820.3125,0.0,0,0
1772272339.169475,1772272339.1057026,161.1328125,-25.390625,-78.125,348.6328125,0.0,0,0
1772272339.1694999,1772272339.109599,-97.65625,-44.921875,-237.79296875,-946.2890625,0.0,0,0
1772272339.169524,1772272339.1134958,-172.8515625,-45.8984375,-112.3046875,-1000.0,0.0,0,0
1772272339.169548,1772272339.1173925,87.40234375,-15.13671875,161.62109375,79.1015625,0.0,0,0
1772272339.169573,1772272339.121289,315.4296875,-6.34765625,188.96484375,-837.890625,0.0,0,0
1772272339.169597,1772272339.1251857,200.1953125,-41.50390625,-67.3828125,466.30859375,0.0,0,0
1772272339.169621,1772272339.1290824,-123.53515625,-65.4296875,-268.06640625,-816.40625,0.0,0,0
1772272339.169646,1772272339.1329792,-236.328125,-51.26953125,-180.17578125,-1000.0,0.0,0,0
1772272339.1696692,1772272339.1368756,12.20703125,-15.625,105.46875,-120.1171875,0.0,0,0
1772272339.229098,1772272339.1409943,251.953125,1.46484375,210.44921875,-877.44140625,0.0,0,0
1772272339.229204,1772272339.144891,177.24609375,-33.69140625,-14.6484375,625.0,0.0,0,0
1772272339.229246,1772272339.1487877,-97.65625,-63.96484375,-258.7890625,-653.3203125,0.0,0,0
1772272339.229286,1772272339.1526842,-250.48828125,-60.546875,-208.984375,-1000.0,0.0,0,0
1772272339.229333,1772272339.156581,-45.8984375,-25.390625,94.23828125,-191.40625,0.0,0,0
1772272339.2293718,1772272339.1604776,256.8359375,-11.71875,225.5859375,-922.36328125,0.0,0,0
1772272339.2294111,1772272339.1643744,246.09375,-42.96875,17.08984375,755.37109375,0.0,0,0
1772272339.229449,1772272339.168271,-85.44921875,-58.59375,-266.11328125,-487.3046875,0.0,0,0
1772272339.2294872,1772272339.1721678,-283.203125,-53.22265625,-215.8203125,-1000.0,0.0,0,0
1772272339.229524,1772272339.1760645,-114.2578125,-6.34765625,73.2421875,-278.3203125,0.0,0,0
1772272339.229561,1772272339.179961,190.91796875,9.27734375,188.4765625,-991.2109375,0.0,0,0
1772272339.229599,1772272339.1838577,258.7890625,-29.296875,33.203125,902.83203125,0.0,0,0
1772272339.258208,1772272339.187884,-34.1796875,-32.71484375,-251.953125,-276.85546875,0.0,0,0
1772272339.2582898,1772272339.1917806,-260.25390625,-35.15625,-261.71875,-1000.0,0.0,0,0
1772272339.2583182,1772272339.1956773,-125.48828125,-33.203125,22.4609375,-404.78515625,0.0,0,0
1772272339.258343,1772272339.199574,176.7578125,-20.01953125,199.70703125,895.01953125,0.0,0,0
1772272339.258369,1772272339.2034707,272.94921875,-23.4375,82.03125,-972.16796875,0.0,0,0
1772272339.258393,1772272339.2073674,-16.6015625,-51.7578125,-200.1953125,-88.37890625,0.0,0,0
1772272339.258417,1772272339.2112641,-262.20703125,-69.82421875,-269.53125,-1000.0,0.0,0,0
1772272339.258441,1772272339.2151608,-137.20703125,-26.3671875,-28.80859375,-540.0390625,0.0,0,0
1772272339.258465,1772272339.2190576,147.94921875,1.953125,200.68359375,753.90625,0.0,0,0
1772272339.25849,1772272339.2229543,241.2109375,-16.6015625,102.05078125,-884.27734375,0.0,0,0
1772272339.258516,1772272339.226851,1.953125,-31.25,-187.01171875,52.24609375,0.0,0,0
1772272339.25854,1772272339.2307477,-269.04296875,-46.38671875,-262.20703125,-1000.0,0.0,0,0
1772272339.304228,1772272339.2347655,-212.890625,-20.99609375,-39.0625,-704.1015625,0.0,0,0
1772272339.30435,1772272339.2386622,75.1953125,-8.7890625,199.21875,554.6875,0.0,0,0
1772272339.304378,1772272339.242559,227.5390625,-21.484375,131.34765625,-837.890625,0.0,0,0
1772272339.304404,1772272339.2464557,50.78125,-40.52734375,-164.0625,157.71484375,0.0,0,0
1772272339.30443,1772272339.2503524,-223.14453125,-47.36328125,-254.8828125,-1000.0,0.0,0,0
1772272339.3044548,1772272339.254249,-202.1484375,-16.11328125,-50.78125,-836.9140625,0.0,0,0
1772272339.304487,1772272339.2581458,102.05078125,0.48828125,199.70703125,385.25390625,0.0,0,0
1772272339.304513,1772272339.2620425,261.23046875,-26.3671875,133.30078125,-821.2890625,0.0,0,0
1772272339.304538,1772272339.2659392,54.19921875,-42.96875,-112.79296875,262.6953125,0.0,0,0
1772272339.3045702,1772272339.269836,-195.80078125,-45.41015625,-218.75,-1000.0,0.0,0,0
1772272339.304595,1772272339.2737327,-217.28515625,-49.8046875,-106.93359375,-995.1171875,0.0,0,0
1772272339.304619,1772272339.2776294,63.96484375,-15.625,163.57421875,143.5546875,0.0,0,0
1772272339.3483882,1772272339.2816365,306.640625,-4.39453125,196.2890625,-830.56640625,0.0,0,0
1772272339.348504,1772272339.2855334,139.6484375,-42.96875,-64.453125,414.0625,0.0,0,0
1772272339.348531,1772272339.2894301,-195.3125,-68.359375,-259.27734375,-886.23046875,0.0,0,0
1772272339.348556,1772272339.2933269,-282.71484375,-59.5703125,-135.25390625,-1000.0,0.0,0,0
1772272339.348581,1772272339.2972236,-2.44140625,-4.8828125,182.6171875,20.99609375,0.0,0,0
1772272339.348605,1772272339.3011203,259.27734375,24.90234375,226.07421875,-846.6796875,0.0,0,0
1772272339.34863,1772272339.305017,176.26953125,-15.13671875,-55.6640625,520.5078125,0.0,0,0
1772272339.348654,1772272339.3089137,-162.109375,-54.19921875,-292.48046875,-773.4375,0.0,0,0
1772272339.3486779,1772272339.3128104,-308.59375,-46.875,-188.96484375,-1000.0,0.0,0,0
1772272339.348701,1772272339.3167071,-39.0625,-10.7421875,99.609375,-113.76953125,0.0,0,0
1772272339.348727,1772272339.3206038,261.71875,-11.71875,163.0859375,-904.296875,0.0,0,0
1772272339.34875,1772272339.3245006,219.7265625,-33.203125,-18.06640625,732.421875,0.0,0,0
1772272339.407647,1772272339.3284981,-117.1875,-37.109375,-213.8671875,-503.90625,0.0,0,0
1772272339.4077618,1772272339.3323948,-312.01171875,-63.96484375,-184.08203125,-1000.0,0.0,0,0
1772272339.407818,1772272339.3362916,-83.984375,-41.9921875,68.359375,-235.3515625,0.0,0,0
1772272339.407875,1772272339.3401883,222.16796875,6.34765625,184.5703125,-957.51953125,0.0,0,0
1772272339.407902,1772272339.3440852,211.42578125,0.48828125,10.7421875,851.07421875,0.0,0,0
1772272339.4079528,1772272339.347982,-93.75,-30.2734375,-235.3515625,-348.14453125,0.0,0,0
1772272339.408007,1772272339.3518786,-285.64453125,-38.57421875,-212.890625,-1000.0,0.0,0,0
1772272339.408034,1772272339.3557754,-127.9296875,-21.484375,36.62109375,-373.046875,0.0,0,0
1772272339.4080582,1772272339.359672,167.96875,-17.578125,174.8046875,933.59375,0.0,0,0
1772272339.408082,1772272339.3635688,226.5625,-27.83203125,58.10546875,988.28125,0.0,0,0
1772272339.408108,1772272339.3674655,-57.6171875,-54.19921875,-221.19140625,-156.25,0.0,0,0
1772272339.408132,1772272339.3713624,-289.0625,-53.22265625,-235.83984375,-1000.0,0.0,0,0
1772272339.4524531,1772272339.3753505,-159.1796875,10.25390625,26.3671875,-479.00390625,0.0,0,0
1772272339.4525728,1772272339.3792472,141.11328125,16.11328125,191.40625,840.33203125,0.0,0,0
1772272339.4526012,1772272339.383144,198.73046875,-28.80859375,59.5703125,-960.9375,0.0,0,0
1772272339.452626,1772272339.3870409,-100.09765625,-50.78125,-208.49609375,-98.14453125,0.0,0,0
1772272339.452651,1772272339.3909376,-303.7109375,-52.734375,-226.5625,-1000.0,0.0,0,0
1772272339.452675,1772272339.3948343,-184.08203125,-32.2265625,8.30078125,-583.0078125,0.0,0,0
1772272339.4527,1772272339.398731,99.609375,-21.97265625,203.125,694.82421875,0.0,0,0
1772272339.452724,1772272339.4026277,218.75,-23.92578125,110.3515625,-864.74609375,0.0,0,0
1772272339.452748,1772272339.4065247,-14.16015625,-41.9921875,-181.15234375,89.84375,0.0,0,0
1772272339.452904,1772272339.4104214,-309.08203125,-53.7109375,-262.20703125,-1000.0,0.0,0,0
1772272339.45293,1772272339.414318,-293.45703125,-6.8359375,-33.69140625,-763.18359375,0.0,0,0
1772272339.452954,1772272339.4182148,16.6015625,2.44140625,202.63671875,471.19140625,0.0,0,0
1772272339.528525,1772272339.4224296,196.2890625,-22.4609375,149.4140625,-827.1484375,0.0,0,0
1772272339.528633,1772272339.4263263,-10.25390625,-41.015625,-146.484375,202.1484375,0.0,0,0
1772272339.52866,1772272339.4302232,-272.4609375,-60.05859375,-248.53515625,-1000.0,0.0,0,0
1772272339.528686,1772272339.43412,-265.625,-37.59765625,-64.94140625,-927.734375,0.0,0,0
1772272339.528712,1772272339.4380167,-16.6015625,-24.90234375,200.1953125,244.140625,0.0,0,0
1772272339.528737,1772272339.4419136,205.078125,-14.16015625,195.80078125,-816.40625,0.0,0,0
1772272339.528762,1772272339.4458103,59.08203125,-20.99609375,-109.375,282.71484375,0.0,0,0
1772272339.528787,1772272339.449707,-242.67578125,-51.26953125,-250.48828125,-998.53515625,0.0,0,0
1772272339.528812,1772272339.453604,-282.71484375,-45.8984375,-91.30859375,-1000.0,0.0,0,0
1772272339.528836,1772272339.4575007,-21.97265625,-17.578125,189.94140625,97.65625,0.0,0,0
1772272339.5288599,1772272339.4613976,213.8671875,-10.7421875,205.078125,-842.7734375,0.0,0,0
1772272339.528884,1772272339.4652944,114.2578125,-39.55078125,-54.19921875,488.76953125,0.0,0,0
1772272339.5438771,1772272339.469348,-208.984375,-58.10546875,-234.375,-811.5234375,0.0,0,0
1772272339.543953,1772272339.473245,-312.5,-19.04296875,-142.578125,-1000.0,0.0,0,0
1772272339.5439832,1772272339.4771416,-37.109375,4.8828125,139.16015625,-14.6484375,0.0,0,0
1772272339.544008,1772272339.4810386,220.703125,-15.13671875,198.73046875,-866.2109375,0.0,0,0
1772272339.544032,1772272339.4849353,143.5546875,-28.80859375,-27.83203125,599.12109375,0.0,0,0
1772272339.5440571,1772272339.4888322,-156.25,-38.57421875,-242.67578125,-664.0625,0.0,0,0
1772272339.544082,1772272339.492729,-294.43359375,-36.1328125,-186.03515625,-1000.0,0.0,0,0
1772272339.544106,1772272339.496626,-65.4296875,-14.6484375,90.8203125,-153.80859375,0.0,0,0
1772272339.54413,1772272339.5005226,193.84765625,-14.6484375,186.03515625,-920.41015625,0.0,0,0
1772272339.544155,1772272339.5044196,156.25,-26.85546875,-8.30078125,785.15625,0.0,0,0
1772272339.54418,1772272339.5083163,-135.25390625,-57.12890625,-250.9765625,-442.3828125,0.0,0,0
1772272339.544205,1772272339.5122132,-328.61328125,-55.17578125,-204.1015625,-1000.0,0.0,0,0
1772272339.590827,1772272339.5162525,-134.27734375,-3.90625,63.4765625,-261.23046875,0.0,0,0
1772272339.590938,1772272339.5201495,169.43359375,2.9296875,188.4765625,-985.3515625,0.0,0,0
1772272339.590966,1772272339.5240462,202.63671875,-35.64453125,51.7578125,916.50390625,0.0,0,0
1772272339.590992,1772272339.5279431,-112.3046875,-74.21875,-253.41796875,-253.90625,0.0,0,0
1772272339.591017,1772272339.5318398,-328.125,-25.87890625,-240.234375,-1000.0,0.0,0,0
1772272339.591041,1772272339.5357368,-148.4375,10.25390625,59.5703125,-371.09375,0.0,0,0
1772272339.5910668,1772272339.5396335,145.99609375,-12.20703125,166.50390625,921.875,0.0,0,0
1772272339.5910919,1772272339.5435305,204.58984375,-15.13671875,62.98828125,-984.375,0.0,0,0
1772272339.591116,1772272339.5474274,-65.91796875,-54.6875,-204.1015625,-99.12109375,0.0,0,0
1772272339.59114,1772272339.5513241,-303.7109375,-76.171875,-268.5546875,-1000.0,0.0,0,0
1772272339.5911639,1772272339.555221,-179.6875,-33.203125,-13.18359375,-526.3671875,0.0,0,0
1772272339.591189,1772272339.5591178,164.55078125,8.7890625,191.89453125,770.99609375,0.0,0,0
1772272339.633395,1772272339.5631468,262.20703125,-9.765625,100.5859375,-899.90234375,0.0,0,0
1772272339.633492,1772272339.5670438,10.7421875,-50.29296875,-188.96484375,17.08984375,0.0,0,0
1772272339.633518,1772272339.5709405,-239.74609375,-53.22265625,-269.53125,-1000.0,0.0,0,0
1772272339.633545,1772272339.5748374,-186.03515625,-13.18359375,-23.92578125,-666.50390625,0.0,0,0
1772272339.6335711,1772272339.5787344,89.84375,17.578125,225.09765625,600.5859375,0.0,0,0
1772272339.633596,1772272339.582631,233.88671875,-5.859375,146.484375,-844.7265625,0.0,0,0
1772272339.6336188,1772272339.586528,24.90234375,-46.875,-149.90234375,135.7421875,0.0,0,0
1772272339.633644,1772272339.590425,-270.01953125,-55.17578125,-242.1875,-1000.0,0.0,0,0
1772272339.633667,1772272339.5943217,-274.4140625,-29.78515625,-88.37890625,-864.74609375,0.0,0,0
1772272339.633696,1772272339.5982187,43.9453125,-2.9296875,183.59375,336.9140625,0.0,0,0
1772272339.633719,1772272339.6021156,256.8359375,-15.13671875,169.43359375,-819.3359375,0.0,0,0
1772272339.633743,1772272339.6060123,46.38671875,-48.828125,-108.3984375,265.13671875,0.0,0,0
1772272339.6787221,1772272339.6100273,-234.86328125,-59.08203125,-214.84375,-1000.0,0.0,0,0
1772272339.678827,1772272339.6139243,-242.67578125,-37.59765625,-85.44921875,-965.33203125,0.0,0,0
1772272339.678856,1772272339.617821,62.01171875,3.90625,192.87109375,205.56640625,0.0,0,0
1772272339.6788821,1772272339.621718,310.546875,-8.30078125,182.6171875,-822.265625,0.0,0,0
1772272339.678907,1772272339.625615,123.53515625,-50.29296875,-92.28515625,366.2109375,0.0,0,0
1772272339.678932,1772272339.6295116,-212.40234375,-62.5,-232.421875,-913.0859375,0.0,0,0
1772272339.678956,1772272339.6334085,-276.85546875,-49.8046875,-129.39453125,-1000.0,0.0,0,0
1772272339.67898,1772272339.6373055,-20.99609375,-14.6484375,126.953125,-21.484375,0.0,0,0
1772272339.679004,1772272339.6412024,250.9765625,-0.48828125,181.640625,-849.12109375,0.0,0,0
1772272339.679041,1772272339.6450992,166.9921875,-30.76171875,-43.9453125,516.11328125,0.0,0,0
1772272339.679065,1772272339.648996,-160.64453125,-55.17578125,-238.28125,-770.01953125,0.0,0,0
1772272339.679092,1772272339.652893,-291.015625,-44.921875,-166.50390625,-1000.0,0.0,0,0
1772272339.724142,1772272339.6568978,-79.58984375,-19.04296875,111.328125,-127.44140625,0.0,0,0
1772272339.724255,1772272339.6607947,226.5625,3.41796875,214.35546875,-887.20703125,0.0,0,0
1772272339.724285,1772272339.6646917,191.89453125,-17.578125,-6.34765625,662.109375,0.0,0,0
1772272339.724312,1772272339.6685886,-151.85546875,-53.22265625,-258.30078125,-604.98046875,0.0,0,0
1772272339.7243378,1772272339.6724856,-306.640625,-45.41015625,-203.61328125,-1000.0,0.0,0,0
1772272339.724363,1772272339.6763823,-122.55859375,-18.06640625,78.61328125,-213.8671875,0.0,0,0
1772272339.7243881,1772272339.6802793,163.57421875,-1.953125,203.125,-941.40625,0.0,0,0
1772272339.724413,1772272339.6841762,143.06640625,-27.34375,20.5078125,809.08203125,0.0,0,0
1772272339.724437,1772272339.6880732,-203.61328125,-48.828125,-245.60546875,-413.57421875,0.0,0,0
1772272339.724461,1772272339.69197,-413.0859375,-32.2265625,-194.3359375,-1000.0,0.0,0,0
1772272339.7244842,1772272339.6958668,-291.50390625,-11.71875,68.359375,-369.62890625,0.0,0,0
1772272339.7245078,1772272339.6997638,-41.50390625,-14.6484375,187.98828125,940.91796875,0.0,0,0
1772272339.768488,1772272339.7037594,13.671875,-30.2734375,66.89453125,949.70703125,0.0,0,0
1772272339.768589,1772272339.7076564,-277.34375,-73.73046875,-240.72265625,-232.91015625,0.0,0,0
1772272339.768621,1772272339.7115533,-542.96875,-76.171875,-263.18359375,-1000.0,0.0,0,0
1772272339.768646,1772272339.7154503,-441.89453125,-6.8359375,8.30078125,-509.765625,0.0,0,0
1772272339.768671,1772272339.7193472,-101.07421875,33.203125,196.2890625,796.38671875,0.0,0,0
1772272339.768696,1772272339.723244,50.78125,14.6484375,116.69921875,-942.3828125,0.0,0,0
1772272339.76872,1772272339.727141,-213.37890625,-49.31640625,-204.58984375,-84.47265625,0.0,0,0
1772272339.768744,1772272339.7310379,-455.078125,-52.24609375,-264.16015625,-1000.0,0.0,0,0
1772272339.768768,1772272339.7349348,-329.58984375,0.9765625,-10.25390625,-654.296875,0.0,0,0
1772272339.768794,1772272339.7388318,-18.5546875,2.44140625,195.80078125,617.1875,0.0,0,0
1772272339.768818,1772272339.7427287,119.140625,-16.6015625,109.86328125,-866.69921875,0.0,0,0
1772272339.768842,1772272339.7466257,-121.58203125,-64.453125,-182.12890625,38.57421875,0.0,0,0
1772272339.858932,1772272339.7508411,-404.78515625,-89.84375,-253.41796875,-1000.0,0.0,0,0
1772272339.859222,1772272339.754738,-348.6328125,-37.59765625,-60.546875,-796.38671875,0.0,0,0
1772272339.8592691,1772272339.758635,-32.2265625,14.6484375,185.546875,423.33984375,0.0,0,0
1772272339.859309,1772272339.7625322,171.38671875,8.30078125,148.92578125,-824.21875,0.0,0,0
1772272339.859348,1772272339.7664292,-26.3671875,-12.6953125,-143.5546875,164.55078125,0.0,0,0
1772272339.8593862,1772272339.7703261,-309.08203125,-27.34375,-244.62890625,-1000.0,0.0,0,0
1772272339.859424,1772272339.774223,-356.93359375,-64.94140625,-117.67578125,-938.96484375,0.0,0,0
1772272339.8594618,1772272339.77812,-52.24609375,-52.24609375,140.13671875,212.40234375,0.0,0,0
1772272339.859532,1772272339.782017,187.01171875,-22.4609375,152.34375,-815.4296875,0.0,0,0
1772272339.859599,1772272339.785914,16.6015625,-55.6640625,-111.81640625,293.45703125,0.0,0,0
1772272339.859663,1772272339.789811,-288.57421875,-66.40625,-259.765625,-990.234375,0.0,0,0
1772272339.859713,1772272339.7937078,-365.234375,-48.33984375,-128.41796875,-1000.0,0.0,0,0
1772272339.873421,1772272339.7976992,-77.63671875,-26.85546875,171.38671875,85.9375,0.0,0,0
1772272339.873533,1772272339.8015962,199.21875,-20.01953125,192.87109375,-834.9609375,0.0,0,0
1772272339.873587,1772272339.805493,86.42578125,-57.6171875,-59.08203125,456.54296875,0.0,0,0
1772272339.8736389,1772272339.80939,-257.8125,-79.1015625,-242.67578125,-843.75,0.0,0,0
1772272339.8736901,1772272339.8132873,-362.3046875,-57.12890625,-153.80859375,-1000.0,0.0,0,0
1772272339.8737411,1772272339.8171842,-113.28125,-28.3203125,127.44140625,-17.578125,0.0,0,0
1772272339.8737931,1772272339.8210812,115.72265625,-22.4609375,141.6015625,-869.62890625,0.0,0,0
1772272339.873845,1772272339.824978,36.62109375,-22.94921875,-54.19921875,627.44140625,0.0,0,0
1772272339.873896,1772272339.828875,-263.671875,-44.921875,-235.3515625,-651.3671875,0.0,0,0
1772272339.873952,1772272339.832772,-373.046875,-58.10546875,-160.15625,-1000.0,0.0,0,0
1772272339.874002,1772272339.836669,-128.90625,-22.4609375,126.46484375,-107.421875,0.0,0,0
1772272339.874053,1772272339.840566,156.73828125,-18.5546875,196.77734375,-904.78515625,0.0,0,0
1772272339.9188411,1772272339.8446088,164.0625,-53.22265625,7.8125,733.88671875,0.0,0,0
1772272339.918977,1772272339.8485057,-152.34375,-81.0546875,-258.30078125,-496.09375,0.0,0,0
1772272339.919022,1772272339.852403,-337.890625,-74.70703125,-231.93359375,-1000.0,0.0,0,0
1772272339.919062,1772272339.8562999,-115.234375,-42.48046875,58.59375,-252.44140625,0.0,0,0
1772272339.919101,1772272339.8601968,194.82421875,-22.94921875,166.9921875,-976.5625,0.0,0,0
1772272339.9191391,1772272339.8640938,239.2578125,-13.671875,18.5546875,891.6015625,0.0,0,0
1772272339.919178,1772272339.8679907,-66.40625,-58.10546875,-265.13671875,-287.59765625,0.0,0,0
1772272339.9192162,1772272339.871888,-313.96484375,-87.890625,-271.97265625,-1000.0,0.0,0,0
1772272339.919253,1772272339.8757849,-134.765625,-40.52734375,17.578125,-372.0703125,0.0,0,0
1772272339.91929,1772272339.8796818,200.1953125,-8.30078125,171.38671875,926.26953125,0.0,0,0
1772272339.919329,1772272339.8835788,284.1796875,-4.8828125,77.1484375,-1000.0,0.0,0,0
1772272339.9193652,1772272339.8874757,-24.4140625,-39.55078125,-213.37890625,-133.30078125,0.0,0,0
1772272339.963395,1772272339.8915114,-291.50390625,-52.734375,-249.51171875,-1000.0,0.0,0,0
1772272339.96348,1772272339.8954084,-166.50390625,-22.4609375,0.9765625,-503.41796875,0.0,0,0
1772272339.963509,1772272339.8993053,148.4375,-12.6953125,174.8046875,793.9453125,0.0,0,0
1772272339.963535,1772272339.9032025,277.34375,-22.4609375,65.4296875,-912.109375,0.0,0,0
1772272339.963559,1772272339.9070995,43.9453125,-42.96875,-208.49609375,1.953125,0.0,0,0
1772272339.963584,1772272339.9109964,-248.53515625,-55.17578125,-245.1171875,-1000.0,0.0,0,0
1772272339.9636102,1772272339.9148934,-196.77734375,-40.52734375,-18.06640625,-642.578125,0.0,0,0
1772272339.963638,1772272339.9187906,142.578125,-14.16015625,197.265625,622.55859375,0.0,0,0
1772272339.9636621,1772272339.9226875,277.34375,-18.06640625,119.62890625,-849.609375,0.0,0,0
1772272339.963687,1772272339.9265845,74.70703125,-45.41015625,-160.64453125,138.18359375,0.0,0,0
1772272339.963711,1772272339.9304817,-180.6640625,-47.36328125,-248.53515625,-1000.0,0.0,0,0
1772272339.963734,1772272339.9343786,-186.5234375,-33.203125,-75.1953125,-819.82421875,0.0,0,0
1772272340.0116181,1772272339.938404,137.6953125,-32.2265625,177.734375,403.80859375,0.0,0,0
1772272340.01173,1772272339.9423013,332.03125,-3.41796875,155.2734375,-821.2890625,0.0,0,0
1772272340.011758,1772272339.9461982,144.04296875,-35.15625,-145.01953125,249.0234375,0.0,0,0
1772272340.011785,1772272339.9500952,-157.71484375,-59.08203125,-256.8359375,-1000.0,0.0,0,0
1772272340.01181,1772272339.9539924,-199.70703125,-30.76171875,-103.515625,-948.73046875,0.0,0,0
1772272340.0118349,1772272339.9578893,110.3515625,-15.625,164.0625,224.12109375,0.0,0,0
1772272340.011861,1772272339.9617863,333.984375,-13.18359375,170.8984375,-823.2421875,0.0,0,0
1772272340.0118852,1772272339.9656835,186.5234375,-31.25,-103.515625,354.98046875,0.0,0,0
1772272340.011909,1772272339.9695804,-149.4140625,-49.31640625,-250.48828125,-948.73046875,0.0,0,0
1772272340.011934,1772272339.9734774,-214.84375,-34.1796875,-111.81640625,-1000.0,0.0,0,0
1772272340.011957,1772272339.9773746,74.21875,-13.671875,162.109375,102.05078125,0.0,0,0
1772272340.0119839,1772272339.9812715,317.87109375,-32.2265625,186.5234375,-842.7734375,0.0,0,0
1772272340.0531998,1772272339.9852872,232.91015625,-43.45703125,-60.546875,493.1640625,0.0,0,0
1772272340.0533152,1772272339.9891844,-107.91015625,-51.26953125,-278.80859375,-799.31640625,0.0,0,0
1772272340.0533419,1772272339.9930813,-208.984375,-27.83203125,-185.546875,-1000.0,0.0,0,0
1772272340.053368,1772272339.9969783,60.546875,17.08984375,108.88671875,-57.12890625,0.0,0,0
1772272340.053393,1772272340.0008755,331.54296875,17.08984375,187.01171875,-884.765625,0.0,0,0
1772272340.053418,1772272340.0047724,295.8984375,-20.5078125,1.953125,684.5703125,0.0,0,0
1772272340.053445,1772272340.0086696,-72.75390625,-64.453125,-251.46484375,-572.265625,0.0,0,0
1772272340.05347,1772272340.0125666,-265.625,-58.59375,-196.77734375,-1000.0,0.0,0,0
1772272340.053494,1772272340.0164638,20.01953125,-4.8828125,117.67578125,-154.78515625,0.0,0,0
1772272340.053518,1772272340.0203607,329.58984375,14.16015625,180.6640625,-916.9921875,0.0,0,0
1772272340.0535429,1772272340.0242577,255.37109375,-19.04296875,-39.0625,772.94921875,0.0,0,0
1772272340.053567,1772272340.0281549,-80.078125,-46.38671875,-286.1328125,-453.125,0.0,0,0
1772272340.129785,1772272340.0323124,-269.53125,-22.4609375,-218.75,-1000.0,0.0,0,0
1772272340.129895,1772272340.0362096,-95.703125,-10.7421875,50.29296875,-306.15234375,0.0,0,0
1772272340.129923,1772272340.0401065,238.28125,-18.5546875,201.171875,982.421875,0.0,0,0
1772272340.1299489,1772272340.0440037,300.29296875,-41.9921875,56.15234375,941.89453125,0.0,0,0
1772272340.1299741,1772272340.0479007,-24.4140625,-63.96484375,-279.296875,-222.65625,0.0,0,0
1772272340.1299992,1772272340.0517979,-306.15234375,-55.6640625,-273.4375,-1000.0,0.0,0,0
1772272340.130024,1772272340.055695,-178.7109375,-23.4375,20.01953125,-448.73046875,0.0,0,0
1772272340.130048,1772272340.059592,150.87890625,22.4609375,209.9609375,863.76953125,0.0,0,0
1772272340.130073,1772272340.0634892,255.37109375,-10.7421875,83.49609375,-967.28515625,0.0,0,0
1772272340.130097,1772272340.0673862,-65.91796875,-70.3125,-219.7265625,-102.05078125,0.0,0,0
1772272340.130122,1772272340.0712833,-386.23046875,-72.265625,-259.27734375,-1000.0,0.0,0,0
1772272340.130153,1772272340.0751803,-265.625,-45.8984375,-6.34765625,-550.29296875,0.0,0,0
1772272340.1450071,1772272340.0791821,113.28125,0.0,204.1015625,740.234375,0.0,0,0
1772272340.1451142,1772272340.083079,255.37109375,-26.85546875,118.1640625,-887.20703125,0.0,0,0
1772272340.145142,1772272340.0869763,4.8828125,-71.2890625,-168.9453125,37.109375,0.0,0,0
1772272340.1451678,1772272340.0908732,-298.33984375,-55.17578125,-241.2109375,-1000.0,0.0,0,0
1772272340.1451929,1772272340.0947704,-271.484375,-20.99609375,-31.25,-712.890625,0.0,0,0
1772272340.145312,1772272340.0986676,77.1484375,14.16015625,221.6796875,543.9453125,0.0,0,0
1772272340.1453388,1772272340.1025646,243.1640625,-15.625,138.18359375,-839.35546875,0.0,0,0
1772272340.1453629,1772272340.1064618,12.20703125,-46.38671875,-162.109375,134.27734375,0.0,0,0
1772272340.145389,1772272340.110359,-277.34375,-46.875,-220.703125,-1000.0,0.0,0,0
1772272340.1454122,1772272340.114256,-289.55078125,-43.45703125,-28.80859375,-884.765625,0.0,0,0
1772272340.1454358,1772272340.118153,28.3203125,-13.18359375,221.6796875,311.5234375,0.0,0,0
1772272340.145459,1772272340.1220503,254.39453125,-0.9765625,173.828125,-812.98828125,0.0,0,0
1772272340.2038,1772272340.1260326,37.59765625,-28.80859375,-97.65625,229.98046875,0.0,0,0
1772272340.203954,1772272340.1299298,-307.6171875,-51.26953125,-220.703125,-1000.0,0.0,0,0
1772272340.20401,1772272340.1338267,-369.62890625,-34.66796875,-76.66015625,-1000.0,0.0,0,0
1772272340.204063,1772272340.137724,-62.5,-2.44140625,241.2109375,105.46875,0.0,0,0
1772272340.204114,1772272340.141621,211.9140625,-2.44140625,254.8828125,-819.3359375,0.0,0,0
1772272340.204164,1772272340.145518,24.4140625,-34.1796875,-42.48046875,364.74609375,0.0,0,0
1772272340.204214,1772272340.1494153,-349.12109375,-61.03515625,-240.234375,-918.9453125,0.0,0,0
1772272340.2042649,1772272340.1533124,-445.80078125,-45.8984375,-113.76953125,-1000.0,0.0,0,0
1772272340.204315,1772272340.1572094,-148.92578125,-1.953125,199.21875,-56.15234375,0.0,0,0
1772272340.2043588,1772272340.1611066,151.85546875,33.203125,235.3515625,-839.84375,0.0,0,0
1772272340.2044091,1772272340.1650038,41.015625,5.37109375,-2.9296875,468.26171875,0.0,0,0
1772272340.204445,1772272340.1689007,-338.8671875,-41.9921875,-202.63671875,-820.3125,0.0,0,0
1772272340.24945,1772272340.1729553,-473.14453125,-27.83203125,-145.5078125,-1000.0,0.0,0,0
1772272340.249588,1772272340.1768522,-172.36328125,1.953125,140.13671875,-175.29296875,0.0,0,0
1772272340.24963,1772272340.1807494,144.53125,-7.32421875,246.09375,-893.5546875,0.0,0,0
1772272340.249671,1772272340.1846466,116.2109375,-35.15625,4.39453125,653.3203125,0.0,0,0
1772272340.2497091,1772272340.1885438,-195.3125,-45.8984375,-226.5625,-624.51171875,0.0,0,0
1772272340.249747,1772272340.192441,-362.79296875,-33.69140625,-125.9765625,-1000.0,0.0,0,0
1772272340.2497861,1772272340.196338,-128.90625,-23.4375,99.12109375,-221.6796875,0.0,0,0
1772272340.249823,1772272340.2002351,238.28125,-19.04296875,185.546875,-966.30859375,0.0,0,0
1772272340.24986,1772272340.2041323,277.34375,-32.2265625,35.64453125,875.0,0.0,0,0
1772272340.249897,1772272340.2080295,-79.1015625,-76.66015625,-254.8828125,-315.4296875,0.0,0,0
1772272340.2499342,1772272340.2119267,-297.36328125,-72.265625,-224.12109375,-1000.0,0.0,0,0
1772272340.24999,1772272340.2158237,-84.9609375,-20.5078125,63.4765625,-310.05859375,0.0,0,0
1772272340.294407,1772272340.219861,284.66796875,-24.4140625,195.3125,966.796875,0.0,0,0
1772272340.294492,1772272340.223758,383.30078125,-51.26953125,82.51953125,996.58203125,0.0,0,0
1772272340.2945201,1772272340.2276552,76.66015625,-63.96484375,-210.44921875,-110.83984375,0.0,0,0
1772272340.294544,1772272340.2315524,-202.63671875,-69.3359375,-242.1875,-1000.0,0.0,0,0
1772272340.2945678,1772272340.2354496,-66.40625,-44.43359375,25.87890625,-453.61328125,0.0,0,0
1772272340.294592,1772272340.2393467,323.2421875,-23.92578125,210.9375,849.609375,0.0,0,0
1772272340.294616,1772272340.243244,441.89453125,-47.36328125,83.984375,-925.29296875,0.0,0,0
1772272340.29464,1772272340.2471411,150.390625,-76.171875,-229.98046875,-5.859375,0.0,0,0
1772272340.294663,1772272340.2510383,-134.27734375,-52.24609375,-277.83203125,-1000.0,0.0,0,0
1772272340.294687,1772272340.2549353,-43.45703125,-9.765625,-29.296875,-574.70703125,0.0,0,0
1772272340.294711,1772272340.2588325,291.50390625,-1.46484375,192.87109375,708.984375,0.0,0,0
1772272340.2947352,1772272340.2627296,432.12890625,-8.7890625,130.37109375,-861.328125,0.0,0,0
1772272340.339254,1772272340.2667663,185.546875,-32.2265625,-171.875,133.7890625,0.0,0,0
1772272340.33937,1772272340.2706635,-168.9453125,-42.48046875,-274.90234375,-1000.0,0.0,0,0
1772272340.339402,1772272340.2745605,-175.29296875,-29.296875,-52.734375,-721.19140625,0.0,0,0
1772272340.3394291,1772272340.2784576,205.56640625,-15.13671875,204.1015625,538.0859375,0.0,0,0
1772272340.339454,1772272340.2823548,416.015625,-22.4609375,146.97265625,-833.49609375,0.0,0,0
1772272340.339478,1772272340.286252,195.80078125,-39.55078125,-130.37109375,250.48828125,0.0,0,0
1772272340.339502,1772272340.2901492,-169.43359375,-55.6640625,-281.73828125,-1000.0,0.0,0,0
1772272340.339526,1772272340.2940464,-238.76953125,-38.0859375,-131.8359375,-919.43359375,0.0,0,0
1772272340.33955,1772272340.2979436,120.1171875,14.6484375,188.4765625,282.71484375,0.0,0,0
1772272340.339573,1772272340.3018408,402.34375,6.8359375,192.87109375,-820.3125,0.0,0,0
1772272340.339597,1772272340.305738,215.8203125,-50.78125,-107.91015625,317.87109375,0.0,0,0
1772272340.339621,1772272340.3096352,-167.96875,-74.70703125,-257.8125,-979.98046875,0.0,0,0
1772272340.3846521,1772272340.313659,-231.93359375,-28.3203125,-113.76953125,-1000.0,0.0,0,0
1772272340.3847911,1772272340.3175561,91.796875,-6.34765625,188.96484375,139.16015625,0.0,0,0
1772272340.3848279,1772272340.3214533,343.75,-16.6015625,208.49609375,-839.35546875,0.0,0,0
1772272340.384853,1772272340.3253505,190.91796875,-51.26953125,-95.21484375,478.02734375,0.0,0,0
1772272340.3848782,1772272340.3292477,-219.7265625,-72.265625,-296.38671875,-813.96484375,0.0,0,0
1772272340.384903,1772272340.333145,-348.6328125,-46.38671875,-167.96875,-1000.0,0.0,0,0
1772272340.384927,1772272340.337042,-31.25,-38.0859375,118.1640625,-37.109375,0.0,0,0
1772272340.384952,1772272340.3409393,275.87890625,-12.20703125,179.6875,-873.046875,0.0,0,0
1772272340.384976,1772272340.3448365,222.65625,-16.6015625,-20.5078125,629.39453125,0.0,0,0
1772272340.3849988,1772272340.3487337,-119.62890625,-49.31640625,-233.88671875,-638.671875,0.0,0,0
1772272340.385024,1772272340.3526309,-321.2890625,-35.64453125,-178.22265625,-1000.0,0.0,0,0
1772272340.3850482,1772272340.356528,-82.03125,7.32421875,92.7734375,-149.4140625,0.0,0,0
1772272340.430757,1772272340.3605423,260.25390625,0.0,214.84375,-914.55078125,0.0,0,0
1772272340.430871,1772272340.3644395,234.375,-40.52734375,14.6484375,761.71875,0.0,0,0
1772272340.430898,1772272340.3683367,-127.44140625,-51.26953125,-283.69140625,-468.75,0.0,0,0
1772272340.430924,1772272340.3722339,-346.6796875,-39.55078125,-233.3984375,-1000.0,0.0,0,0
1772272340.430948,1772272340.376131,-158.69140625,-0.9765625,73.2421875,-269.04296875,0.0,0,0
1772272340.430974,1772272340.3800285,214.35546875,10.25390625,220.21484375,-975.5859375,0.0,0,0
1772272340.430999,1772272340.3839257,276.3671875,-25.390625,24.90234375,874.51171875,0.0,0,0
1772272340.4310231,1772272340.3878229,-93.75,-54.19921875,-291.9921875,-323.73046875,0.0,0,0
1772272340.431047,1772272340.39172,-343.26171875,-57.6171875,-264.6484375,-1000.0,0.0,0,0
1772272340.4310699,1772272340.3956172,-179.6875,-13.671875,44.43359375,-348.6328125,0.0,0,0
1772272340.4310951,1772272340.3995144,177.734375,9.27734375,219.7265625,938.96484375,0.0,0,0
1772272340.4311192,1772272340.4034116,303.7109375,-1.46484375,89.84375,-995.60546875,0.0,0,0
1772272340.473641,1772272340.4074154,-28.80859375,-23.4375,-217.7734375,-110.3515625,0.0,0,0
1772272340.473724,1772272340.4113126,-368.1640625,-53.7109375,-286.62109375,-1000.0,0.0,0,0
1772272340.473768,1772272340.41521,-292.96875,-30.2734375,-42.48046875,-555.6640625,0.0,0,0
1772272340.4738119,1772272340.4191072,79.1015625,12.20703125,197.265625,736.81640625,0.0,0,0
1772272340.4738402,1772272340.4230044,263.671875,-0.9765625,106.4453125,-884.27734375,0.0,0,0
1772272340.473866,1772272340.4269016,-28.3203125,-47.36328125,-187.01171875,46.875,0.0,0,0
1772272340.473891,1772272340.4307988,-375.48828125,-50.78125,-278.3203125,-1000.0,0.0,0,0
1772272340.4739149,1772272340.434696,-316.40625,-17.578125,-39.0625,-690.4296875,0.0,0,0
1772272340.473938,1772272340.4385934,45.8984375,-16.6015625,200.68359375,578.125,0.0,0,0
1772272340.474028,1772272340.4424906,260.25390625,-21.484375,104.00390625,-845.21484375,0.0,0,0
1772272340.4740539,1772272340.4463878,7.8125,-53.22265625,-187.01171875,119.140625,0.0,0,0
1772272340.474078,1772272340.450285,-351.5625,-73.73046875,-294.921875,-1000.0,0.0,0,0
1772272340.5185258,1772272340.4542801,-324.21875,-47.8515625,-85.44921875,-820.80078125,0.0,0,0
1772272340.51864,1772272340.4581776,59.5703125,0.0,204.1015625,408.69140625,0.0,0,0
1772272340.5186691,1772272340.4620748,316.40625,8.7890625,160.15625,-818.359375,0.0,0,0
1772272340.5186949,1772272340.465972,91.796875,-26.85546875,-128.41796875,225.09765625,0.0,0,0
1772272340.51872,1772272340.4698691,-259.765625,-39.55078125,-241.69921875,-1000.0,0.0,0,0
1772272340.51875,1772272340.4737663,-304.6875,-28.80859375,-85.44921875,-942.3828125,0.0,0,0
1772272340.518775,1772272340.4776638,0.0,-22.4609375,168.9453125,218.75,0.0,0,0
1772272340.518805,1772272340.481561,287.109375,-20.99609375,161.62109375,-826.171875,0.0,0,0
1772272340.518829,1772272340.4854581,131.34765625,-46.38671875,-95.703125,366.69921875,0.0,0,0
1772272340.5188532,1772272340.4893553,-253.90625,-45.8984375,-290.52734375,-929.19921875,0.0,0,0
1772272340.5188758,1772272340.4932528,-343.26171875,-26.3671875,-154.78515625,-1000.0,0.0,0,0
1772272340.5189,1772272340.49715,-12.6953125,2.9296875,189.94140625,47.36328125,0.0,0,0
1772272340.579102,1772272340.5011346,280.76171875,7.32421875,221.6796875,-841.796875,0.0,0,0
1772272340.579181,1772272340.505032,189.453125,-38.57421875,-57.12890625,493.1640625,0.0,0,0
1772272340.579208,1772272340.5089293,-191.40625,-64.453125,-293.9453125,-795.41015625,0.0,0,0
1772272340.579242,1772272340.5128264,-371.58203125,-55.17578125,-183.59375,-1000.0,0.0,0,0
1772272340.579267,1772272340.5167236,-79.1015625,-15.625,125.48828125,-102.5390625,0.0,0,0
1772272340.5792918,1772272340.520621,278.3203125,29.296875,201.171875,-880.859375,0.0,0,0
1772272340.579316,1772272340.5245183,249.0234375,0.48828125,-9.27734375,644.53125,0.0,0,0
1772272340.5793412,1772272340.5284154,-145.01953125,-58.59375,-254.39453125,-626.46484375,0.0,0,0
1772272340.579364,1772272340.5323129,-383.30078125,-51.7578125,-193.84765625,-1000.0,0.0,0,0
1772272340.579388,1772272340.53621,-118.65234375,-24.4140625,92.7734375,-189.453125,0.0,0,0
1772272340.579413,1772272340.5401073,261.23046875,-11.71875,193.84765625,-931.640625,0.0,0,0
1772272340.579436,1772272340.5440044,263.671875,-32.2265625,12.6953125,805.17578125,0.0,0,0
1772272340.6235268,1772272340.548055,-121.09375,-59.08203125,-274.4140625,-421.38671875,0.0,0,0
1772272340.623661,1772272340.5519521,-381.8359375,-58.10546875,-250.9765625,-1000.0,0.0,0,0
1772272340.62369,1772272340.5558496,-176.7578125,-21.484375,33.203125,-303.22265625,0.0,0,0
1772272340.6237152,1772272340.5597467,208.49609375,10.7421875,206.54296875,978.02734375,0.0,0,0
1772272340.6237388,1772272340.5636442,290.0390625,-8.7890625,86.9140625,960.44921875,0.0,0,0
1772272340.623769,1772272340.5675414,-49.8046875,-47.8515625,-220.703125,-174.31640625,0.0,0,0
1772272340.6237938,1772272340.5714386,-395.99609375,-87.40234375,-271.97265625,-1000.0,0.0,0,0
1772272340.623822,1772272340.575336,-272.94921875,-60.546875,0.0,-429.6875,0.0,0,0
1772272340.6238458,1772272340.5792332,140.625,-16.11328125,207.51953125,869.62890625,0.0,0,0
1772272340.62387,1772272340.5831304,303.7109375,-1.953125,113.76953125,-936.03515625,0.0,0,0
1772272340.623894,1772272340.5870278,1.46484375,-11.71875,-216.30859375,-24.90234375,0.0,0,0
1772272340.623917,1772272340.590925,-366.69921875,-56.640625,-299.31640625,-1000.0,0.0,0,0
1772272340.668473,1772272340.5949657,-287.109375,-37.109375,-14.16015625,-581.0546875,0.0,0,0
1772272340.668585,1772272340.598863,137.6953125,4.8828125,229.00390625,710.9375,0.0,0,0
1772272340.6686132,1772272340.6027603,318.359375,-9.27734375,122.55859375,-877.9296875,0.0,0,0
1772272340.6686468,1772272340.6066575,29.78515625,-22.94921875,-192.3828125,65.4296875,0.0,0,0
1772272340.668705,1772272340.6105547,-326.171875,-43.9453125,-280.76171875,-1000.0,0.0,0,0
1772272340.668737,1772272340.6144521,-311.5234375,-42.96875,-57.12890625,-726.07421875,0.0,0,0
1772272340.6687639,1772272340.6183493,58.59375,-9.765625,207.03125,528.3203125,0.0,0,0
1772272340.668789,1772272340.6222467,305.6640625,-17.08984375,158.203125,-831.54296875,0.0,0,0
1772272340.6688142,1772272340.626144,75.68359375,-43.9453125,-121.58203125,186.5234375,0.0,0,0
1772272340.6688378,1772272340.6300414,-291.50390625,-68.84765625,-257.32421875,-1000.0,0.0,0,0
1772272340.668863,1772272340.6339386,-311.03515625,-38.0859375,-83.49609375,-897.94921875,0.0,0,0
1772272340.668888,1772272340.637836,37.109375,-2.44140625,206.54296875,290.0390625,0.0,0,0
1772272340.731675,1772272340.6419406,310.546875,3.90625,209.47265625,-816.40625,0.0,0,0
1772272340.731803,1772272340.645838,136.71875,-14.16015625,-85.9375,297.8515625,0.0,0,0
1772272340.731832,1772272340.6497352,-247.0703125,-39.55078125,-270.99609375,-1000.0,0.0,0,0
1772272340.7318568,1772272340.6536326,-346.19140625,-32.2265625,-117.67578125,-1000.0,0.0,0,0
1772272340.731881,1772272340.65753,-20.99609375,-15.625,198.73046875,144.53125,0.0,0,0
1772272340.731905,1772272340.6614273,289.0625,12.20703125,215.33203125,-825.1953125,0.0,0,0
1772272340.731929,1772272340.6653247,164.0625,-27.34375,-97.65625,405.2734375,0.0,0,0
1772272340.731953,1772272340.6692219,-251.46484375,-82.03125,-286.1328125,-889.16015625,0.0,0,0
1772272340.731977,1772272340.6731193,-383.7890625,-57.6171875,-162.59765625,-1000.0,0.0,0,0
1772272340.732,1772272340.6770165,-41.015625,8.7890625,131.34765625,-31.73828125,0.0,0,0
1772272340.732024,1772272340.680914,297.36328125,16.11328125,193.84765625,-865.234375,0.0,0,0
1772272340.7320478,1772272340.684811,233.3984375,-27.83203125,-36.1328125,602.05078125,0.0,0,0
1772272340.75953,1772272340.6888378,-149.4140625,-51.26953125,-250.0,-672.8515625,0.0,0,0
1772272340.759638,1772272340.692735,-371.09375,-48.828125,-195.80078125,-1000.0,0.0,0,0
1772272340.759667,1772272340.6966324,-116.69921875,-29.296875,102.5390625,-156.73828125,0.0,0,0
1772272340.7596931,1772272340.7005298,269.53125,-25.390625,227.05078125,-907.71484375,0.0,0,0
1772272340.759718,1772272340.704427,280.76171875,-20.5078125,6.8359375,726.5625,0.0,0,0
1772272340.759742,1772272340.7083244,-107.421875,-31.73828125,-275.390625,-518.06640625,0.0,0,0
1772272340.759778,1772272340.7122219,-369.140625,-46.875,-232.91015625,-1000.0,0.0,0,0
1772272340.759802,1772272340.716119,-134.27734375,-9.27734375,70.3125,-248.046875,0.0,0,0
1772272340.759826,1772272340.7200165,270.5078125,9.27734375,231.93359375,-973.14453125,0.0,0,0
1772272340.75985,1772272340.7239137,342.28515625,-8.7890625,64.94140625,890.625,0.0,0,0
1772272340.759874,1772272340.727811,-27.83203125,-29.296875,-267.578125,-294.921875,0.0,0,0
1772272340.7599082,1772272340.7317085,-375.9765625,-45.8984375,-268.5546875,-1000.0,0.0,0,0
1772272340.803661,1772272340.735719,-205.078125,-23.4375,50.78125,-358.88671875,0.0,0,0
1772272340.8037481,1772272340.7396164,215.8203125,-1.953125,223.14453125,949.70703125,0.0,0,0
1772272340.8037791,1772272340.7435138,315.91796875,-13.18359375,77.1484375,976.07421875,0.0,0,0
1772272340.803804,1772272340.747411,-15.13671875,-39.0625,-238.28125,-177.24609375,0.0,0,0
1772272340.803835,1772272340.7513084,-344.7265625,-54.19921875,-261.23046875,-1000.0,0.0,0,0
1772272340.80386,1772272340.7552059,-246.09375,-36.1328125,14.16015625,-483.88671875,0.0,0,0
1772272340.803884,1772272340.759103,178.7109375,8.30078125,220.21484375,809.08203125,0.0,0,0
1772272340.803909,1772272340.7630005,351.5625,-13.671875,117.1875,-917.96875,0.0,0,0
1772272340.803933,1772272340.766898,15.625,-55.6640625,-210.9375,-10.7421875,0.0,0,0
1772272340.803957,1772272340.770795,-353.02734375,-43.9453125,-289.0625,-1000.0,0.0,0,0
1772272340.8039849,1772272340.7746925,-290.0390625,4.39453125,-38.57421875,-681.640625,0.0,0,0
1772272340.804009,1772272340.77859,108.88671875,31.25,221.19140625,590.8203125,0.0,0,0
1772272340.849356,1772272340.7825878,318.359375,-4.39453125,140.625,-847.16796875,0.0,0,0
1772272340.849459,1772272340.7864852,55.17578125,-45.41015625,-146.97265625,99.12109375,0.0,0,0
1772272340.849618,1772272340.7903826,-316.40625,-60.05859375,-249.51171875,-1000.0,0.0,0,0
1772272340.849647,1772272340.79428,-326.171875,-30.2734375,-63.96484375,-787.109375,0.0,0,0
1772272340.8496718,1772272340.7981775,72.75390625,4.8828125,218.75,443.84765625,0.0,0,0
1772272340.849697,1772272340.8020747,352.5390625,10.25390625,210.9375,-821.2890625,0.0,0,0
1772272340.84972,1772272340.805972,124.51171875,-36.1328125,-103.02734375,237.79296875,0.0,0,0
1772272340.8497438,1772272340.8098695,-293.45703125,-80.56640625,-268.06640625,-1000.0,0.0,0,0
1772272340.8497741,1772272340.813767,-375.0,-52.24609375,-92.7734375,-953.61328125,0.0,0,0
1772272340.849798,1772272340.8176641,22.94921875,-2.44140625,220.21484375,210.44921875,0.0,0,0
1772272340.849822,1772272340.8215616,323.2421875,-20.5078125,217.28515625,-818.359375,0.0,0,0
1772272340.8498461,1772272340.825459,117.67578125,-83.0078125,-100.09765625,324.21875,0.0,0,0
1772272340.907561,1772272340.8294487,-273.4375,-68.84765625,-258.7890625,-965.33203125,0.0,0,0
1772272340.9077172,1772272340.833346,-372.55859375,-22.4609375,-123.53515625,-1000.0,0.0,0,0
1772272340.907774,1772272340.8372433,-51.7578125,16.6015625,163.0859375,51.7578125,0.0,0,0
1772272340.907826,1772272340.8411407,294.921875,15.625,215.33203125,-833.984375,0.0,0,0
1772272340.907878,1772272340.8450382,184.08203125,-36.62109375,-61.5234375,449.21875,0.0,0,0
1772272340.9079292,1772272340.8489356,-227.5390625,-68.84765625,-283.69140625,-844.7265625,0.0,0,0
1772272340.90798,1772272340.852833,-379.8828125,-54.6875,-168.9453125,-1000.0,0.0,0,0
1772272340.908031,1772272340.8567302,-98.6328125,-4.8828125,129.8828125,-84.47265625,0.0,0,0
1772272340.9080808,1772272340.8606277,270.99609375,-2.9296875,210.9375,-869.140625,0.0,0,0
1772272340.9081311,1772272340.864525,217.7734375,-46.875,-22.4609375,597.65625,0.0,0,0
1772272340.90818,1772272340.8684225,-199.70703125,-54.6875,-293.9453125,-675.78125,0.0,0,0
1772272340.908229,1772272340.87232,-434.5703125,-28.3203125,-212.890625,-1000.0,0.0,0,0
1772272340.954389,1772272340.8762994,-203.61328125,4.39453125,104.4921875,-194.82421875,0.0,0,0
1772272340.95452,1772272340.8801968,207.51953125,17.578125,204.58984375,-927.734375,0.0,0,0
1772272340.95456,1772272340.8840942,242.67578125,-21.484375,8.7890625,779.78515625,0.0,0,0
1772272340.9545999,1772272340.8879917,-174.31640625,-65.4296875,-266.6015625,-465.8203125,0.0,0,0
1772272340.9546392,1772272340.891889,-408.69140625,-48.828125,-224.609375,-1000.0,0.0,0,0
1772272340.954677,1772272340.8957865,-181.15234375,-9.765625,91.30859375,-250.9765625,0.0,0,0
1772272340.954714,1772272340.8996837,201.66015625,6.34765625,212.890625,-973.14453125,0.0,0,0
1772272340.954751,1772272340.9035811,269.04296875,-6.8359375,33.203125,887.20703125,0.0,0,0
1772272340.9547892,1772272340.9074786,-106.93359375,-53.7109375,-270.99609375,-302.24609375,0.0,0,0
1772272340.954827,1772272340.911376,-419.43359375,-70.80078125,-283.203125,-1000.0,0.0,0,0
1772272340.954864,1772272340.9152734,-276.3671875,-35.64453125,20.01953125,-452.63671875,0.0,0,0
1772272340.9549031,1772272340.9191709,132.8125,0.9765625,231.93359375,857.91015625,0.0,0,0
1772272341.030914,1772272340.9233642,288.57421875,-19.04296875,96.19140625,-966.30859375,0.0,0,0
1772272341.031026,1772272340.9272616,-57.12890625,-53.22265625,-220.703125,-109.375,0.0,0,0
1772272341.031053,1772272340.931159,-417.96875,-38.0859375,-253.90625,-1000.0,0.0,0,0
1772272341.0310779,1772272340.9350564,-314.94140625,-18.5546875,16.11328125,-556.15234375,0.0,0,0
1772272341.031102,1772272340.9389539,81.54296875,-12.6953125,235.3515625,733.88671875,0.0,0,0
1772272341.031127,1772272340.9428513,266.11328125,12.20703125,144.53125,-876.953125,0.0,0,0
1772272341.031151,1772272340.9467487,11.71875,-27.83203125,-165.0390625,58.10546875,0.0,0,0
1772272341.0311759,1772272340.9506462,-362.3046875,-65.4296875,-261.71875,-1000.0,0.0,0,0
1772272341.0312,1772272340.9545436,-357.91015625,-35.64453125,-34.1796875,-756.34765625,0.0,0,0
1772272341.031224,1772272340.958441,44.921875,-12.6953125,224.609375,494.140625,0.0,0,0
1772272341.0312479,1772272340.9623384,253.90625,-2.44140625,171.38671875,-831.54296875,0.0,0,0
1772272341.031272,1772272340.966236,6.8359375,-42.48046875,-134.27734375,137.20703125,0.0,0,0
1772272341.044211,1772272340.970278,-331.0546875,-74.70703125,-248.046875,-1000.0,0.0,0,0
1772272341.0443451,1772272340.9741755,-373.53515625,-35.64453125,-56.640625,-880.859375,0.0,0,0
1772272341.044394,1772272340.978073,-9.27734375,21.484375,253.41796875,311.03515625,0.0,0,0
1772272341.044422,1772272340.9819705,296.38671875,29.78515625,243.1640625,-812.98828125,0.0,0,0
1772272341.044447,1772272340.985868,82.03125,-20.5078125,-77.1484375,235.3515625,0.0,0,0
1772272341.044472,1772272340.9897654,-360.3515625,-51.7578125,-236.328125,-1000.0,0.0,0,0
1772272341.0444958,1772272340.9936628,-430.6640625,-38.57421875,-102.05078125,-1000.0,0.0,0,0
1772272341.044522,1772272340.9975603,-66.89453125,-0.9765625,193.359375,84.47265625,0.0,0,0
1772272341.0445461,1772272341.0014577,233.3984375,-0.9765625,219.7265625,-821.2890625,0.0,0,0
1772272341.0445702,1772272341.0053551,52.24609375,-43.45703125,-51.7578125,356.4453125,0.0,0,0
1772272341.0445938,1772272341.0092525,-341.30859375,-77.63671875,-232.91015625,-931.640625,0.0,0,0
1772272341.044618,1772272341.0131502,-465.33203125,-63.4765625,-100.09765625,-1000.0,0.0,0,0
1772272341.088369,1772272341.0171776,-161.1328125,-0.48828125,213.37890625,-42.48046875,0.0,0,0
1772272341.0884821,1772272341.021075,190.4296875,29.78515625,246.58203125,-845.703125,0.0,0,0
1772272341.088514,1772272341.0249724,120.1171875,2.44140625,-4.8828125,499.0234375,0.0,0,0
1772272341.088553,1772272341.0288699,-289.55078125,-25.390625,-238.76953125,-789.0625,0.0,0,0
1772272341.088591,1772272341.0327673,-481.93359375,-40.0390625,-159.66796875,-1000.0,0.0,0,0
1772272341.08863,1772272341.0366647,-173.828125,5.37109375,166.50390625,-162.59765625,0.0,0,0
1772272341.088659,1772272341.0405624,223.6328125,27.83203125,243.1640625,-887.6953125,0.0,0,0
1772272341.0886872,1772272341.0444598,197.75390625,-14.16015625,-13.671875,638.18359375,0.0,0,0
1772272341.088715,1772272341.0483572,-182.12890625,-37.109375,-271.484375,-639.16015625,0.0,0,0
1772272341.0887418,1772272341.0522547,-373.53515625,-32.71484375,-197.265625,-1000.0,0.0,0,0
1772272341.088769,1772272341.056152,-107.421875,-7.32421875,85.44921875,-247.55859375,0.0,0,0
1772272341.088796,1772272341.0600498,277.83203125,10.7421875,207.03125,-972.16796875,0.0,0,0
1772272341.135989,1772272341.0640697,344.7265625,-0.9765625,41.50390625,870.1171875,0.0,0,0
1772272341.136148,1772272341.0679672,30.76171875,-22.94921875,-270.99609375,-322.75390625,0.0,0,0
1772272341.136207,1772272341.0718648,-221.19140625,-21.484375,-265.625,-1000.0,0.0,0,0
1772272341.13626,1772272341.0757623,-41.015625,0.0,38.0859375,-322.75390625,0.0,0,0
1772272341.13631,1772272341.0796597,328.61328125,12.20703125,188.96484375,962.40234375,0.0,0,0
1772272341.13636,1772272341.0835574,418.45703125,7.32421875,67.3828125,997.55859375,0.0,0,0
1772272341.13641,1772272341.0874548,70.3125,-53.7109375,-246.09375,-119.62890625,0.0,0,0
1772272341.1364648,1772272341.0913522,-221.6796875,-76.171875,-293.45703125,-1000.0,0.0,0,0
1772272341.1365151,1772272341.0952497,-98.6328125,-22.94921875,-3.90625,-458.49609375,0.0,0,0
1772272341.136565,1772272341.0991473,323.2421875,22.94921875,223.14453125,840.33203125,0.0,0,0
1772272341.1366148,1772272341.1030447,505.37109375,9.27734375,117.67578125,-913.0859375,0.0,0,0
1772272341.136665,1772272341.1069422,191.89453125,-31.73828125,-213.8671875,16.6015625,0.0,0,0
1772272341.179471,1772272341.110952,-168.45703125,-62.98828125,-278.80859375,-1000.0,0.0,0,0
1772272341.179611,1772272341.1148493,-100.09765625,-36.62109375,-26.3671875,-584.47265625,0.0,0,0
1772272341.1796548,1772272341.118747,299.31640625,0.48828125,205.56640625,698.2421875,0.0,0,0
1772272341.1796951,1772272341.1226444,477.05078125,-14.6484375,125.0,-857.421875,0.0,0,0
1772272341.179733,1772272341.1265419,224.12109375,-27.83203125,-163.57421875,136.71875,0.0,0,0
1772272341.179771,1772272341.1304395,-140.625,-38.57421875,-248.046875,-1000.0,0.0,0,0
1772272341.1799428,1772272341.134337,-162.59765625,-28.80859375,-83.49609375,-805.17578125,0.0,0,0
1772272341.1799848,1772272341.1382344,215.8203125,-8.30078125,198.73046875,438.96484375,0.0,0,0
1772272341.180023,1772272341.142132,482.91015625,-11.23046875,179.6875,-820.80078125,0.0,0,0
1772272341.1800609,1772272341.1460295,243.1640625,-40.52734375,-146.97265625,234.375,0.0,0,0
1772272341.180097,1772272341.149927,-173.33984375,-52.734375,-266.11328125,-1000.0,0.0,0,0
1772272341.180135,1772272341.1538246,-270.99609375,-53.7109375,-111.328125,-935.05859375,0.0,0,0
1772272341.224928,1772272341.1578252,88.8671875,-20.99609375,178.22265625,246.58203125,0.0,0,0
1772272341.225069,1772272341.161723,406.25,8.30078125,204.58984375,-815.91796875,0.0,0,0
1772272341.225111,1772272341.1656203,208.49609375,-44.921875,-95.703125,310.05859375,0.0,0,0
1772272341.225151,1772272341.169518,-171.875,-71.2890625,-247.55859375,-984.86328125,0.0,0,0
1772272341.2251909,1772272341.1734154,-255.37109375,-23.92578125,-91.796875,-1000.0,0.0,0,0
1772272341.225228,1772272341.1773129,62.98828125,14.16015625,166.015625,99.12109375,0.0,0,0
1772272341.225266,1772272341.1812105,370.60546875,0.48828125,194.82421875,-843.75,0.0,0,0
1772272341.225312,1772272341.185108,253.90625,-34.66796875,-55.6640625,500.0,0.0,0,0
1772272341.225366,1772272341.1890056,-157.71484375,-52.24609375,-276.3671875,-792.48046875,0.0,0,0
1772272341.2254038,1772272341.192903,-347.16796875,-51.26953125,-187.98828125,-1000.0,0.0,0,0
1772272341.22544,1772272341.1968005,-56.15234375,-25.87890625,110.3515625,-62.01171875,0.0,0,0
1772272341.225496,1772272341.2006981,302.24609375,8.30078125,198.73046875,-874.51171875,0.0,0,0
1772272341.285082,1772272341.2046902,258.30078125,-20.5078125,-19.53125,640.13671875,0.0,0,0
1772272341.285256,1772272341.2085876,-142.578125,-67.3828125,-261.23046875,-625.9765625,0.0,0,0
1772272341.285316,1772272341.2124853,-350.5859375,-49.8046875,-196.77734375,-1000.0,0.0,0,0
1772272341.2853692,1772272341.2163827,-106.4453125,-8.30078125,92.7734375,-189.94140625,0.0,0,0
1772272341.2854211,1772272341.2202804,255.37109375,5.859375,213.8671875,-934.08203125,0.0,0,0
1772272341.285474,1772272341.2241778,275.87890625,-20.01953125,26.85546875,806.640625,0.0,0,0
1772272341.285526,1772272341.2280755,-72.75390625,-55.17578125,-272.94921875,-422.8515625,0.0,0,0
1772272341.285579,1772272341.231973,-343.75,-53.7109375,-261.71875,-1000.0,0.0,0,0
1772272341.285629,1772272341.2358706,-154.78515625,-20.01953125,26.85546875,-298.828125,0.0,0,0
1772272341.28568,1772272341.239768,242.1875,9.27734375,191.89453125,997.55859375,0.0,0,0
1772272341.285735,1772272341.2436655,310.546875,-6.34765625,39.55078125,916.015625,0.0,0,0
1772272341.2857878,1772272341.2475631,-52.24609375,-58.59375,-278.3203125,-262.20703125,0.0,0,0
1772272341.3294709,1772272341.2516181,-345.703125,-64.453125,-255.859375,-1000.0,0.0,0,0
1772272341.3295958,1772272341.2555158,-184.08203125,-22.4609375,33.69140625,-407.71484375,0.0,0,0
1772272341.32963,1772272341.2594132,224.12109375,17.578125,216.796875,895.99609375,0.0,0,0
1772272341.329663,1772272341.263311,335.9375,-8.7890625,97.16796875,-964.84375,0.0,0,0
1772272341.3296928,1772272341.2672083,5.859375,-48.828125,-216.796875,-83.49609375,0.0,0,0
1772272341.329723,1772272341.271106,-312.01171875,-41.9921875,-238.28125,-1000.0,0.0,0,0
1772272341.329752,1772272341.2750037,-222.65625,-23.92578125,4.8828125,-571.2890625,0.0,0,0
1772272341.329781,1772272341.278901,190.4296875,0.9765625,211.9140625,715.33203125,0.0,0,0
1772272341.3298109,1772272341.2827988,378.41796875,6.34765625,128.90625,-875.0,0.0,0,0
1772272341.329841,1772272341.2866962,65.4296875,-16.6015625,-167.48046875,71.2890625,0.0,0,0
1772272341.32987,1772272341.2905939,-315.91796875,-60.05859375,-288.0859375,-1000.0,0.0,0,0
1772272341.3299,1772272341.2944913,-271.97265625,-33.203125,-73.73046875,-703.61328125,0.0,0,0
1772272341.375616,1772272341.298535,159.66796875,33.203125,207.51953125,563.4765625,0.0,0,0
1772272341.375731,1772272341.3024328,371.09375,12.6953125,139.16015625,-836.9140625,0.0,0,0
1772272341.3757582,1772272341.3063302,88.8671875,-64.94140625,-152.34375,155.2734375,0.0,0,0
1772272341.375784,1772272341.3102279,-270.01953125,-68.84765625,-238.76953125,-1000.0,0.0,0,0
1772272341.3758101,1772272341.3141253,-284.66796875,-12.20703125,-46.38671875,-838.37890625,0.0,0,0
1772272341.375835,1772272341.318023,57.6171875,20.99609375,227.5390625,384.27734375,0.0,0,0
1772272341.375859,1772272341.3219206,337.40234375,-2.44140625,181.15234375,-817.3828125,0.0,0,0
