timestamp,lsl_timestamp,TP9,AF7,AF8,TP10,Right AUX,keypress_A,keypress_B
1772203005.71089,1772203005.6255534,530.76171875,908.203125,649.90234375,333.49609375,0.0,0,0
1772203005.7110558,1772203005.6294484,-846.6796875,-392.578125,-725.5859375,-249.0234375,0.0,0,0
1772203005.711087,1772203005.6333437,-1000.0,-1000.0,-1000.0,-587.890625,0.0,0,0
1772203005.7111108,1772203005.637239,-217.28515625,-173.33984375,-132.8125,-159.66796875,0.0,0,0
1772203005.711134,1772203005.641134,-925.29296875,-998.53515625,-941.89453125,388.671875,0.0,0,0
1772203005.711158,1772203005.6450293,812.01171875,-961.9140625,896.484375,489.74609375,0.0,0,0
1772203005.7111812,1772203005.6489246,-540.52734375,-82.51953125,-390.625,-83.0078125,0.0,0,0
1772203005.711204,1772203005.6528196,-1000.0,-1000.0,-1000.0,-521.484375,0.0,0,0
1772203005.7112262,1772203005.656715,-180.6640625,-353.02734375,-172.8515625,-185.546875,0.0,0,0
1772203005.7112498,1772203005.6606102,-989.74609375,922.8515625,-995.1171875,407.71484375,0.0,0,0
1772203005.711273,1772203005.6645052,-982.421875,-905.2734375,-962.890625,577.1484375,0.0,0,0
1772203005.711297,1772203005.6684005,-180.6640625,96.19140625,-104.00390625,12.6953125,0.0,0,0
1772203005.740272,1772203005.6724296,-1000.0,-1000.0,-1000.0,-468.75,0.0,0,0
1772203005.740387,1772203005.6763248,-241.69921875,-531.73828125,-252.9296875,-223.6328125,0.0,0,0
1772203005.7404249,1772203005.6802201,969.7265625,833.984375,960.44921875,372.0703125,0.0,0,0
1772203005.7404559,1772203005.6841154,-933.10546875,-864.2578125,-918.9453125,628.41796875,0.0,0,0
1772203005.740488,1772203005.6880105,24.4140625,190.91796875,96.6796875,131.34765625,0.0,0,0
1772203005.7405188,1772203005.6919057,-1000.0,-1000.0,-1000.0,-413.0859375,0.0,0,0
1772203005.7405472,1772203005.695801,-438.96484375,-799.31640625,-419.43359375,-306.15234375,0.0,0,0
1772203005.740576,1772203005.6996963,877.9296875,567.3828125,890.625,291.9921875,0.0,0,0
1772203005.7406049,1772203005.7035913,-882.32421875,-810.05859375,-885.25390625,591.796875,0.0,0,0
1772203005.740635,1772203005.7074866,203.61328125,154.296875,199.70703125,148.4375,0.0,0,0
1772203005.740663,1772203005.711382,-1000.0,-1000.0,-1000.0,-377.44140625,0.0,0,0
1772203005.740691,1772203005.7152772,-673.828125,-1000.0,-674.31640625,-375.48828125,0.0,0,0
1772203005.788864,1772203005.7192981,720.21484375,214.84375,688.4765625,187.01171875,0.0,0,0
1772203005.788953,1772203005.7231934,-839.35546875,-768.5546875,-836.9140625,568.84765625,0.0,0,0
1772203005.78898,1772203005.7270887,171.875,202.63671875,174.31640625,214.84375,0.0,0,0
1772203005.789005,1772203005.730984,-1000.0,-1000.0,-1000.0,-355.46875,0.0,0,0
1772203005.7890298,1772203005.7348793,-912.59765625,-1000.0,-875.48828125,-436.5234375,0.0,0,0
1772203005.7890592,1772203005.7387745,403.3203125,12.6953125,415.0390625,120.1171875,0.0,0,0
1772203005.7890828,1772203005.7426696,-787.109375,-780.76171875,-795.41015625,553.7109375,0.0,0,0
1772203005.7891068,1772203005.7465649,142.578125,385.25390625,210.44921875,304.19921875,0.0,0,0
1772203005.789131,1772203005.7504601,-1000.0,-918.45703125,-1000.0,-296.38671875,0.0,0,0
1772203005.789154,1772203005.7543554,-1000.0,-1000.0,-1000.0,-461.9140625,0.0,0,0
1772203005.789176,1772203005.7582507,78.61328125,-193.359375,164.0625,50.29296875,0.0,0,0
1772203005.7891998,1772203005.762146,-769.04296875,-860.3515625,-791.015625,489.2578125,0.0,0,0
1772203005.830575,1772203005.766153,317.87109375,619.62890625,384.27734375,357.91015625,0.0,0,0
1772203005.8306901,1772203005.7700481,-956.0546875,-766.6015625,-929.6875,-247.55859375,0.0,0,0
1772203005.830732,1772203005.7739434,-1000.0,-1000.0,-1000.0,-510.25390625,0.0,0,0
1772203005.830771,1772203005.7778387,-109.86328125,-205.078125,-81.54296875,-25.390625,0.0,0,0
1772203005.830831,1772203005.781734,-817.3828125,-946.2890625,-846.19140625,465.8203125,0.0,0,0
1772203005.83087,1772203005.7856293,510.7421875,884.27734375,606.4453125,435.546875,0.0,0,0
1772203005.8309069,1772203005.7895246,-855.46875,-429.6875,-768.5546875,-168.45703125,0.0,0,0
1772203005.830944,1772203005.7934198,-1000.0,-1000.0,-1000.0,-513.18359375,0.0,0,0
1772203005.8309782,1772203005.7973151,-220.703125,-176.7578125,-157.2265625,-91.30859375,0.0,0,0
1772203005.8310149,1772203005.8012104,-918.9453125,-992.67578125,-931.15234375,422.8515625,0.0,0,0
1772203005.83106,1772203005.8051057,789.0625,-972.16796875,857.91015625,485.83984375,0.0,0,0
1772203005.8310962,1772203005.809001,-570.3125,-130.859375,-459.9609375,-87.40234375,0.0,0,0
1772203005.87503,1772203005.8129926,-1000.0,-1000.0,-1000.0,-518.06640625,0.0,0,0
1772203005.875176,1772203005.8168879,-184.08203125,-300.78125,-153.80859375,-177.24609375,0.0,0,0
1772203005.875218,1772203005.8207831,-983.88671875,944.3359375,-986.328125,365.234375,0.0,0,0
1772203005.875284,1772203005.8246784,-999.51171875,-916.015625,-979.00390625,503.41796875,0.0,0,0
1772203005.8753312,1772203005.8285737,-217.28515625,75.68359375,-144.53125,-37.109375,0.0,0,0
1772203005.87537,1772203005.832469,-1000.0,-1000.0,-1000.0,-530.76171875,0.0,0,0
1772203005.875405,1772203005.8363643,-213.37890625,-478.02734375,-229.00390625,-290.52734375,0.0,0,0
1772203005.8754659,1772203005.8402596,981.4453125,864.2578125,971.6796875,296.38671875,0.0,0,0
1772203005.87551,1772203005.8441548,-940.4296875,-875.48828125,-927.734375,516.11328125,0.0,0,0
1772203005.875566,1772203005.84805,2.9296875,200.1953125,59.5703125,28.80859375,0.0,0,0
1772203005.875603,1772203005.8519454,-1000.0,-1000.0,-1000.0,-473.6328125,0.0,0,0
1772203005.875647,1772203005.8558407,-401.85546875,-740.72265625,-398.92578125,-336.9140625,0.0,0,0
1772203005.9337962,1772203005.8598232,896.97265625,644.04296875,898.4375,249.0234375,0.0,0,0
1772203005.93395,1772203005.8637185,-890.625,-823.73046875,-888.18359375,531.73828125,0.0,0,0
1772203005.9339929,1772203005.8676138,186.5234375,163.57421875,196.2890625,90.8203125,0.0,0,0
1772203005.934031,1772203005.871509,-1000.0,-1000.0,-1000.0,-427.734375,0.0,0,0
1772203005.934069,1772203005.8754044,-631.34765625,-962.40234375,-642.08984375,-401.3671875,0.0,0,0
1772203005.9341068,1772203005.8792996,761.23046875,321.2890625,722.16796875,165.0390625,0.0,0,0
1772203005.934145,1772203005.883195,-847.65625,-776.3671875,-843.75,532.71484375,0.0,0,0
1772203005.9341812,1772203005.8870902,176.7578125,161.62109375,178.7109375,161.62109375,0.0,0,0
1772203005.934217,1772203005.8909855,-1000.0,-1000.0,-1000.0,-402.83203125,0.0,0,0
1772203005.934251,1772203005.8948808,-885.7421875,-1000.0,-830.078125,-463.8671875,0.0,0,0
1772203005.934287,1772203005.898776,444.3359375,41.9921875,474.609375,83.984375,0.0,0,0
1772203005.9343228,1772203005.9026713,-792.48046875,-772.94921875,-803.7109375,493.65234375,0.0,0,0
1772203006.009826,1772203005.90664,145.01953125,346.6796875,193.84765625,235.83984375,0.0,0,0
1772203006.009988,1772203005.9105353,-1000.0,-940.91796875,-1000.0,-350.5859375,0.0,0,0
1772203006.010046,1772203005.9144306,-1000.0,-1000.0,-997.0703125,-515.625,0.0,0,0
1772203006.010098,1772203005.918326,111.328125,-146.484375,177.24609375,6.8359375,0.0,0,0
1772203006.010153,1772203005.9222212,-766.6015625,-838.37890625,-787.109375,449.21875,0.0,0,0
1772203006.010205,1772203005.9261165,300.29296875,580.078125,362.3046875,286.1328125,0.0,0,0
1772203006.010255,1772203005.9300117,-965.33203125,-797.36328125,-937.01171875,-304.19921875,0.0,0,0
1772203006.0103061,1772203005.933907,-1000.0,-1000.0,-1000.0,-538.0859375,0.0,0,0
1772203006.010398,1772203005.9378023,-78.61328125,-214.84375,-84.9609375,-56.15234375,0.0,0,0
1772203006.010483,1772203005.9416976,-808.10546875,-924.31640625,-833.49609375,421.38671875,0.0,0,0
1772203006.010544,1772203005.945593,483.3984375,812.5,567.87109375,374.51171875,0.0,0,0
1772203006.010596,1772203005.9494884,-868.1640625,-540.52734375,-812.5,-231.93359375,0.0,0,0
1772203006.024833,1772203005.9534628,-1000.0,-1000.0,-1000.0,-566.40625,0.0,0,0
1772203006.0249128,1772203005.9573581,-226.07421875,-180.17578125,-123.046875,-135.25390625,0.0,0,0
1772203006.024965,1772203005.9612534,-907.71484375,-989.2578125,-916.015625,354.98046875,0.0,0,0
1772203006.0250602,1772203005.9651487,750.48828125,-982.91015625,816.40625,384.27734375,0.0,0,0
1772203006.025534,1772203005.969044,-621.09375,-178.7109375,-518.5546875,-202.1484375,0.0,0,0
1772203006.025577,1772203005.9729393,-1000.0,-1000.0,-1000.0,-619.140625,0.0,0,0
1772203006.025612,1772203005.9768348,-189.94140625,-269.04296875,-134.27734375,-261.23046875,0.0,0,0
1772203006.025651,1772203005.98073,-972.16796875,960.9375,-979.00390625,266.6015625,0.0,0,0
1772203006.0256882,1772203005.9846253,966.30859375,-928.22265625,-995.1171875,393.06640625,0.0,0,0
1772203006.025724,1772203005.9885206,-287.59765625,23.4375,-180.17578125,-140.625,0.0,0,0
1772203006.02576,1772203005.992416,-1000.0,-1000.0,-1000.0,-598.14453125,0.0,0,0
1772203006.025793,1772203005.9963112,-172.8515625,-457.51953125,-215.33203125,-330.56640625,0.0,0,0
1772203006.071053,1772203006.0003448,996.58203125,868.1640625,978.515625,239.2578125,0.0,0,0
1772203006.071157,1772203006.00424,-951.66015625,-877.44140625,-932.6171875,449.70703125,0.0,0,0
1772203006.071213,1772203006.0081353,-23.92578125,204.58984375,38.57421875,-53.7109375,0.0,0,0
1772203006.071266,1772203006.0120306,-1000.0,-1000.0,-1000.0,-543.9453125,0.0,0,0
1772203006.0713139,1772203006.0159261,-374.0234375,-698.2421875,-373.046875,-382.8125,0.0,0,0
1772203006.0713642,1772203006.0198214,912.59765625,694.82421875,911.1328125,212.40234375,0.0,0,0
1772203006.071414,1772203006.0237167,-898.4375,-832.51953125,-893.06640625,492.1875,0.0,0,0
1772203006.071469,1772203006.027612,154.296875,167.48046875,190.91796875,36.62109375,0.0,0,0
1772203006.071518,1772203006.0315075,-1000.0,-1000.0,-1000.0,-483.3984375,0.0,0,0
1772203006.071566,1772203006.0354028,-565.91796875,-945.3125,-579.1015625,-451.66015625,0.0,0,0
1772203006.071615,1772203006.039298,821.2890625,353.02734375,782.71484375,126.46484375,0.0,0,0
1772203006.071664,1772203006.0431933,-860.3515625,-780.2734375,-856.4453125,485.3515625,0.0,0,0
1772203006.114908,1772203006.0472162,185.546875,142.578125,185.546875,104.4921875,0.0,0,0
1772203006.1149929,1772203006.0511117,-1000.0,-1000.0,-1000.0,-453.125,0.0,0,0
1772203006.115031,1772203006.055007,-829.1015625,-1000.0,-794.43359375,-499.0234375,0.0,0,0
1772203006.115068,1772203006.0589023,527.83203125,69.82421875,529.78515625,64.453125,0.0,0,0
1772203006.115105,1772203006.0627978,-803.7109375,-769.53125,-810.546875,472.16796875,0.0,0,0
1772203006.115144,1772203006.066693,149.4140625,333.49609375,182.12890625,193.84765625,0.0,0,0
1772203006.115181,1772203006.0705884,-1000.0,-947.265625,-1000.0,-388.671875,0.0,0,0
1772203006.1152158,1772203006.0744839,-1000.0,-1000.0,-980.95703125,-539.55078125,0.0,0,0
1772203006.115252,1772203006.0783792,163.57421875,-132.8125,217.28515625,-16.11328125,0.0,0,0
1772203006.115289,1772203006.0822744,-765.13671875,-822.75390625,-785.15625,432.12890625,0.0,0,0
1772203006.1153321,1772203006.08617,255.37109375,521.97265625,334.47265625,260.7421875,0.0,0,0
1772203006.115368,1772203006.0900652,-986.328125,-852.5390625,-967.7734375,-350.5859375,0.0,0,0
1772203006.159971,1772203006.0940764,-1000.0,-1000.0,-1000.0,-585.9375,0.0,0,0
1772203006.160047,1772203006.0979717,-40.52734375,-219.23828125,25.390625,-83.0078125,0.0,0,0
1772203006.160087,1772203006.1018672,-794.921875,-918.9453125,-819.82421875,386.23046875,0.0,0,0
1772203006.1601238,1772203006.1057625,441.40625,792.96875,528.80859375,316.89453125,0.0,0,0
1772203006.160161,1772203006.109658,-891.11328125,-566.40625,-846.19140625,-265.13671875,0.0,0,0
1772203006.160198,1772203006.1135533,-1000.0,-1000.0,-1000.0,-582.03125,0.0,0,0
1772203006.1602318,1772203006.1174486,-217.28515625,-185.546875,-85.9375,-153.3203125,0.0,0,0
1772203006.1602712,1772203006.121344,-885.25390625,-977.5390625,-903.3203125,350.5859375,0.0,0,0
1772203006.16034,1772203006.1252394,684.5703125,984.86328125,770.5078125,387.20703125,0.0,0,0
1772203006.160406,1772203006.129135,-702.63671875,-244.140625,-577.63671875,-182.12890625,0.0,0,0
1772203006.160449,1772203006.1330302,-1000.0,-1000.0,-1000.0,-561.03515625,0.0,0,0
1772203006.160487,1772203006.1369257,-197.75390625,-236.328125,-146.97265625,-189.94140625,0.0,0,0
1772203006.208181,1772203006.1409364,-958.984375,973.14453125,-973.6328125,338.8671875,0.0,0,0
1772203006.208322,1772203006.1448317,923.828125,-937.01171875,988.76953125,446.77734375,0.0,0,0
1772203006.208365,1772203006.1487272,-367.67578125,0.9765625,-228.02734375,-117.1875,0.0,0,0
1772203006.208404,1772203006.1526225,-1000.0,-1000.0,-1000.0,-569.82421875,0.0,0,0
1772203006.20844,1772203006.156518,-173.33984375,-429.6875,-182.6171875,-291.015625,0.0,0,0
1772203006.20848,1772203006.1604133,-1000.0,883.30078125,990.72265625,262.20703125,0.0,0,0
1772203006.208521,1772203006.1643088,-959.9609375,-884.765625,-942.3828125,464.84375,0.0,0,0
1772203006.208559,1772203006.168204,-74.70703125,180.6640625,-0.48828125,-46.875,0.0,0,0
1772203006.208597,1772203006.1720996,-1000.0,-1000.0,-1000.0,-550.78125,0.0,0,0
1772203006.208632,1772203006.1759949,-340.8203125,-639.16015625,-339.84375,-378.41796875,0.0,0,0
1772203006.208669,1772203006.1798904,925.29296875,752.44140625,923.33984375,212.40234375,0.0,0,0
1772203006.2087061,1772203006.1837857,-905.2734375,-844.7265625,-898.4375,479.98046875,0.0,0,0
1772203006.250347,1772203006.187778,119.62890625,175.29296875,179.19921875,11.71875,0.0,0,0
1772203006.2504902,1772203006.1916735,-1000.0,-1000.0,-1000.0,-495.60546875,0.0,0,0
1772203006.250531,1772203006.195569,-539.55078125,-900.87890625,-530.2734375,-426.26953125,0.0,0,0
1772203006.25057,1772203006.1994643,831.54296875,421.875,821.2890625,169.921875,0.0,0,0
1772203006.250619,1772203006.2033598,-864.2578125,-788.0859375,-866.2109375,533.203125,0.0,0,0
1772203006.250658,1772203006.2072551,189.453125,142.578125,188.4765625,140.13671875,0.0,0,0
1772203006.2506938,1772203006.2111506,-1000.0,-1000.0,-1000.0,-415.0390625,0.0,0,0
1772203006.250742,1772203006.215046,-806.15234375,-1000.0,-827.63671875,-476.5625,0.0,0,0
1772203006.250777,1772203006.2189415,558.59375,74.21875,508.7890625,82.51953125,0.0,0,0
1772203006.250836,1772203006.2228367,-809.08203125,-768.5546875,-805.17578125,489.2578125,0.0,0,0
1772203006.2508721,1772203006.2267323,153.3203125,292.96875,158.69140625,184.08203125,0.0,0,0
1772203006.2509272,1772203006.2306278,-1000.0,-972.16796875,-1000.0,-393.5546875,0.0,0,0
1772203006.31007,1772203006.234694,-1000.0,-1000.0,-938.4765625,-512.6953125,0.0,0,0
1772203006.310199,1772203006.2385893,210.9375,-80.078125,273.92578125,33.203125,0.0,0,0
1772203006.310244,1772203006.2424848,-768.5546875,-806.15234375,-789.0625,459.9609375,0.0,0,0
1772203006.310283,1772203006.2463803,224.12109375,479.4921875,303.22265625,269.53125,0.0,0,0
1772203006.3103209,1772203006.2502756,-1000.0,-871.09375,-1000.0,-308.10546875,0.0,0,0
1772203006.310358,1772203006.2541711,-1000.0,-1000.0,-976.07421875,-529.296875,0.0,0,0
1772203006.310393,1772203006.2580667,-5.37109375,-227.05078125,175.78125,-30.76171875,0.0,0,0
1772203006.3104289,1772203006.261962,-786.1328125,-904.296875,-816.40625,435.546875,0.0,0,0
1772203006.310464,1772203006.2658575,411.62109375,742.1875,472.65625,351.07421875,0.0,0,0
1772203006.310504,1772203006.269753,-906.73828125,-632.32421875,-877.9296875,-251.953125,0.0,0,0
1772203006.3105412,1772203006.2736483,-1000.0,-1000.0,-1000.0,-575.68359375,0.0,0,0
1772203006.310574,1772203006.2775438,-191.40625,-190.4296875,-119.62890625,-144.04296875,0.0,0,0
1772203006.354825,1772203006.2815113,-869.62890625,-970.703125,-891.11328125,357.91015625,0.0,0,0
1772203006.354966,1772203006.2854068,651.3671875,963.8671875,736.81640625,375.0,0.0,0,0
1772203006.35502,1772203006.2893023,-731.4453125,-291.9921875,-634.27734375,-198.73046875,0.0,0,0
1772203006.355071,1772203006.2931979,-1000.0,-1000.0,-1000.0,-562.01171875,0.0,0,0
1772203006.355119,1772203006.2970932,-202.1484375,-182.6171875,-103.515625,-182.6171875,0.0,0,0
1772203006.355169,1772203006.3009887,-951.171875,995.60546875,-958.984375,358.88671875,0.0,0,0
1772203006.355219,1772203006.3048842,897.4609375,-952.63671875,956.0546875,473.14453125,0.0,0,0
1772203006.3552692,1772203006.3087795,-407.71484375,-38.0859375,-285.64453125,-110.3515625,0.0,0,0
1772203006.355338,1772203006.312675,-1000.0,-1000.0,-1000.0,-543.45703125,0.0,0,0
1772203006.35569,1772203006.3165705,-175.29296875,-386.71875,-165.52734375,-225.09765625,0.0,0,0
1772203006.355745,1772203006.320466,-996.09375,905.76171875,999.51171875,312.5,0.0,0,0
1772203006.355795,1772203006.3243613,-967.28515625,-895.5078125,-953.61328125,497.0703125,0.0,0,0
1772203006.400316,1772203006.3284066,-108.3984375,142.578125,-42.48046875,-0.48828125,0.0,0,0
1772203006.40046,1772203006.332302,-1000.0,-1000.0,-1000.0,-474.609375,0.0,0,0
1772203006.400501,1772203006.3361976,-302.734375,-580.56640625,-323.73046875,-295.8984375,0.0,0,0
1772203006.4005399,1772203006.3400931,942.87109375,805.6640625,930.17578125,273.92578125,0.0,0,0
1772203006.400578,1772203006.3439884,-915.0390625,-855.46875,-903.3203125,538.0859375,0.0,0,0
1772203006.400621,1772203006.347884,89.84375,181.640625,154.296875,60.546875,0.0,0,0
1772203006.400664,1772203006.3517795,-1000.0,-1000.0,-1000.0,-455.56640625,0.0,0,0
1772203006.400699,1772203006.355675,-501.46484375,-864.74609375,-502.9296875,-390.13671875,0.0,0,0
1772203006.400758,1772203006.3595705,851.07421875,477.5390625,842.7734375,188.96484375,0.0,0,0
1772203006.4008052,1772203006.363466,-871.58203125,-795.8984375,-870.1171875,513.671875,0.0,0,0
1772203006.400841,1772203006.3673613,196.77734375,147.94921875,194.82421875,84.9609375,0.0,0,0
1772203006.400897,1772203006.3712568,-1000.0,-1000.0,-1000.0,-454.1015625,0.0,0,0
1772203006.444602,1772203006.3752878,-754.39453125,-1000.0,-733.88671875,-476.5625,0.0,0,0
1772203006.4446669,1772203006.3791833,625.9765625,143.5546875,609.375,80.078125,0.0,0,0
1772203006.444692,1772203006.3830786,-821.2890625,-762.20703125,-823.73046875,486.81640625,0.0,0,0
1772203006.444712,1772203006.386974,161.62109375,240.72265625,167.96875,175.29296875,0.0,0,0
1772203006.444732,1772203006.3908696,-1000.0,-993.65234375,-1000.0,-416.015625,0.0,0,0
1772203006.44475,1772203006.3947651,-968.75,-1000.0,-879.8828125,-527.83203125,0.0,0,0
1772203006.444769,1772203006.3986607,304.6875,-43.9453125,365.72265625,19.04296875,0.0,0,0
1772203006.444822,1772203006.4025562,-775.390625,-792.48046875,-794.921875,440.4296875,0.0,0,0
1772203006.44487,1772203006.4064517,188.96484375,431.15234375,265.625,219.23828125,0.0,0,0
1772203006.444895,1772203006.4103472,-1000.0,-895.99609375,-1000.0,-345.703125,0.0,0,0
1772203006.444915,1772203006.4142427,-1000.0,-1000.0,-1000.0,-532.71484375,0.0,0,0
1772203006.4449332,1772203006.4181383,23.92578125,-235.3515625,71.77734375,-31.73828125,0.0,0,0
1772203006.491882,1772203006.4221637,-779.296875,-888.671875,-801.7578125,431.15234375,0.0,0,0
1772203006.49195,1772203006.4260592,376.46484375,687.5,451.171875,313.96484375,0.0,0,0
1772203006.4919732,1772203006.4299548,-927.734375,-704.1015625,-897.94921875,-303.22265625,0.0,0,0
1772203006.49199,1772203006.4338503,-1000.0,-1000.0,-1000.0,-595.703125,0.0,0,0
1772203006.4920058,1772203006.4377458,-144.04296875,-198.73046875,-90.33203125,-129.39453125,0.0,0,0
1772203006.492023,1772203006.4416413,-840.33203125,-955.078125,-872.0703125,379.8828125,0.0,0,0
1772203006.4920409,1772203006.4455369,582.51953125,915.52734375,681.15234375,368.1640625,0.0,0,0
1772203006.492058,1772203006.4494324,-794.43359375,-381.8359375,-688.96484375,-247.0703125,0.0,0,0
1772203006.492074,1772203006.453328,-1000.0,-1000.0,-1000.0,-623.53515625,0.0,0,0
1772203006.492089,1772203006.4572234,-210.9375,-172.8515625,-140.625,-221.19140625,0.0,0,0
1772203006.492105,1772203006.461119,-935.05859375,-999.51171875,-949.70703125,310.546875,0.0,0,0
1772203006.492121,1772203006.4650145,845.21484375,-959.9609375,921.875,390.13671875,0.0,0,0
1772203006.534376,1772203006.469022,-489.2578125,-73.2421875,-351.5625,-177.24609375,0.0,0,0
1772203006.534417,1772203006.4729176,-1000.0,-1000.0,-1000.0,-599.12109375,0.0,0,0
1772203006.534441,1772203006.476813,-178.7109375,-357.421875,-156.73828125,-282.71484375,0.0,0,0
1772203006.534464,1772203006.4807086,-992.67578125,918.9453125,-994.62890625,278.3203125,0.0,0,0
1772203006.5344908,1772203006.4846041,-975.5859375,-902.34375,-960.44921875,420.8984375,0.0,0,0
1772203006.534558,1772203006.4884996,-150.390625,118.65234375,-68.84765625,-123.046875,0.0,0,0
1772203006.5346189,1772203006.4923952,-1000.0,-1000.0,-1000.0,-575.68359375,0.0,0,0
1772203006.534646,1772203006.4962907,-263.671875,-565.91796875,-305.17578125,-356.93359375,0.0,0,0
1772203006.53467,1772203006.5001862,962.40234375,815.4296875,940.91796875,202.1484375,0.0,0,0
1772203006.534694,1772203006.5040817,-927.734375,-857.91015625,-909.1796875,450.1953125,0.0,0,0
1772203006.534718,1772203006.5079772,41.9921875,187.01171875,119.140625,-19.04296875,0.0,0,0
1772203006.534754,1772203006.511873,-1000.0,-1000.0,-1000.0,-533.203125,0.0,0,0
1772203006.611077,1772203006.5160494,-457.51953125,-816.40625,-449.21875,-434.08203125,0.0,0,0
1772203006.611177,1772203006.5199451,870.1171875,545.41015625,877.44140625,161.62109375,0.0,0,0
1772203006.611221,1772203006.5238407,-879.39453125,-806.15234375,-878.90625,481.4453125,0.0,0,0
1772203006.611259,1772203006.5277362,204.58984375,152.34375,203.125,54.19921875,0.0,0,0
1772203006.6112971,1772203006.5316317,-1000.0,-1000.0,-1000.0,-476.5625,0.0,0,0
1772203006.6113338,1772203006.5355275,-694.82421875,-1000.0,-630.37109375,-479.98046875,0.0,0,0
1772203006.61137,1772203006.539423,697.75390625,194.82421875,716.30859375,100.09765625,0.0,0,0
1772203006.611407,1772203006.5433185,-834.47265625,-766.11328125,-845.21484375,481.93359375,0.0,0,0
1772203006.611449,1772203006.547214,168.45703125,216.796875,175.78125,135.7421875,0.0,0,0
1772203006.611507,1772203006.5511098,-1000.0,-1000.0,-1000.0,-427.24609375,0.0,0,0
1772203006.611541,1772203006.5550053,-935.05859375,-1000.0,-872.55859375,-518.5546875,0.0,0,0
1772203006.6115782,1772203006.5589008,368.1640625,-22.94921875,402.34375,21.484375,0.0,0,0
1772203006.626786,1772203006.562899,-782.71484375,-787.59765625,-796.38671875,451.171875,0.0,0,0
1772203006.626891,1772203006.5667946,141.6015625,409.1796875,233.3984375,219.7265625,0.0,0,0
1772203006.626949,1772203006.5706902,-1000.0,-910.15625,-1000.0,-380.37109375,0.0,0,0
1772203006.627001,1772203006.574586,-1000.0,-1000.0,-994.140625,-575.68359375,0.0,0,0
1772203006.627051,1772203006.5784814,60.05859375,-193.84765625,169.921875,-45.8984375,0.0,0,0
1772203006.627102,1772203006.582377,-770.99609375,-871.09375,-797.36328125,430.6640625,0.0,0,0
1772203006.6271539,1772203006.5862727,334.47265625,659.66796875,412.109375,312.98828125,0.0,0,0
1772203006.627208,1772203006.5901682,-948.73046875,-723.6328125,-911.62109375,-296.875,0.0,0,0
1772203006.627258,1772203006.5940638,-1000.0,-1000.0,-1000.0,-584.47265625,0.0,0,0
1772203006.627305,1772203006.5979595,-125.48828125,-202.63671875,-103.515625,-111.81640625,0.0,0,0
1772203006.6273541,1772203006.601855,-823.2421875,-946.77734375,-856.93359375,375.0,0.0,0,0
1772203006.6274052,1772203006.6057506,529.78515625,887.20703125,638.671875,364.74609375,0.0,0,0
1772203006.670989,1772203006.6097353,-846.19140625,-424.8046875,-746.58203125,-226.07421875,0.0,0,0
1772203006.671084,1772203006.6136308,-1000.0,-1000.0,-1000.0,-570.80078125,0.0,0,0
1772203006.671115,1772203006.6175263,-217.7734375,-174.31640625,-116.69921875,-157.71484375,0.0,0,0
1772203006.671144,1772203006.621422,-923.828125,-997.55859375,-933.10546875,337.890625,0.0,0,0
1772203006.671177,1772203006.6253176,805.17578125,-964.35546875,870.60546875,412.109375,0.0,0,0
1772203006.671208,1772203006.6292133,-549.31640625,-96.6796875,-432.6171875,-149.4140625,0.0,0,0
1772203006.671238,1772203006.6331089,-1000.0,-1000.0,-1000.0,-564.94140625,0.0,0,0
1772203006.6712651,1772203006.6370044,-181.640625,-328.125,-154.78515625,-245.1171875,0.0,0,0
1772203006.671297,1772203006.6409001,-987.79296875,932.6171875,-991.69921875,292.48046875,0.0,0,0
1772203006.671326,1772203006.6447957,-988.76953125,-909.66796875,-966.796875,464.35546875,0.0,0,0
1772203006.671357,1772203006.6486914,-193.84765625,96.19140625,-106.4453125,-66.40625,0.0,0,0
1772203006.671385,1772203006.652587,-1000.0,-1000.0,-1000.0,-541.9921875,0.0,0,0
1772203006.730206,1772203006.6565573,-234.375,-525.87890625,-264.16015625,-309.08203125,0.0,0,0
1772203006.730329,1772203006.660453,973.14453125,837.40234375,958.984375,269.53125,0.0,0,0
1772203006.730345,1772203006.6643486,-935.546875,-866.2109375,-917.96875,495.1171875,0.0,0,0
1772203006.7303581,1772203006.6682444,13.671875,196.2890625,78.125,-12.6953125,0.0,0,0
1772203006.730371,1772203006.67214,-1000.0,-1000.0,-1000.0,-532.2265625,0.0,0,0
1772203006.7303832,1772203006.6760356,-418.45703125,-748.046875,-378.41796875,-380.37109375,0.0,0,0
1772203006.7303958,1772203006.6799312,888.671875,634.765625,909.1796875,229.98046875,0.0,0,0
1772203006.730408,1772203006.683827,-886.71875,-820.80078125,-892.08984375,518.06640625,0.0,0,0
1772203006.730421,1772203006.6877224,195.80078125,158.69140625,202.63671875,72.265625,0.0,0,0
1772203006.730433,1772203006.691618,-1000.0,-1000.0,-1000.0,-462.890625,0.0,0,0
1772203006.7304451,1772203006.6955137,-659.1796875,-993.1640625,-651.3671875,-446.2890625,0.0,0,0
1772203006.730458,1772203006.6994092,733.88671875,259.27734375,708.984375,137.6953125,0.0,0,0
1772203006.7767239,1772203006.7034526,-842.28515625,-771.484375,-841.30859375,515.625,0.0,0,0
1772203006.776757,1772203006.707348,174.31640625,193.359375,176.7578125,158.69140625,0.0,0,0
1772203006.776774,1772203006.7112439,-1000.0,-1000.0,-1000.0,-396.484375,0.0,0,0
1772203006.776787,1772203006.7151394,-898.92578125,-1000.0,-852.5390625,-465.33203125,0.0,0,0
1772203006.776803,1772203006.7190351,424.8046875,15.625,441.40625,96.6796875,0.0,0,0
1772203006.7768168,1772203006.7229307,-790.0390625,-778.80859375,-799.31640625,493.1640625,0.0,0,0
1772203006.776832,1772203006.7268264,144.04296875,367.67578125,204.58984375,226.5625,0.0,0,0
1772203006.7768462,1772203006.7307222,-1000.0,-930.17578125,-1000.0,-349.12109375,0.0,0,0
1772203006.7768588,1772203006.7346177,-1000.0,-1000.0,-1000.0,-525.87890625,0.0,0,0
1772203006.776872,1772203006.7385135,97.65625,-171.38671875,157.71484375,-7.32421875,0.0,0,0
1772203006.7769148,1772203006.742409,-768.06640625,-849.12109375,-789.0625,461.9140625,0.0,0,0
1772203006.7769501,1772203006.7463048,312.5,598.14453125,382.32421875,323.2421875,0.0,0,0
1772203006.819347,1772203006.7503376,-959.47265625,-784.1796875,-942.87109375,-292.48046875,0.0,0,0
1772203006.8193831,1772203006.7542334,-1000.0,-1000.0,-1000.0,-553.22265625,0.0,0,0
1772203006.819403,1772203006.7581291,-90.33203125,-208.49609375,-15.13671875,-72.265625,0.0,0,0
1772203006.819423,1772203006.7620246,-812.98828125,-938.96484375,-840.8203125,400.390625,0.0,0,0
1772203006.819442,1772203006.7659204,503.41796875,860.83984375,586.42578125,360.3515625,0.0,0,0
1772203006.8194618,1772203006.7698162,-857.421875,-465.8203125,-785.64453125,-243.1640625,0.0,0,0
1772203006.8194811,1772203006.7737117,-1000.0,-1000.0,-1000.0,-586.42578125,0.0,0,0
1772203006.819498,1772203006.7776074,-221.6796875,-178.7109375,-141.11328125,-157.71484375,0.0,0,0
1772203006.819554,1772203006.781503,-916.015625,-990.72265625,-927.734375,358.3984375,0.0,0,0
1772203006.819583,1772203006.7853987,779.296875,-976.07421875,847.16796875,412.59765625,0.0,0,0
1772203006.819603,1772203006.7892945,-583.0078125,-152.34375,-475.09765625,-162.109375,0.0,0,0
1772203006.8196218,1772203006.79319,-1000.0,-1000.0,-1000.0,-561.5234375,0.0,0,0
1772203006.864515,1772203006.797212,-186.5234375,-270.5078125,-150.390625,-214.84375,0.0,0,0
1772203006.8645492,1772203006.8011076,-979.00390625,960.9375,-983.3984375,325.1953125,0.0,0,0
1772203006.864574,1772203006.8050034,986.81640625,-925.78125,-983.88671875,475.5859375,0.0,0,0
1772203006.864598,1772203006.8088992,-247.0703125,39.55078125,-163.57421875,-93.26171875,0.0,0,0
1772203006.8646212,1772203006.8127947,-1000.0,-1000.0,-1000.0,-577.1484375,0.0,0,0
1772203006.8646421,1772203006.8166904,-187.5,-451.66015625,-187.01171875,-303.22265625,0.0,0,0
1772203006.8646662,1772203006.8205862,992.1875,873.53515625,985.83984375,276.85546875,0.0,0,0
1772203006.8646889,1772203006.8244817,-948.73046875,-878.90625,-936.5234375,489.74609375,0.0,0,0
1772203006.864712,1772203006.8283775,-16.6015625,204.1015625,48.828125,-17.578125,0.0,0,0
1772203006.864735,1772203006.8322732,-1000.0,-1000.0,-1000.0,-516.6015625,0.0,0,0
1772203006.8647559,1772203006.836169,-385.25390625,-719.7265625,-395.5078125,-376.46484375,0.0,0,0
1772203006.864803,1772203006.8400645,905.76171875,671.875,899.90234375,214.84375,0.0,0,0
1772203006.9121852,1772203006.8440778,-895.01953125,-827.63671875,-889.16015625,514.6484375,0.0,0,0
1772203006.912273,1772203006.8479736,169.43359375,165.0390625,194.82421875,62.98828125,0.0,0,0
1772203006.9123058,1772203006.8518693,-1000.0,-1000.0,-1000.0,-480.46875,0.0,0,0
1772203006.91238,1772203006.855765,-590.8203125,-956.0546875,-610.83984375,-450.68359375,0.0,0,0
1772203006.9124238,1772203006.8596609,800.29296875,333.49609375,755.859375,129.8828125,0.0,0,0
1772203006.912456,1772203006.8635564,-855.95703125,-777.34375,-850.09765625,496.58203125,0.0,0,0
1772203006.912488,1772203006.8674521,182.6171875,164.55078125,179.6875,127.9296875,0.0,0,0
1772203006.91252,1772203006.871348,-1000.0,-1000.0,-1000.0,-428.22265625,0.0,0,0
1772203006.912547,1772203006.8752437,-849.609375,-1000.0,-859.375,-499.51171875,0.0,0,0
1772203006.912578,1772203006.8791394,500.48828125,42.96875,455.078125,46.875,0.0,0,0
1772203006.912608,1772203006.883035,-799.8046875,-771.97265625,-798.828125,473.14453125,0.0,0,0
1772203006.9126358,1772203006.8869307,148.4375,327.63671875,185.546875,208.984375,0.0,0,0
1772203006.954447,1772203006.8909278,-1000.0,-951.66015625,-1000.0,-379.8828125,0.0,0,0
1772203006.9545112,1772203006.8948236,-1000.0,-1000.0,-973.6328125,-535.15625,0.0,0,0
1772203006.9545338,1772203006.8987193,155.2734375,-140.13671875,224.609375,-0.48828125,0.0,0,0
1772203006.9545548,1772203006.902615,-764.6484375,-824.21875,-786.1328125,448.73046875,0.0,0,0
1772203006.954575,1772203006.9065108,269.04296875,524.90234375,341.796875,296.38671875,0.0,0,0
1772203006.9545941,1772203006.9104066,-979.4921875,-851.5625,-950.1953125,-288.57421875,0.0,0,0
1772203006.954614,1772203006.914302,-1000.0,-1000.0,-1000.0,-535.64453125,0.0,0,0
1772203006.954633,1772203006.9181979,-47.36328125,-218.26171875,-48.828125,-60.546875,0.0,0,0
1772203006.954728,1772203006.9220936,-797.36328125,-921.38671875,-823.2421875,407.2265625,0.0,0,0
1772203006.954771,1772203006.9259894,450.1953125,800.78125,542.48046875,327.1484375,0.0,0,0
1772203006.954794,1772203006.9298851,-885.25390625,-555.6640625,-826.171875,-273.92578125,0.0,0,0
1772203006.954814,1772203006.933781,-1000.0,-1000.0,-1000.0,-558.59375,0.0,0,0
1772203007.0290549,1772203006.9379308,-224.609375,-182.6171875,-146.97265625,-120.1171875,0.0,0,0
1772203007.0290828,1772203006.9418266,-891.6015625,-985.3515625,-910.64453125,378.41796875,0.0,0,0
1772203007.029092,1772203006.9457223,699.70703125,-994.140625,796.38671875,407.71484375,0.0,0,0
1772203007.0291011,1772203006.949618,-684.5703125,-203.61328125,-554.6875,-187.01171875,0.0,0,0
1772203007.02911,1772203006.9535139,-1000.0,-1000.0,-1000.0,-584.47265625,0.0,0,0
1772203007.0291169,1772203006.9574096,-196.2890625,-243.65234375,-119.140625,-195.80078125,0.0,0,0
1772203007.029126,1772203006.9613054,-961.42578125,971.6796875,-971.19140625,361.81640625,0.0,0,0
1772203007.029135,1772203006.9652011,931.640625,-936.03515625,990.234375,473.14453125,0.0,0,0
1772203007.029144,1772203006.969097,-353.02734375,3.41796875,-211.42578125,-94.7265625,0.0,0,0
1772203007.0291688,1772203006.9729927,-1000.0,-1000.0,-1000.0,-567.87109375,0.0,0,0
1772203007.029189,1772203006.9768884,-173.33984375,-445.80078125,-211.42578125,-299.8046875,0.0,0,0
1772203007.0291998,1772203006.9807842,-999.51171875,873.046875,981.4453125,290.0390625,0.0,0,0
1772203007.04479,1772203006.9847639,-959.9609375,-879.8828125,-936.03515625,500.48828125,0.0,0,0
1772203007.044808,1772203006.9886596,-73.2421875,197.265625,13.671875,-14.6484375,0.0,0,0
1772203007.044817,1772203006.9925554,-1000.0,-1000.0,-1000.0,-519.53125,0.0,0,0
1772203007.0448241,1772203006.9964511,-347.16796875,-654.296875,-350.09765625,-359.86328125,0.0,0,0
1772203007.044833,1772203007.000347,922.8515625,740.234375,920.41015625,233.88671875,0.0,0,0
1772203007.044887,1772203007.0042427,-904.296875,-841.796875,-897.94921875,503.90625,0.0,0,0
1772203007.044897,1772203007.0081384,119.140625,170.8984375,184.5703125,34.66796875,0.0,0,0
1772203007.044905,1772203007.0120342,-1000.0,-1000.0,-1000.0,-489.2578125,0.0,0,0
1772203007.0449128,1772203007.01593,-548.828125,-931.640625,-583.49609375,-411.1328125,0.0,0,0
1772203007.044943,1772203007.019826,825.68359375,374.51171875,782.71484375,180.6640625,0.0,0,0
1772203007.044965,1772203007.0237217,-862.3046875,-783.203125,-855.46875,504.39453125,0.0,0,0
1772203007.0449762,1772203007.0276175,188.4765625,143.5546875,186.03515625,115.234375,0.0,0,0
1772203007.103342,1772203007.0315807,-1000.0,-1000.0,-1000.0,-443.84765625,0.0,0,0
1772203007.103379,1772203007.0354764,-808.59375,-1000.0,-798.828125,-497.55859375,0.0,0,0
1772203007.103392,1772203007.0393722,555.6640625,82.51953125,534.1796875,97.16796875,0.0,0,0
1772203007.103402,1772203007.043268,-808.59375,-768.5546875,-810.546875,503.41796875,0.0,0,0
1772203007.103413,1772203007.0471637,152.34375,316.89453125,170.8984375,195.80078125,0.0,0,0
1772203007.1034229,1772203007.0510595,-1000.0,-959.47265625,-1000.0,-376.46484375,0.0,0,0
1772203007.103433,1772203007.0549552,-1000.0,-1000.0,-944.3359375,-511.71875,0.0,0,0
1772203007.103443,1772203007.0588512,194.82421875,-86.42578125,268.5546875,17.578125,0.0,0,0
1772203007.103453,1772203007.062747,-766.6015625,-810.05859375,-788.57421875,465.8203125,0.0,0,0
1772203007.103463,1772203007.0666428,228.515625,494.140625,314.453125,283.69140625,0.0,0,0
1772203007.103474,1772203007.0705385,-999.0234375,-863.28125,-981.93359375,-343.26171875,0.0,0,0
1772203007.103484,1772203007.0744343,-1000.0,-1000.0,-1000.0,-579.58984375,0.0,0,0
1772203007.14923,1772203007.0784702,-22.94921875,-223.14453125,52.24609375,-57.12890625,0.0,0,0
1772203007.14926,1772203007.0823662,-789.55078125,-913.0859375,-812.01171875,427.24609375,0.0,0,0
1772203007.149276,1772203007.086262,418.9453125,771.97265625,490.234375,343.26171875,0.0,0,0
1772203007.149289,1772203007.0901577,-904.78515625,-593.75,-877.9296875,-250.9765625,0.0,0,0
1772203007.149302,1772203007.0940535,-1000.0,-1000.0,-1000.0,-554.6875,0.0,0,0
1772203007.1493142,1772203007.0979495,-193.84765625,-187.5,-79.58984375,-106.4453125,0.0,0,0
1772203007.1493278,1772203007.1018453,-873.046875,-975.09765625,-889.6484375,385.7421875,0.0,0,0
1772203007.1493409,1772203007.105741,662.109375,977.05078125,742.67578125,417.96875,0.0,0,0
1772203007.149354,1772203007.1096368,-720.703125,-261.71875,-611.328125,-166.015625,0.0,0,0
1772203007.149366,1772203007.1135325,-1000.0,-1000.0,-1000.0,-562.98828125,0.0,0,0
1772203007.149378,1772203007.1174285,-200.68359375,-218.75,-146.484375,-188.96484375,0.0,0,0
1772203007.14939,1772203007.1213243,-953.61328125,981.93359375,-967.7734375,336.9140625,0.0,0,0
1772203007.20997,1772203007.1254327,906.73828125,-943.84765625,971.19140625,460.44921875,0.0,0,0
1772203007.210015,1772203007.1293285,-394.53125,-21.97265625,-266.6015625,-112.3046875,0.0,0,0
1772203007.2100322,1772203007.1332242,-1000.0,-1000.0,-1000.0,-574.21875,0.0,0,0
1772203007.210046,1772203007.1371202,-174.31640625,-405.76171875,-175.78125,-286.1328125,0.0,0,0
1772203007.2100632,1772203007.141016,-997.55859375,893.5546875,994.62890625,285.64453125,0.0,0,0
1772203007.2100768,1772203007.1449118,-964.35546875,-889.16015625,-948.2421875,490.234375,0.0,0,0
1772203007.210093,1772203007.1488078,-95.21484375,176.7578125,-24.4140625,-23.4375,0.0,0,0
1772203007.2101068,1772203007.1527035,-1000.0,-1000.0,-1000.0,-504.39453125,0.0,0,0
1772203007.21012,1772203007.1565995,-319.82421875,-634.765625,-335.9375,-331.0546875,0.0,0,0
1772203007.210134,1772203007.1604953,935.546875,755.859375,925.29296875,246.09375,0.0,0,0
1772203007.210149,1772203007.164391,-911.1328125,-845.703125,-901.3671875,510.25390625,0.0,0,0
1772203007.2101629,1772203007.168287,98.14453125,177.24609375,163.57421875,37.59765625,0.0,0,0
1772203007.239265,1772203007.1723094,-1000.0,-1000.0,-1000.0,-474.12109375,0.0,0,0
1772203007.239309,1772203007.1762054,-515.625,-884.27734375,-537.109375,-403.3203125,0.0,0,0
1772203007.239327,1772203007.1801012,843.26171875,447.265625,820.3125,154.296875,0.0,0,0
1772203007.239341,1772203007.1839972,-868.65234375,-791.50390625,-864.2578125,480.95703125,0.0,0,0
1772203007.2393558,1772203007.187893,193.84765625,145.01953125,190.4296875,100.5859375,0.0,0,0
1772203007.2393699,1772203007.1917887,-1000.0,-1000.0,-1000.0,-434.08203125,0.0,0,0
1772203007.2393851,1772203007.1956847,-775.390625,-1000.0,-775.87890625,-464.84375,0.0,0,0
1772203007.239399,1772203007.1995804,598.6328125,107.421875,566.89453125,130.37109375,0.0,0,0
1772203007.239414,1772203007.2034764,-816.40625,-765.625,-815.91796875,534.1796875,0.0,0,0
1772203007.239428,1772203007.2073722,158.69140625,276.85546875,163.0859375,217.28515625,0.0,0,0
1772203007.2394428,1772203007.2112682,-1000.0,-978.02734375,-1000.0,-359.375,0.0,0,0
1772203007.2394571,1772203007.215164,-985.3515625,-1000.0,-937.01171875,-480.46875,0.0,0,0
1772203007.284418,1772203007.2191687,271.97265625,-64.453125,300.29296875,68.84765625,0.0,0,0
1772203007.284466,1772203007.2230647,-772.94921875,-800.29296875,-786.1328125,489.74609375,0.0,0,0
1772203007.2844899,1772203007.2269604,200.68359375,458.49609375,276.3671875,268.06640625,0.0,0,0
1772203007.28451,1772203007.2308564,-1000.0,-882.32421875,-997.0703125,-325.1953125,0.0,0,0
1772203007.28453,1772203007.2347522,-1000.0,-1000.0,-1000.0,-541.9921875,0.0,0,0
1772203007.284548,1772203007.2386482,21.484375,-232.421875,72.265625,-37.59765625,0.0,0,0
1772203007.284568,1772203007.242544,-780.76171875,-891.6015625,-799.31640625,425.78125,0.0,0,0
1772203007.284587,1772203007.24644,387.6953125,695.80078125,453.61328125,315.4296875,0.0,0,0
1772203007.284636,1772203007.250336,-918.9453125,-692.87109375,-888.671875,-277.83203125,0.0,0,0
1772203007.2846642,1772203007.2542317,-1000.0,-1000.0,-1000.0,-582.03125,0.0,0,0
1772203007.284682,1772203007.2581277,-168.45703125,-196.2890625,-125.0,-141.6015625,0.0,0,0
1772203007.284702,1772203007.2620234,-852.5390625,-960.44921875,-879.39453125,361.81640625,0.0,0,0
1772203007.330303,1772203007.266018,607.421875,932.12890625,699.70703125,378.41796875,0.0,0,0
1772203007.330357,1772203007.2699137,-772.94921875,-353.02734375,-665.52734375,-208.49609375,0.0,0,0
1772203007.330385,1772203007.2738097,-1000.0,-1000.0,-1000.0,-569.82421875,0.0,0,0
1772203007.3304079,1772203007.2777054,-207.51953125,-170.8984375,-168.9453125,-164.55078125,0.0,0,0
1772203007.330432,1772203007.2816014,-941.40625,998.046875,-959.47265625,344.7265625,0.0,0,0
1772203007.330456,1772203007.2854974,866.2109375,-955.56640625,939.453125,444.3359375,0.0,0,0
1772203007.33048,1772203007.2893932,-457.03125,-43.9453125,-322.75390625,-93.26171875,0.0,0,0
1772203007.330504,1772203007.2932892,-1000.0,-1000.0,-1000.0,-535.15625,0.0,0,0
1772203007.3305259,1772203007.297185,-177.24609375,-387.20703125,-190.4296875,-227.05078125,0.0,0,0
1772203007.330549,1772203007.301081,-993.65234375,905.76171875,995.1171875,335.44921875,0.0,0,0
1772203007.330574,1772203007.3049767,-972.16796875,-895.99609375,-952.63671875,517.08984375,0.0,0,0
1772203007.3305979,1772203007.3088727,-136.23046875,132.32421875,-61.03515625,-1.46484375,0.0,0,0
1772203007.375076,1772203007.3128636,-1000.0,-1000.0,-1000.0,-477.5390625,0.0,0,0
1772203007.3751628,1772203007.3167593,-265.625,-562.98828125,-297.8515625,-267.08984375,0.0,0,0
1772203007.375196,1772203007.3206553,960.44921875,820.3125,943.84765625,290.0390625,0.0,0,0
1772203007.375225,1772203007.324551,-925.29296875,-858.88671875,-909.66796875,521.97265625,0.0,0,0
1772203007.375255,1772203007.328447,59.5703125,186.03515625,130.859375,40.0390625,0.0,0,0
1772203007.375324,1772203007.332343,-1000.0,-1000.0,-1000.0,-475.09765625,0.0,0,0
1772203007.3753579,1772203007.3362389,-463.8671875,-830.56640625,-456.0546875,-375.48828125,0.0,0,0
1772203007.3753889,1772203007.3401349,869.62890625,526.85546875,875.48828125,208.984375,0.0,0,0
1772203007.375419,1772203007.3440309,-878.41796875,-802.24609375,-879.39453125,523.4375,0.0,0,0
1772203007.3757281,1772203007.3479266,203.61328125,148.4375,200.1953125,104.00390625,0.0,0,0
1772203007.3757598,1772203007.3518226,-1000.0,-1000.0,-1000.0,-430.17578125,0.0,0,0
1772203007.375796,1772203007.3557184,-705.078125,-1000.0,-722.16796875,-432.6171875,0.0,0,0
1772203007.421033,1772203007.359701,687.01171875,145.99609375,639.16015625,144.53125,0.0,0,0
1772203007.421132,1772203007.3635967,-832.03125,-762.6953125,-826.66015625,515.625,0.0,0,0
1772203007.421165,1772203007.3674927,166.50390625,238.28125,164.55078125,160.15625,0.0,0,0
1772203007.421194,1772203007.3713887,-1000.0,-996.09375,-1000.0,-416.015625,0.0,0,0
1772203007.421222,1772203007.3752844,-945.3125,-1000.0,-949.21875,-500.0,0.0,0,0
1772203007.4212549,1772203007.3791804,351.07421875,-32.2265625,305.17578125,63.4765625,0.0,0,0
1772203007.4212852,1772203007.3830764,-780.76171875,-790.52734375,-782.2265625,478.515625,0.0,0,0
1772203007.421314,1772203007.3869722,152.83203125,422.8515625,238.76953125,235.3515625,0.0,0,0
1772203007.421343,1772203007.3908682,-1000.0,-901.3671875,-1000.0,-353.515625,0.0,0,0
1772203007.421371,1772203007.3947642,-1000.0,-1000.0,-1000.0,-529.78515625,0.0,0,0
1772203007.4214249,1772203007.3986602,57.12890625,-217.7734375,106.93359375,-21.97265625,0.0,0,0
1772203007.421458,1772203007.402556,-771.97265625,-883.7890625,-793.9453125,429.6875,0.0,0,0
1772203007.5103538,1772203007.406527,341.796875,684.5703125,428.7109375,318.359375,0.0,0,0
1772203007.510504,1772203007.4104228,-943.359375,-702.63671875,-905.2734375,-287.59765625,0.0,0,0
1772203007.5105631,1772203007.4143188,-1000.0,-1000.0,-1000.0,-581.54296875,0.0,0,0
1772203007.510613,1772203007.4182148,-137.6953125,-197.75390625,-98.14453125,-117.1875,0.0,0,0
1772203007.510665,1772203007.4221108,-825.68359375,-958.0078125,-864.2578125,387.20703125,0.0,0,0
1772203007.510716,1772203007.4260066,531.25,924.8046875,659.1796875,364.74609375,0.0,0,0
1772203007.5107672,1772203007.4299026,-847.16796875,-367.1875,-707.51953125,-229.00390625,0.0,0,0
1772203007.510891,1772203007.4337986,-1000.0,-1000.0,-1000.0,-581.54296875,0.0,0,0
1772203007.511012,1772203007.4376945,-217.28515625,-173.828125,-180.6640625,-192.3828125,0.0,0,0
1772203007.511101,1772203007.4415903,-925.29296875,-997.0703125,-947.265625,332.03125,0.0,0,0
1772203007.511157,1772203007.4454863,812.01171875,-962.890625,901.85546875,437.5,0.0,0,0
1772203007.511206,1772203007.4493823,-540.52734375,-88.37890625,-395.99609375,-142.08984375,0.0,0,0
1772203007.5263622,1772203007.4533565,-1000.0,-1000.0,-1000.0,-574.70703125,0.0,0,0
1772203007.526478,1772203007.4572525,-180.6640625,-341.30859375,-157.71484375,-251.953125,0.0,0,0
1772203007.526529,1772203007.4611485,-989.2578125,925.78125,-992.1875,279.296875,0.0,0,0
1772203007.526582,1772203007.4650443,-984.86328125,-905.76171875,-966.796875,452.1484375,0.0,0,0
1772203007.5266318,1772203007.4689403,-183.59375,109.86328125,-100.09765625,-58.10546875,0.0,0,0
1772203007.5266829,1772203007.4728363,-1000.0,-1000.0,-1000.0,-519.04296875,0.0,0,0
1772203007.526731,1772203007.4767323,-251.46484375,-551.26953125,-297.8515625,-309.08203125,0.0,0,0
1772203007.526782,1772203007.4806283,967.7734375,823.2421875,944.82421875,238.28125,0.0,0,0
1772203007.526835,1772203007.484524,-932.6171875,-860.3515625,-913.0859375,468.26171875,0.0,0,0
1772203007.526885,1772203007.48842,14.6484375,189.453125,90.8203125,-3.90625,0.0,0,0
1772203007.526933,1772203007.492316,-1000.0,-1000.0,-1000.0,-503.90625,0.0,0,0
1772203007.5269818,1772203007.496212,-436.5234375,-800.29296875,-448.2421875,-394.53125,0.0,0,0
1772203007.585759,1772203007.5002382,878.41796875,566.40625,876.953125,186.5234375,0.0,0,0
1772203007.585834,1772203007.504134,-882.8125,-810.05859375,-880.37109375,489.74609375,0.0,0,0
1772203007.585862,1772203007.50803,197.265625,155.76171875,196.77734375,66.89453125,0.0,0,0
1772203007.585886,1772203007.511926,-1000.0,-1000.0,-1000.0,-470.21484375,0.0,0,0
1772203007.585911,1772203007.515822,-671.38671875,-1000.0,-685.546875,-431.15234375,0.0,0,0
1772203007.585933,1772203007.519718,721.6796875,231.93359375,679.6875,147.94921875,0.0,0,0
1772203007.585956,1772203007.523614,-839.35546875,-768.5546875,-834.47265625,503.41796875,0.0,0,0
1772203007.585979,1772203007.52751,171.38671875,223.6328125,170.41015625,162.109375,0.0,0,0
1772203007.5860019,1772203007.531406,-1000.0,-999.51171875,-1000.0,-391.6015625,0.0,0,0
1772203007.586026,1772203007.5353017,-917.96875,-1000.0,-916.9921875,-488.28125,0.0,0,0
1772203007.586049,1772203007.5391977,395.01953125,-19.53125,363.28125,50.29296875,0.0,0,0
1772203007.586072,1772203007.5430937,-786.62109375,-787.109375,-787.109375,483.88671875,0.0,0,0
1772203007.616338,1772203007.5471203,143.06640625,402.34375,203.61328125,217.7734375,0.0,0,0
1772203007.616429,1772203007.5510163,-1000.0,-913.57421875,-1000.0,-374.0234375,0.0,0,0
1772203007.616467,1772203007.5549123,-1000.0,-1000.0,-1000.0,-540.0390625,0.0,0,0
1772203007.616496,1772203007.5588083,83.49609375,-194.3359375,118.65234375,-36.62109375,0.0,0,0
1772203007.6165261,1772203007.5627043,-769.04296875,-867.67578125,-786.62109375,435.05859375,0.0,0,0
1772203007.616558,1772203007.5666003,316.40625,644.04296875,385.25390625,314.94140625,0.0,0,0
1772203007.616587,1772203007.570496,-957.51953125,-740.234375,-930.17578125,-292.48046875,0.0,0,0
1772203007.616617,1772203007.574392,-1000.0,-1000.0,-1000.0,-541.9921875,0.0,0,0
1772203007.6166432,1772203007.578288,-103.02734375,-204.1015625,-81.54296875,-79.1015625,0.0,0,0
1772203007.616672,1772203007.582184,-815.4296875,-945.3125,-843.26171875,395.5078125,0.0,0,0
1772203007.6167,1772203007.58608,506.8359375,882.8125,595.703125,406.73828125,0.0,0,0
1772203007.616729,1772203007.589976,-857.421875,-432.12890625,-774.4140625,-184.5703125,0.0,0,0
1772203007.659756,1772203007.5939832,-1000.0,-1000.0,-1000.0,-544.921875,0.0,0,0
1772203007.659879,1772203007.5978792,-221.6796875,-175.78125,-182.12890625,-129.8828125,0.0,0,0
1772203007.659925,1772203007.6017752,-916.50390625,-995.1171875,-930.17578125,363.76953125,0.0,0,0
1772203007.6599638,1772203007.6056712,780.2734375,-967.28515625,846.19140625,422.36328125,0.0,0,0
1772203007.660002,1772203007.6095672,-582.03125,-115.234375,-477.5390625,-148.92578125,0.0,0,0
1772203007.660057,1772203007.6134632,-1000.0,-1000.0,-1000.0,-562.5,0.0,0,0
1772203007.6600928,1772203007.6173592,-185.546875,-291.50390625,-179.6875,-202.63671875,0.0,0,0
1772203007.6601322,1772203007.6212552,-980.46875,951.171875,-988.28125,343.75,0.0,0,0
1772203007.660168,1772203007.6251512,990.234375,-919.921875,-987.79296875,477.05078125,0.0,0,0
1772203007.660207,1772203007.6290472,-236.328125,67.3828125,-165.0390625,-44.921875,0.0,0,0
1772203007.660245,1772203007.6329432,-1000.0,-1000.0,-1000.0,-496.09375,0.0,0,0
1772203007.660279,1772203007.6368392,-216.796875,-500.9765625,-291.015625,-266.6015625,0.0,0,0
1772203007.7063448,1772203007.6408403,981.93359375,848.14453125,952.1484375,303.7109375,0.0,0,0
1772203007.706491,1772203007.6447363,-943.84765625,-869.140625,-925.78125,515.625,0.0,0,0
1772203007.706553,1772203007.6486323,-17.08984375,194.82421875,25.87890625,14.6484375,0.0,0,0
1772203007.706607,1772203007.6525283,-1000.0,-1000.0,-1000.0,-475.5859375,0.0,0,0
1772203007.706656,1772203007.6564243,-404.296875,-779.296875,-481.93359375,-349.609375,0.0,0,0
1772203007.706707,1772203007.6603205,895.99609375,593.75,855.46875,221.19140625,0.0,0,0
1772203007.7067578,1772203007.6642165,-891.6015625,-815.4296875,-874.0234375,509.27734375,0.0,0,0
1772203007.70681,1772203007.6681125,163.0859375,159.66796875,177.24609375,67.3828125,0.0,0,0
1772203007.706861,1772203007.6720085,-1000.0,-1000.0,-1000.0,-442.87109375,0.0,0,0
1772203007.706908,1772203007.6759045,-608.3984375,-980.95703125,-701.171875,-394.04296875,0.0,0,0
1772203007.706961,1772203007.6798005,781.25,283.69140625,675.78125,180.17578125,0.0,0,0
1772203007.70701,1772203007.6836965,-851.5625,-773.4375,-831.54296875,516.11328125,0.0,0,0
1772203007.752946,1772203007.687687,179.6875,179.6875,171.38671875,146.484375,0.0,0,0
1772203007.753063,1772203007.691583,-1000.0,-1000.0,-1000.0,-397.94921875,0.0,0,0
1772203007.753349,1772203007.6954792,-866.2109375,-1000.0,-899.90234375,-437.98828125,0.0,0,0
1772203007.753406,1772203007.6993752,474.609375,17.578125,400.87890625,120.1171875,0.0,0,0
1772203007.753458,1772203007.7032712,-796.38671875,-779.296875,-790.52734375,523.92578125,0.0,0,0
1772203007.75351,1772203007.7071671,146.484375,383.7890625,186.5234375,246.09375,0.0,0,0
1772203007.7535622,1772203007.7110631,-1000.0,-919.43359375,-1000.0,-354.4921875,0.0,0,0
1772203007.75361,1772203007.7149591,-1000.0,-1000.0,-1000.0,-507.8125,0.0,0,0
1772203007.753665,1772203007.7188551,133.7890625,-190.4296875,156.73828125,13.671875,0.0,0,0
1772203007.753716,1772203007.7227514,-765.13671875,-845.21484375,-784.1796875,455.078125,0.0,0,0
1772203007.753765,1772203007.7266474,276.85546875,561.5234375,357.421875,275.390625,0.0,0,0
1772203007.753815,1772203007.7305434,-978.02734375,-828.125,-964.35546875,-331.0546875,0.0,0,0
1772203007.810818,1772203007.7346053,-1000.0,-1000.0,-1000.0,-547.36328125,0.0,0,0
1772203007.8109372,1772203007.7385013,-45.8984375,-214.84375,46.875,-50.29296875,0.0,0,0
1772203007.81098,1772203007.7423973,-798.828125,-926.7578125,-827.63671875,409.1796875,0.0,0,0
1772203007.811024,1772203007.7462933,461.42578125,819.3359375,553.22265625,336.42578125,0.0,0,0
1772203007.811063,1772203007.7501895,-877.9296875,-529.78515625,-827.63671875,-256.34765625,0.0,0,0
1772203007.811101,1772203007.7540855,-1000.0,-1000.0,-1000.0,-563.4765625,0.0,0,0
1772203007.811136,1772203007.7579815,-222.65625,-180.17578125,-58.59375,-130.37109375,0.0,0,0
1772203007.811177,1772203007.7618775,-897.4609375,-988.76953125,-913.57421875,369.140625,0.0,0,0
1772203007.811214,1772203007.7657738,720.21484375,-982.91015625,808.10546875,398.4375,0.0,0,0
1772203007.811251,1772203007.7696698,-658.203125,-178.7109375,-530.76171875,-192.87109375,0.0,0,0
1772203007.811288,1772203007.7735658,-1000.0,-1000.0,-1000.0,-580.56640625,0.0,0,0
1772203007.8113332,1772203007.7774618,-194.82421875,-269.04296875,-103.515625,-208.0078125,0.0,0,0
1772203007.856066,1772203007.781445,-962.40234375,960.9375,-972.16796875,334.47265625,0.0,0,0
1772203007.8561568,1772203007.785341,937.5,-928.22265625,994.62890625,469.7265625,0.0,0,0
1772203007.856191,1772203007.7892373,-342.7734375,23.4375,-201.171875,-84.9609375,0.0,0,0
1772203007.856216,1772203007.7931333,-1000.0,-1000.0,-1000.0,-539.55078125,0.0,0,0
1772203007.856239,1772203007.7970293,-173.33984375,-464.35546875,-197.265625,-266.6015625,0.0,0,0
1772203007.8562639,1772203007.8009255,-999.0234375,864.74609375,985.83984375,296.38671875,0.0,0,0
1772203007.856294,1772203007.8048215,-959.9609375,-875.9765625,-937.98828125,503.41796875,0.0,0,0
1772203007.856318,1772203007.8087175,-72.265625,204.1015625,14.6484375,2.44140625,0.0,0,0
1772203007.856342,1772203007.8126135,-1000.0,-1000.0,-1000.0,-484.375,0.0,0,0
1772203007.856364,1772203007.8165097,-350.5859375,-699.70703125,-345.703125,-325.1953125,0.0,0,0
1772203007.8563871,1772203007.8204057,921.38671875,693.359375,921.38671875,283.69140625,0.0,0,0
1772203007.856411,1772203007.8243017,-903.80859375,-832.03125,-898.92578125,547.36328125,0.0,0,0
1772203007.902833,1772203007.8283415,119.140625,166.9921875,186.03515625,58.10546875,0.0,0,0
1772203007.902987,1772203007.8322375,-1000.0,-1000.0,-1000.0,-452.1484375,0.0,0,0
1772203007.9030669,1772203007.8361337,-552.24609375,-947.75390625,-601.07421875,-396.484375,0.0,0,0
1772203007.9031591,1772203007.8400297,823.73046875,349.12109375,772.94921875,176.26953125,0.0,0,0
1772203007.9032571,1772203007.8439257,-861.328125,-779.78515625,-852.5390625,518.5546875,0.0,0,0
1772203007.90332,1772203007.847822,187.01171875,141.11328125,182.6171875,162.109375,0.0,0,0
1772203007.903362,1772203007.851718,-1000.0,-1000.0,-1000.0,-362.3046875,0.0,0,0
1772203007.9033978,1772203007.8556142,-822.75390625,-1000.0,-829.58984375,-438.4765625,0.0,0,0
1772203007.903434,1772203007.8595102,536.62109375,53.7109375,501.953125,120.1171875,0.0,0,0
1772203007.903471,1772203007.8634062,-805.6640625,-770.01953125,-804.19921875,514.16015625,0.0,0,0
1772203007.903507,1772203007.8673024,151.3671875,323.2421875,164.0625,223.6328125,0.0,0,0
1772203007.903543,1772203007.8711984,-1000.0,-953.61328125,-1000.0,-333.0078125,0.0,0,0
1772203007.94492,1772203007.875231,-1000.0,-1000.0,-935.546875,-472.16796875,0.0,0,0
1772203007.944989,1772203007.8791273,187.98828125,-131.8359375,265.625,66.40625,0.0,0,0
1772203007.9450161,1772203007.8830233,-766.11328125,-821.77734375,-790.52734375,500.48828125,0.0,0,0
1772203007.945042,1772203007.8869195,237.3046875,518.06640625,317.3828125,298.33984375,0.0,0,0
1772203007.945066,1772203007.8908155,-995.60546875,-854.98046875,-989.2578125,-307.6171875,0.0,0,0
1772203007.94509,1772203007.8947117,-1000.0,-1000.0,-1000.0,-523.4375,0.0,0,0
1772203007.945112,1772203007.8986077,-25.87890625,-220.703125,86.9140625,-27.34375,0.0,0,0
1772203007.945135,1772203007.902504,-790.52734375,-915.52734375,-813.4765625,439.94140625,0.0,0,0
1772203007.945159,1772203007.9064,425.78125,780.2734375,480.95703125,358.88671875,0.0,0,0
1772203007.9451818,1772203007.9102962,-899.90234375,-582.51953125,-870.1171875,-242.1875,0.0,0,0
1772203007.945205,1772203007.9141922,-1000.0,-1000.0,-1000.0,-542.96875,0.0,0,0
1772203007.945227,1772203007.9180884,-208.984375,-183.59375,-157.2265625,-93.75,0.0,0,0
1772203007.990056,1772203007.9221027,-878.90625,-983.88671875,-896.484375,404.296875,0.0,0,0
1772203007.990159,1772203007.925999,669.43359375,-999.0234375,747.55859375,412.59765625,0.0,0,0
1772203007.9902122,1772203007.929895,-716.796875,-213.37890625,-618.1640625,-167.96875,0.0,0,0
1772203007.990262,1772203007.9337912,-1000.0,-1000.0,-1000.0,-537.59765625,0.0,0,0
1772203007.9903092,1772203007.9376872,-200.68359375,-240.72265625,-145.01953125,-154.296875,0.0,0,0
1772203007.990359,1772203007.9415834,-952.63671875,974.609375,-964.84375,376.46484375,0.0,0,0
1772203007.990408,1772203007.9454796,902.83203125,-938.96484375,961.9140625,468.26171875,0.0,0,0
1772203007.990459,1772203007.9493756,-399.90234375,-11.71875,-285.15625,-95.21484375,0.0,0,0
1772203007.990508,1772203007.9532719,-1000.0,-1000.0,-1000.0,-522.94921875,0.0,0,0
1772203007.9905531,1772203007.9571679,-174.31640625,-429.6875,-166.9921875,-234.86328125,0.0,0,0
1772203007.990602,1772203007.961064,-998.53515625,882.8125,996.09375,323.2421875,0.0,0,0
1772203007.9906502,1772203007.96496,-963.37890625,-884.765625,-950.1953125,520.5078125,0.0,0,0
1772203008.036174,1772203007.968965,-90.8203125,173.828125,-26.3671875,21.97265625,0.0,0,0
1772203008.036294,1772203007.9728613,-1000.0,-1000.0,-1000.0,-460.44921875,0.0,0,0
1772203008.0363479,1772203007.9767575,-320.80078125,-646.484375,-339.35546875,-293.9453125,0.0,0,0
1772203008.0364008,1772203007.9806535,935.546875,742.67578125,923.828125,280.76171875,0.0,0,0
1772203008.036453,1772203007.9845498,-911.62109375,-842.28515625,-899.90234375,546.38671875,0.0,0,0
1772203008.036504,1772203007.9884458,99.609375,173.33984375,162.109375,89.35546875,0.0,0,0
1772203008.036554,1772203007.992342,-1000.0,-1000.0,-1000.0,-425.29296875,0.0,0,0
1772203008.036608,1772203007.9962382,-524.90234375,-911.1328125,-520.5078125,-360.83984375,0.0,0,0
1772203008.036659,1772203008.0001342,837.890625,406.25,827.1484375,214.35546875,0.0,0,0
1772203008.036714,1772203008.0040305,-866.69921875,-787.109375,-867.1875,545.8984375,0.0,0,0
1772203008.036764,1772203008.0079267,192.87109375,145.01953125,191.40625,146.484375,0.0,0,0
1772203008.036814,1772203008.0118227,-1000.0,-1000.0,-1000.0,-395.01953125,0.0,0,0
1772203008.109728,1772203008.0159755,-778.80859375,-1000.0,-785.64453125,-410.15625,0.0,0,0
1772203008.1098208,1772203008.0198717,593.75,102.5390625,556.640625,142.578125,0.0,0,0
1772203008.109851,1772203008.0237677,-815.4296875,-766.6015625,-813.4765625,522.4609375,0.0,0,0
1772203008.10992,1772203008.027664,157.71484375,295.8984375,164.0625,216.796875,0.0,0,0
1772203008.1099799,1772203008.0315602,-1000.0,-969.23828125,-1000.0,-356.4453125,0.0,0,0
1772203008.110042,1772203008.0354564,-993.1640625,-1000.0,-889.16015625,-486.328125,0.0,0,0
1772203008.11007,1772203008.0393527,255.859375,-69.82421875,342.28515625,46.875,0.0,0,0
1772203008.1101801,1772203008.0432487,-771.97265625,-803.7109375,-793.9453125,497.0703125,0.0,0,0
1772203008.1102479,1772203008.047145,207.51953125,470.703125,274.90234375,299.31640625,0.0,0,0
1772203008.110274,1772203008.0510411,-1000.0,-875.48828125,-987.79296875,-314.453125,0.0,0,0
1772203008.1102982,1772203008.0549374,-1000.0,-1000.0,-1000.0,-539.55078125,0.0,0,0
1772203008.1103208,1772203008.0588336,8.7890625,-229.00390625,13.671875,-52.24609375,0.0,0,0
1772203008.125987,1772203008.0628228,-782.2265625,-900.390625,-800.29296875,408.203125,0.0,0,0
1772203008.1260831,1772203008.066719,388.671875,726.5625,454.1015625,302.24609375,0.0,0,0
1772203008.126111,1772203008.0706153,-919.921875,-652.34375,-894.04296875,-315.4296875,0.0,0,0
1772203008.126136,1772203008.0745115,-1000.0,-1000.0,-1000.0,-604.4921875,0.0,0,0
1772203008.12616,1772203008.0784078,-168.9453125,-189.94140625,-119.62890625,-152.34375,0.0,0,0
1772203008.126184,1772203008.082304,-854.4921875,-973.6328125,-879.8828125,338.37890625,0.0,0,0
1772203008.126208,1772203008.0862,613.28125,968.75,701.66015625,339.84375,0.0,0,0
1772203008.1262321,1772203008.0900962,-767.08984375,-280.2734375,-663.0859375,-248.53515625,0.0,0,0
1772203008.1262562,1772203008.0939925,-1000.0,-1000.0,-1000.0,-609.86328125,0.0,0,0
1772203008.126278,1772203008.0978887,-207.51953125,-196.2890625,-165.0390625,-200.1953125,0.0,0,0
1772203008.1263092,1772203008.101785,-941.40625,989.74609375,-957.03125,331.54296875,0.0,0,0
1772203008.126333,1772203008.1056812,865.72265625,-947.75390625,934.08203125,433.10546875,0.0,0,0
1772203008.170648,1772203008.109654,-457.51953125,-28.80859375,-332.03125,-129.8828125,0.0,0,0
1772203008.1707242,1772203008.1135502,-1000.0,-1000.0,-1000.0,-561.03515625,0.0,0,0
1772203008.170754,1772203008.1174464,-177.24609375,-377.9296875,-183.10546875,-252.44140625,0.0,0,0
1772203008.170785,1772203008.1213427,-994.140625,912.109375,998.046875,297.36328125,0.0,0,0
1772203008.170814,1772203008.1252387,-972.65625,-897.94921875,-956.0546875,463.8671875,0.0,0,0
1772203008.1708422,1772203008.129135,-135.25390625,138.18359375,-65.4296875,-66.89453125,0.0,0,0
1772203008.1708832,1772203008.1330311,-1000.0,-1000.0,-1000.0,-538.0859375,0.0,0,0
1772203008.17091,1772203008.1369274,-274.90234375,-586.42578125,-318.359375,-318.84765625,0.0,0,0
1772203008.170958,1772203008.1408236,957.03125,798.33984375,934.5703125,272.94921875,0.0,0,0
1772203008.171007,1772203008.1447198,-924.31640625,-854.00390625,-907.2265625,516.11328125,0.0,0,0
1772203008.171057,1772203008.148616,57.6171875,183.10546875,125.0,34.66796875,0.0,0,0
1772203008.171106,1772203008.1525123,-1000.0,-1000.0,-1000.0,-478.02734375,0.0,0,0
1772203008.230179,1772203008.1564758,-471.6796875,-849.609375,-498.046875,-379.8828125,0.0,0,0
1772203008.230283,1772203008.160372,864.74609375,500.9765625,847.65625,192.3828125,0.0,0,0
1772203008.2303271,1772203008.1642683,-876.953125,-798.828125,-870.1171875,501.46484375,0.0,0,0
1772203008.230366,1772203008.1681645,202.63671875,148.4375,198.2421875,111.328125,0.0,0,0
1772203008.230405,1772203008.1720607,-1000.0,-1000.0,-1000.0,-438.4765625,0.0,0,0
1772203008.23044,1772203008.175957,-710.9375,-1000.0,-676.7578125,-455.078125,0.0,0,0
1772203008.2304761,1772203008.1798532,681.15234375,158.203125,674.31640625,123.53515625,0.0,0,0
1772203008.2305138,1772203008.1837494,-830.56640625,-762.6953125,-835.44921875,481.4453125,0.0,0,0
1772203008.23056,1772203008.1876457,166.50390625,236.328125,169.921875,131.8359375,0.0,0,0
1772203008.230596,1772203008.191542,-1000.0,-993.1640625,-1000.0,-424.31640625,0.0,0,0
1772203008.2306309,1772203008.1954381,-946.2890625,-1000.0,-915.0390625,-515.13671875,0.0,0,0
1772203008.230667,1772203008.1993344,349.609375,-56.15234375,347.65625,32.71484375,0.0,0,0
1772203008.320898,1772203008.203607,-780.2734375,-794.43359375,-788.0859375,447.75390625,0.0,1,0
1772203008.3210309,1772203008.2075033,153.80859375,433.10546875,243.1640625,218.26171875,0.0,0,0
1772203008.3210628,1772203008.2113996,-1000.0,-897.4609375,-1000.0,-372.0703125,0.0,0,0
1772203008.3210938,1772203008.215296,-1000.0,-1000.0,-1000.0,-564.94140625,0.0,0,0
1772203008.321121,1772203008.2191923,50.29296875,-226.07421875,119.62890625,-52.24609375,0.0,0,0
1772203008.321151,1772203008.2230885,-772.4609375,-886.23046875,-795.41015625,413.0859375,0.0,0,0
1772203008.3211799,1772203008.2269847,343.75,686.03515625,421.875,296.38671875,0.0,0,0
1772203008.321208,1772203008.230881,-943.359375,-703.61328125,-903.80859375,-317.87109375,0.0,0,0
1772203008.321238,1772203008.2347775,-1000.0,-1000.0,-1000.0,-592.28515625,0.0,0,0
1772203008.321273,1772203008.2386737,-134.765625,-197.75390625,-126.953125,-119.62890625,0.0,0,0
1772203008.321322,1772203008.24257,-828.125,-958.0078125,-862.79296875,372.0703125,0.0,0,0
1772203008.321368,1772203008.2464662,542.48046875,924.8046875,652.83203125,369.62890625,0.0,0,0
1772203008.3356202,1772203008.250572,-834.47265625,-367.1875,-725.09765625,-239.2578125,0.0,0,0
1772203008.335702,1772203008.2544682,-1000.0,-1000.0,-1000.0,-613.28125,0.0,0,0
1772203008.3357382,1772203008.2583644,-214.84375,-172.8515625,-149.90234375,-202.63671875,0.0,0,0
1772203008.335775,1772203008.2622607,-929.6875,-999.0234375,-943.84765625,329.58984375,0.0,0,0
1772203008.335812,1772203008.2661572,826.171875,-960.44921875,898.92578125,404.296875,0.0,0,0
1772203008.335907,1772203008.2700534,-518.5546875,-73.2421875,-391.11328125,-184.08203125,0.0,0,0
1772203008.335951,1772203008.2739496,-1000.0,-1000.0,-1000.0,-598.14453125,0.0,0,0
1772203008.335988,1772203008.277846,-180.6640625,-366.69921875,-170.8984375,-268.5546875,0.0,0,0
1772203008.33603,1772203008.2817423,-989.2578125,916.9921875,-993.65234375,289.55078125,0.0,0,0
1772203008.3360682,1772203008.2856386,-982.91015625,-902.83203125,-966.30859375,463.37890625,0.0,0,0
1772203008.336158,1772203008.289535,-180.17578125,102.5390625,-109.375,-98.14453125,0.0,0,0
1772203008.336299,1772203008.2934313,-1000.0,-1000.0,-1000.0,-581.0546875,0.0,0,0
1772203008.365324,1772203008.2974494,-246.09375,-554.19921875,-279.78515625,-353.515625,0.0,0,0
1772203008.365428,1772203008.3013458,968.26171875,820.80078125,951.66015625,225.09765625,0.0,0,0
1772203008.365466,1772203008.305242,-932.12890625,-859.86328125,-914.55078125,477.5390625,0.0,0,0
1772203008.365498,1772203008.3091383,23.92578125,189.453125,88.37890625,-9.765625,0.0,0,0
1772203008.365528,1772203008.3130348,-1000.0,-1000.0,-1000.0,-527.34375,0.0,0,0
1772203008.365557,1772203008.316931,-434.5703125,-794.921875,-407.71484375,-416.015625,0.0,0,0
1772203008.365588,1772203008.3208272,879.8828125,573.73046875,895.01953125,202.1484375,0.0,0,0
1772203008.365619,1772203008.3247237,-882.8125,-810.546875,-886.71875,521.97265625,0.0,0,0
1772203008.365649,1772203008.32862,207.03125,153.80859375,205.56640625,75.1953125,0.0,0,0
1772203008.365679,1772203008.3325164,-1000.0,-1000.0,-1000.0,-478.02734375,0.0,0,0
1772203008.365706,1772203008.3364127,-676.26953125,-1000.0,-666.9921875,-476.5625,0.0,0,0
1772203008.3657339,1772203008.340309,718.26171875,206.0546875,695.3125,115.234375,0.0,0,0
1772203008.410805,1772203008.3443162,-838.8671875,-767.08984375,-838.8671875,484.86328125,0.0,0,0
1772203008.410909,1772203008.3482127,171.38671875,211.9140625,173.828125,112.79296875,0.0,0,0
1772203008.410951,1772203008.352109,-1000.0,-1000.0,-1000.0,-448.2421875,0.0,0,0
1772203008.410988,1772203008.3560054,-915.0390625,-1000.0,-885.25390625,-502.44140625,0.0,0,0
1772203008.4110248,1772203008.3599017,399.4140625,-14.16015625,401.85546875,79.58984375,0.0,0,0
1772203008.411062,1772203008.3637981,-786.62109375,-786.62109375,-793.45703125,513.18359375,0.0,0,0
1772203008.4111,1772203008.3676944,143.06640625,414.55078125,205.56640625,243.1640625,0.0,0,0
1772203008.411136,1772203008.3715909,-1000.0,-906.73828125,-1000.0,-380.859375,0.0,0,0
1772203008.4111738,1772203008.375487,-1000.0,-1000.0,-1000.0,-564.453125,0.0,0,0
1772203008.411208,1772203008.3793836,83.49609375,-191.40625,127.9296875,-31.73828125,0.0,0,0
1772203008.4112499,1772203008.3832798,-769.04296875,-863.28125,-785.15625,443.84765625,0.0,0,0
1772203008.411506,1772203008.387176,316.40625,627.44140625,378.41796875,289.55078125,0.0,0,0
1772203008.45769,1772203008.3911722,-957.03125,-758.30078125,-935.546875,-349.12109375,0.0,0,0
1772203008.457823,1772203008.3950686,-1000.0,-1000.0,-1000.0,-594.7265625,0.0,0,0
1772203008.457881,1772203008.398965,-104.4921875,-205.078125,-66.89453125,-81.0546875,0.0,0,0
1772203008.457933,1772203008.4028614,-815.91796875,-945.3125,-840.8203125,405.2734375,0.0,0,0
1772203008.457985,1772203008.4067576,506.8359375,882.32421875,587.40234375,365.72265625,0.0,0,0
1772203008.4580412,1772203008.410654,-857.421875,-433.10546875,-780.2734375,-248.53515625,0.0,0,0
1772203008.458088,1772203008.4145503,-1000.0,-1000.0,-1000.0,-610.83984375,0.0,0,0
1772203008.458122,1772203008.4184468,-221.6796875,-176.7578125,-187.01171875,-158.203125,0.0,0,0
1772203008.4581592,1772203008.422343,-916.015625,-993.65234375,-931.15234375,388.671875,0.0,0,0
1772203008.458196,1772203008.4262395,777.83203125,-971.19140625,848.14453125,437.98828125,0.0,0,0
1772203008.4582322,1772203008.4301357,-585.44921875,-125.48828125,-477.5390625,-159.1796875,0.0,0,0
1772203008.458268,1772203008.4340322,-1000.0,-1000.0,-1000.0,-584.47265625,0.0,0,0
1772203008.499962,1772203008.4380152,-186.03515625,-306.15234375,-170.41015625,-225.09765625,0.0,0,0
1772203008.5000808,1772203008.4419117,-979.00390625,942.3828125,-987.3046875,350.5859375,0.0,0,0
1772203008.5001228,1772203008.445808,986.81640625,-915.0390625,-982.421875,489.74609375,0.0,0,0
1772203008.5001621,1772203008.4497044,-245.60546875,76.171875,-164.0625,-85.9375,0.0,0,0
1772203008.500201,1772203008.453601,-1000.0,-1000.0,-1000.0,-580.078125,0.0,0,0
1772203008.500236,1772203008.4574971,-197.265625,-472.16796875,-204.1015625,-314.453125,0.0,0,0
1772203008.500272,1772203008.4613936,987.3046875,868.1640625,980.95703125,302.734375,0.0,0,0
1772203008.500309,1772203008.4652898,-944.82421875,-876.46484375,-933.59375,518.06640625,0.0,0,0
1772203008.500345,1772203008.4691863,-7.8125,199.70703125,47.8515625,-3.90625,0.0,0,0
1772203008.500383,1772203008.4730825,-1000.0,-1000.0,-1000.0,-533.203125,0.0,0,0
1772203008.500426,1772203008.476979,-390.625,-752.9296875,-392.08984375,-390.13671875,0.0,0,0
1772203008.500463,1772203008.4808755,902.34375,628.41796875,900.87890625,239.2578125,0.0,0,0
1772203008.546117,1772203008.4848552,-893.06640625,-821.2890625,-889.16015625,547.8515625,0.0,0,0
1772203008.5462248,1772203008.4887516,181.640625,163.0859375,197.265625,90.8203125,0.0,0,0
1772203008.546283,1772203008.492648,-1000.0,-1000.0,-1000.0,-476.5625,0.0,0,0
1772203008.546334,1772203008.4965444,-603.515625,-962.40234375,-610.3515625,-448.73046875,0.0,0,0
1772203008.546386,1772203008.5004408,789.55078125,322.75390625,753.41796875,157.71484375,0.0,0,0
1772203008.546439,1772203008.504337,-854.00390625,-776.85546875,-850.09765625,528.80859375,0.0,0,0
1772203008.5464902,1772203008.5082335,181.15234375,156.25,181.15234375,153.80859375,0.0,0,0
1772203008.54654,1772203008.51213,-1000.0,-1000.0,-1000.0,-425.29296875,0.0,0,0
1772203008.546589,1772203008.5160263,-858.3984375,-1000.0,-830.078125,-498.046875,0.0,0,0
1772203008.546638,1772203008.5199227,487.3046875,46.38671875,481.4453125,90.33203125,0.0,0,0
1772203008.546687,1772203008.523819,-797.8515625,-771.484375,-804.19921875,536.62109375,0.0,0,0
1772203008.546744,1772203008.5277154,146.484375,339.84375,188.96484375,255.37109375,0.0,0,0
1772203008.607918,1772203008.5317616,-1000.0,-944.3359375,-1000.0,-343.75,0.0,0,0
1772203008.608053,1772203008.5356581,-1000.0,-1000.0,-961.9140625,-499.51171875,0.0,0,0
1772203008.6081011,1772203008.5395544,115.234375,-166.015625,219.7265625,30.2734375,0.0,0,0
1772203008.60814,1772203008.5434508,-696.77734375,-768.06640625,-722.16796875,537.109375,0.0,0,0
1772203008.608181,1772203008.5473473,178.7109375,479.4921875,251.46484375,295.8984375,0.0,0,0
1772203008.608219,1772203008.5512438,-917.96875,-853.515625,-899.90234375,-239.74609375,0.0,0,0
1772203008.608255,1772203008.55514,592.28515625,615.234375,603.02734375,239.2578125,0.0,0,0
1772203008.6082911,1772203008.5590365,-64.94140625,414.55078125,35.15625,215.8203125,0.0,0,0
1772203008.6083279,1772203008.562933,-1000.0,-1000.0,-1000.0,-564.94140625,0.0,0,0
1772203008.608365,1772203008.5668292,-814.453125,-849.12109375,-747.55859375,-439.453125,0.0,0,0
1772203008.6084092,1772203008.5707257,524.90234375,518.5546875,581.0546875,159.1796875,0.0,0,0
1772203008.608456,1772203008.5746222,-826.171875,-815.91796875,-832.03125,493.65234375,0.0,0,0
1772203008.6663098,1772203008.578659,26.85546875,542.48046875,167.96875,182.6171875,0.0,0,0
1772203008.66641,1772203008.5825553,-1000.0,-913.57421875,-1000.0,-457.03125,0.0,0,0
1772203008.6664472,1772203008.5864518,-853.02734375,-974.609375,-834.47265625,-451.66015625,0.0,0,0
1772203008.666479,1772203008.5903482,514.6484375,479.98046875,556.640625,118.65234375,0.0,0,0
1772203008.666511,1772203008.5942447,-812.98828125,-840.33203125,-826.171875,517.578125,0.0,0,0
1772203008.666542,1772203008.5981412,392.08984375,686.5234375,514.6484375,265.13671875,0.0,0,0
1772203008.666571,1772203008.6020377,-997.55859375,-744.140625,-933.59375,-405.76171875,0.0,0,0
1772203008.666603,1772203008.605934,-900.87890625,-1000.0,-934.08203125,-511.71875,0.0,0,0
1772203008.666633,1772203008.6098304,538.0859375,307.12890625,528.80859375,18.5546875,0.0,0,0
1772203008.666664,1772203008.6137269,-835.9375,-858.3984375,-848.14453125,503.90625,0.0,0,0
1772203008.666694,1772203008.6176233,629.8828125,799.8046875,687.98828125,315.4296875,0.0,0,0
1772203008.666722,1772203008.6215198,-821.2890625,-564.94140625,-774.90234375,-346.19140625,0.0,0,0
1772203008.711404,1772203008.6255553,-1000.0,-1000.0,-1000.0,-537.59765625,0.0,0,0
1772203008.711526,1772203008.6294518,402.34375,34.66796875,435.546875,-59.08203125,0.0,0,0
1772203008.711571,1772203008.6333482,-849.609375,-891.11328125,-867.67578125,483.88671875,0.0,0,0
1772203008.71161,1772203008.6372447,750.0,810.546875,796.875,361.328125,0.0,0,0
1772203008.711652,1772203008.6411412,-656.25,-543.9453125,-609.375,-282.71484375,0.0,0,0
1772203008.711691,1772203008.6450377,-1000.0,-1000.0,-1000.0,-565.4296875,0.0,0,0
1772203008.711725,1772203008.6489341,220.21484375,-362.79296875,240.72265625,-167.96875,0.0,0,0
1772203008.711762,1772203008.6528304,-859.86328125,989.2578125,-877.44140625,427.24609375,0.0,0,0
1772203008.7117991,1772203008.6567268,798.828125,857.91015625,810.546875,395.5078125,0.0,0,0
1772203008.7118359,1772203008.6606233,-545.41015625,-565.4296875,-558.10546875,-189.94140625,0.0,0,0
1772203008.711875,1772203008.6645198,-1000.0,-1000.0,-1000.0,-554.6875,0.0,0,0
1772203008.711912,1772203008.6684163,-159.1796875,-631.8359375,-94.23828125,-231.4453125,0.0,0,0
1772203008.7558038,1772203008.6724432,-942.87109375,812.5,-950.1953125,406.25,0.0,0,0
1772203008.755914,1772203008.6763396,828.61328125,-991.69921875,842.7734375,471.6796875,0.0,0,0
1772203008.75598,1772203008.680236,-550.29296875,-425.29296875,-557.6171875,-85.9375,0.0,0,0
1772203008.756032,1772203008.6841326,-1000.0,-1000.0,-1000.0,-535.64453125,0.0,0,0
1772203008.756087,1772203008.688029,-528.80859375,-770.01953125,-366.2109375,-292.96875,0.0,0,0
1772203008.756138,1772203008.6919255,897.4609375,640.13671875,910.64453125,320.3125,0.0,0,0
1772203008.756187,1772203008.695822,942.87109375,-883.7890625,964.35546875,469.23828125,0.0,0,0
1772203008.756237,1772203008.6997185,-494.140625,-259.765625,-427.734375,-2.44140625,0.0,0,0
1772203008.756298,1772203008.703615,-1000.0,-1000.0,-1000.0,-530.2734375,0.0,0,0
1772203008.756354,1772203008.7075114,-697.75390625,-832.03125,-581.0546875,-356.4453125,0.0,0,0
1772203008.7564049,1772203008.711408,730.95703125,512.6953125,756.8359375,256.34765625,0.0,0,0
1772203008.756472,1772203008.7153044,-931.15234375,-816.40625,-921.38671875,514.16015625,0.0,0,0
1772203008.799844,1772203008.7193832,-336.42578125,120.60546875,-249.51171875,115.234375,0.0,0,0
1772203008.799955,1772203008.7232797,-1000.0,-1000.0,-1000.0,-492.67578125,0.0,0,0
1772203008.799995,1772203008.7271762,-818.84765625,-860.83984375,-762.6953125,-392.08984375,0.0,0,0
1772203008.8002481,1772203008.7310727,547.8515625,516.6015625,586.9140625,192.87109375,0.0,0,0
1772203008.800292,1772203008.7349691,-836.9140625,-814.94140625,-836.9140625,497.55859375,0.0,0,0
1772203008.80033,1772203008.7388656,-57.12890625,508.7890625,74.70703125,162.109375,0.0,0,0
1772203008.800378,1772203008.742762,-1000.0,-932.12890625,-1000.0,-470.703125,0.0,0,0
1772203008.800412,1772203008.7466586,-844.7265625,-958.984375,-835.9375,-437.5,0.0,0,0
1772203008.80045,1772203008.7505553,512.20703125,490.72265625,539.55078125,138.18359375,0.0,0,0
1772203008.8004858,1772203008.7544518,-811.5234375,-836.42578125,-819.3359375,515.13671875,0.0,0,0
1772203008.800522,1772203008.7583482,327.63671875,659.1796875,447.75390625,247.55859375,0.0,0,0
1772203008.8005571,1772203008.7622447,-1000.0,-778.3203125,-971.6796875,-420.41015625,0.0,0,0
1772203008.845655,1772203008.7663176,-890.13671875,-1000.0,-908.203125,-483.3984375,0.0,0,0
1772203008.845829,1772203008.770214,532.2265625,341.30859375,541.9921875,57.12890625,0.0,0,0
1772203008.8458922,1772203008.7741108,-830.56640625,-856.4453125,-842.7734375,500.9765625,0.0,0,0
1772203008.845931,1772203008.7780073,605.95703125,787.109375,655.76171875,297.8515625,0.0,0,0
1772203008.8459678,1772203008.7819037,-848.6328125,-585.44921875,-808.10546875,-348.6328125,0.0,0,0
1772203008.846005,1772203008.7858002,-1000.0,-1000.0,-1000.0,-506.8359375,0.0,0,0
1772203008.846039,1772203008.7896967,426.7578125,75.68359375,443.359375,-27.34375,0.0,0,0
1772203008.846078,1772203008.7935934,-849.609375,-883.30078125,-863.28125,513.671875,0.0,0,0
1772203008.846116,1772203008.79749,740.72265625,809.08203125,779.78515625,399.4140625,0.0,0,0
1772203008.8461518,1772203008.8013864,-674.8046875,-545.8984375,-626.953125,-248.53515625,0.0,0,0
1772203008.846188,1772203008.8052828,-1000.0,-1000.0,-1000.0,-540.0390625,0.0,0,0
1772203008.846229,1772203008.8091793,258.30078125,-290.0390625,243.65234375,-141.6015625,0.0,0,0
1772203008.891867,1772203008.813237,-859.86328125,-984.86328125,-870.1171875,458.984375,0.0,0,0
1772203008.89199,1772203008.8171337,800.78125,847.16796875,806.640625,405.76171875,0.0,0,0
1772203008.892048,1772203008.8210301,-549.31640625,-559.08203125,-554.6875,-201.66015625,0.0,0,0
1772203008.892101,1772203008.8249266,-1000.0,-1000.0,-1000.0,-543.9453125,0.0,0,0
1772203008.89215,1772203008.8288233,-84.47265625,-605.46875,-98.6328125,-200.1953125,0.0,0,0
1772203008.892203,1772203008.8327198,-921.875,848.6328125,-941.40625,412.109375,0.0,0,0
1772203008.892252,1772203008.8366163,822.265625,969.23828125,834.47265625,441.40625,0.0,0,0
1772203008.892302,1772203008.8405128,-548.33984375,-481.4453125,-560.546875,-111.81640625,0.0,0,0
1772203008.892359,1772203008.8444095,-1000.0,-1000.0,-1000.0,-537.59765625,0.0,0,0
1772203008.892416,1772203008.848306,-446.2890625,-731.93359375,-371.58203125,-278.3203125,0.0,0,0
1772203008.8924758,1772203008.8522024,940.4296875,687.01171875,934.5703125,350.09765625,0.0,0,0
1772203008.8925529,1772203008.8560991,911.1328125,-903.80859375,935.05859375,470.703125,0.0,0,0
1772203008.9351099,1772203008.8601499,-512.6953125,-291.50390625,-460.9375,-22.94921875,0.0,0,0
1772203008.935186,1772203008.8640466,-1000.0,-1000.0,-1000.0,-523.92578125,0.0,0,0
1772203008.935221,1772203008.867943,-658.203125,-833.49609375,-629.8828125,-343.26171875,0.0,0,0
1772203008.9352582,1772203008.8718398,764.16015625,516.6015625,752.9296875,277.34375,0.0,0,0
1772203008.93534,1772203008.8757362,952.1484375,-821.77734375,971.19140625,458.49609375,0.0,0,0
1772203008.9354,1772203008.8796327,-384.765625,56.640625,-329.58984375,45.41015625,0.0,0,0
1772203008.9354398,1772203008.8835294,-1000.0,-1000.0,-1000.0,-522.4609375,0.0,0,0
1772203008.9354749,1772203008.887426,-794.43359375,-857.421875,-772.4609375,-395.99609375,0.0,0,0
1772203008.9355142,1772203008.8913224,602.05078125,517.578125,596.6796875,202.63671875,0.0,0,0
1772203008.935551,1772203008.895219,-853.02734375,-812.01171875,-844.23828125,481.4453125,0.0,0,0
1772203008.9355881,1772203008.8991156,-114.2578125,381.34765625,1.46484375,139.16015625,0.0,0,0
1772203008.935625,1772203008.9030123,-1000.0,-1000.0,-1000.0,-491.2109375,0.0,0,0
1772203008.981152,1772203008.907053,-840.33203125,-900.87890625,-803.22265625,-438.4765625,0.0,0,0
1772203008.981272,1772203008.9109495,511.71875,534.66796875,558.59375,134.765625,0.0,0,0
1772203008.981348,1772203008.9148462,-812.5,-835.9375,-823.2421875,499.51171875,0.0,0,0
1772203008.9814022,1772203008.9187427,271.97265625,636.71875,387.20703125,235.3515625,0.0,0,0
1772203008.981455,1772203008.9226391,-1000.0,-812.5,-1000.0,-413.57421875,0.0,0,0
1772203008.981504,1772203008.9265358,-881.8359375,-1000.0,-871.58203125,-466.30859375,0.0,0,0
1772203008.981554,1772203008.9304323,527.34375,391.6015625,567.87109375,55.6640625,0.0,0,0
1772203008.981604,1772203008.934329,-825.1953125,-847.65625,-840.8203125,488.76953125,0.0,0,0
1772203008.9816551,1772203008.9382255,577.63671875,749.51171875,624.0234375,280.76171875,0.0,0,0
1772203008.981705,1772203008.9421222,-880.859375,-653.80859375,-840.8203125,-378.90625,0.0,0,0
1772203008.9817548,1772203008.9460187,-995.1171875,-1000.0,-1000.0,-520.99609375,0.0,0,0
1772203008.981802,1772203008.9499154,464.35546875,202.63671875,459.47265625,-42.48046875,0.0,0,0
1772203009.038421,1772203008.9539423,-845.703125,-858.88671875,-857.91015625,487.3046875,0.0,0,0
1772203009.038553,1772203008.957839,712.890625,799.31640625,758.30078125,367.67578125,0.0,0,0
1772203009.038605,1772203008.9617355,-713.37890625,-543.9453125,-667.96875,-286.1328125,0.0,0,0
1772203009.038657,1772203008.9656322,-1000.0,-1000.0,-1000.0,-534.66796875,0.0,0,0
1772203009.038707,1772203008.9695287,299.8046875,-183.59375,317.3828125,-120.60546875,0.0,0,0
1772203009.038757,1772203008.9734254,-860.3515625,-948.73046875,-864.74609375,413.57421875,0.0,0,0
1772203009.038825,1772203008.9773219,804.19921875,832.03125,808.59375,357.91015625,0.0,0,0
1772203009.0388741,1772203008.9812186,-556.15234375,-550.78125,-563.4765625,-249.51171875,0.0,0,0
1772203009.038944,1772203008.9851153,-1000.0,-1000.0,-1000.0,-585.9375,0.0,0,0
1772203009.03899,1772203008.9890118,18.5546875,-558.59375,34.66796875,-211.42578125,0.0,0,0
1772203009.03904,1772203008.9929085,-895.01953125,886.71875,-911.1328125,402.83203125,0.0,0,0
1772203009.039107,1772203008.996805,811.5234375,943.359375,819.82421875,411.62109375,0.0,0,0
1772203009.083495,1772203009.0008216,-544.921875,-504.39453125,-553.7109375,-167.96875,0.0,0,0
1772203009.083619,1772203009.004718,-1000.0,-1000.0,-1000.0,-573.73046875,0.0,0,0
1772203009.0836768,1772203009.0086148,-371.58203125,-706.0546875,-329.58984375,-299.31640625,0.0,0,0
1772203009.083732,1772203009.0125113,983.3984375,721.6796875,960.9375,326.171875,0.0,0,0
1772203009.083786,1772203009.016408,865.234375,-924.31640625,909.66796875,442.87109375,0.0,0,0
1772203009.083841,1772203009.0203047,-555.6640625,-329.58984375,-491.69921875,-71.77734375,0.0,0,0
1772203009.0838919,1772203009.0242012,-1000.0,-1000.0,-1000.0,-567.87109375,0.0,0,0
1772203009.083951,1772203009.0280979,-639.6484375,-833.49609375,-607.91015625,-352.5390625,0.0,0,0
1772203009.084005,1772203009.0319946,803.7109375,530.76171875,784.66796875,250.9765625,0.0,0,0
1772203009.0840662,1772203009.035891,-984.86328125,-833.984375,-950.68359375,427.734375,0.0,0,0
1772203009.084125,1772203009.0397878,-415.0390625,-62.98828125,-342.28515625,-14.16015625,0.0,0,0
1772203009.084183,1772203009.0436842,-1000.0,-1000.0,-1000.0,-572.265625,0.0,0,0
1772203009.1300359,1772203009.0476913,-770.99609375,-843.26171875,-674.8046875,-436.03515625,0.0,0,0
1772203009.1301608,1772203009.051588,633.30078125,511.23046875,657.2265625,148.92578125,0.0,0,0
1772203009.130204,1772203009.0554845,-875.0,-810.546875,-867.1875,431.15234375,0.0,0,0
1772203009.130241,1772203009.0593812,-234.86328125,335.9375,-75.68359375,85.9375,0.0,0,0
1772203009.1302788,1772203009.063278,-1000.0,-1000.0,-1000.0,-527.34375,0.0,0,0
1772203009.1303182,1772203009.0671744,-831.0546875,-891.6015625,-723.6328125,-459.9609375,0.0,0,0
1772203009.130355,1772203009.0710711,510.25390625,533.203125,602.05078125,103.515625,0.0,0,0
1772203009.130539,1772203009.0749679,-813.96484375,-828.125,-835.44921875,458.49609375,0.0,0,0
1772203009.130579,1772203009.0788643,162.59765625,597.65625,308.59375,199.21875,0.0,0,0
1772203009.130616,1772203009.082761,-1000.0,-851.5625,-1000.0,-470.21484375,0.0,0,0
1772203009.130651,1772203009.0866578,-865.72265625,-1000.0,-867.1875,-499.51171875,0.0,0,0
1772203009.130686,1772203009.0905542,518.06640625,411.62109375,552.24609375,90.33203125,0.0,0,0
1772203009.191374,1772203009.0947046,-816.89453125,-844.7265625,-831.0546875,501.46484375,0.0,0,0
1772203009.191571,1772203009.098601,534.1796875,730.95703125,589.35546875,278.80859375,0.0,0,0
1772203009.191631,1772203009.1024978,-919.921875,-680.6640625,-873.53515625,-378.90625,0.0,0,0
1772203009.1918578,1772203009.1063945,-964.84375,-1000.0,-992.1875,-524.4140625,0.0,0,0
1772203009.191925,1772203009.1102912,491.2109375,233.88671875,469.7265625,-17.08984375,0.0,0,0
1772203009.191969,1772203009.114188,-841.796875,-859.375,-850.5859375,496.09375,0.0,0,0
1772203009.192008,1772203009.1180847,680.17578125,802.24609375,726.5625,348.14453125,0.0,0,0
1772203009.19209,1772203009.1219811,-756.8359375,-549.8046875,-714.84375,-275.390625,0.0,0,0
1772203009.1921332,1772203009.1258779,-1000.0,-1000.0,-1000.0,-485.83984375,0.0,0,0
1772203009.1921952,1772203009.1297746,336.42578125,-95.21484375,354.98046875,-91.30859375,0.0,0,0
1772203009.192236,1772203009.1336713,-859.86328125,-924.31640625,-865.234375,460.9375,0.0,0,0
1772203009.1922739,1772203009.137568,797.8515625,822.265625,804.6875,401.85546875,0.0,0,0
1772203009.2212029,1772203009.1416385,-573.2421875,-547.36328125,-569.3359375,-239.2578125,0.0,0,0
1772203009.221334,1772203009.1455352,-1000.0,-1000.0,-1000.0,-576.66015625,0.0,0,0
1772203009.221378,1772203009.1494317,83.49609375,-487.79296875,68.359375,-223.14453125,0.0,0,0
1772203009.221418,1772203009.1533284,-882.32421875,922.36328125,-901.3671875,380.37109375,0.0,0,0
1772203009.221457,1772203009.1572251,807.12890625,919.921875,817.3828125,386.23046875,0.0,0,0
1772203009.2214952,1772203009.1611218,-544.43359375,-514.6484375,-553.22265625,-197.265625,0.0,0,0
1772203009.2215319,1772203009.1650186,-1000.0,-1000.0,-1000.0,-590.33203125,0.0,0,0
1772203009.221571,1772203009.1689153,-304.19921875,-687.01171875,-282.71484375,-284.66796875,0.0,0,0
1772203009.221639,1772203009.172812,-990.72265625,749.51171875,987.79296875,336.9140625,0.0,0,0
1772203009.2217019,1772203009.1767087,848.6328125,-948.73046875,885.25390625,426.7578125,0.0,0,0
1772203009.221744,1772203009.1806054,-560.05859375,-367.67578125,-523.4375,-78.61328125,0.0,0,0
1772203009.221781,1772203009.1845021,-1000.0,-1000.0,-1000.0,-552.734375,0.0,0,0
1772203009.265036,1772203009.1885564,-604.4921875,-798.33984375,-516.11328125,-325.1953125,0.0,0,0
1772203009.265131,1772203009.1924531,834.9609375,579.58984375,838.8671875,296.38671875,0.0,0,0
1772203009.2651699,1772203009.1963499,-998.046875,-841.796875,-976.07421875,465.33203125,0.0,0,0
1772203009.265208,1772203009.2002466,-436.03515625,-105.95703125,-378.90625,-7.32421875,0.0,0,0
1772203009.2652469,1772203009.2041433,-1000.0,-1000.0,-1000.0,-563.4765625,0.0,0,0
1772203009.265285,1772203009.20804,-636.23046875,-744.62890625,-501.953125,-364.74609375,0.0,0,0
1772203009.265322,1772203009.2119367,711.9140625,549.8046875,754.8828125,215.33203125,0.0,0,0
1772203009.265358,1772203009.2158334,-910.15625,-829.58984375,-911.62109375,449.21875,0.0,0,0
1772203009.265395,1772203009.2197301,-255.859375,235.83984375,-140.625,105.46875,0.0,0,0
1772203009.265444,1772203009.2236269,-1000.0,-1000.0,-1000.0,-505.859375,0.0,0,0
1772203009.265484,1772203009.2275236,-833.49609375,-875.0,-768.5546875,-426.26953125,0.0,0,0
1772203009.265528,1772203009.2314203,514.6484375,523.92578125,574.21875,174.8046875,0.0,0,0
1772203009.311185,1772203009.2354648,-819.82421875,-821.2890625,-829.1015625,498.046875,0.0,0,0
1772203009.311328,1772203009.2393615,87.40234375,566.89453125,214.84375,189.94140625,0.0,0,0
1772203009.311389,1772203009.2432582,-1000.0,-890.625,-1000.0,-466.796875,0.0,0,0
1772203009.311439,1772203009.247155,-858.3984375,-990.234375,-847.65625,-480.95703125,0.0,0,0
1772203009.311491,1772203009.2510517,516.11328125,467.28515625,553.22265625,85.9375,0.0,0,0
1772203009.311542,1772203009.2549484,-814.94140625,-840.33203125,-827.1484375,472.65625,0.0,0,0
1772203009.3115919,1772203009.258845,461.9140625,692.87109375,538.57421875,234.375,0.0,0,0
1772203009.3116548,1772203009.2627418,-963.37890625,-732.421875,-911.62109375,-414.55078125,0.0,0,0
1772203009.311718,1772203009.2666388,-921.38671875,-1000.0,-959.9609375,-514.6484375,0.0,0,0
1772203009.311776,1772203009.2705355,531.73828125,288.0859375,500.9765625,-7.32421875,0.0,0,0
1772203009.311852,1772203009.2744322,-840.8203125,-859.375,-848.14453125,456.0546875,0.0,0,0
1772203009.311913,1772203009.278329,652.83203125,804.19921875,702.1484375,290.0390625,0.0,0,0
1772203009.354514,1772203009.2823606,-792.48046875,-554.19921875,-744.62890625,-349.12109375,0.0,0,0
1772203009.3545759,1772203009.2862573,-1000.0,-1000.0,-1000.0,-547.36328125,0.0,0,0
1772203009.3545952,1772203009.290154,377.44140625,-5.859375,377.44140625,-94.23828125,0.0,0,0
1772203009.354613,1772203009.294051,-854.98046875,-899.90234375,-863.28125,456.54296875,0.0,0,0
1772203009.354632,1772203009.2979476,775.390625,814.453125,796.875,366.2109375,0.0,0,0
1772203009.354648,1772203009.3018444,-619.62890625,-544.921875,-585.9375,-269.53125,0.0,0,0
1772203009.354666,1772203009.305741,-1000.0,-1000.0,-1000.0,-568.84765625,0.0,0,0
1772203009.354681,1772203009.3096378,198.73046875,-392.578125,124.0234375,-170.41015625,0.0,0,0
1772203009.354698,1772203009.3135347,-860.3515625,979.00390625,-885.7421875,438.96484375,0.0,0,0
1772203009.3547149,1772203009.3174314,799.8046875,862.79296875,814.453125,406.25,0.0,0,0
1772203009.354731,1772203009.3213282,-545.41015625,-567.87109375,-557.12890625,-167.48046875,0.0,0,0
1772203009.3547468,1772203009.3252249,-1000.0,-1000.0,-1000.0,-516.11328125,0.0,0,0
1772203009.399372,1772203009.3292487,-171.875,-640.13671875,-152.34375,-236.328125,0.0,0,0
1772203009.39942,1772203009.3331456,-946.2890625,803.22265625,-968.75,367.67578125,0.0,0,0
1772203009.399435,1772203009.3370423,830.078125,-983.88671875,859.86328125,443.359375,0.0,0,0
1772203009.399449,1772203009.340939,-550.78125,-414.55078125,-544.921875,-88.37890625,0.0,0,0
1772203009.399461,1772203009.344836,-1000.0,-1000.0,-1000.0,-544.43359375,0.0,0,0
1772203009.399473,1772203009.3487327,-544.43359375,-765.625,-379.8828125,-311.03515625,0.0,0,0
1772203009.399486,1772203009.3526294,884.27734375,640.625,902.83203125,319.82421875,0.0,0,0
1772203009.399498,1772203009.3565261,958.984375,-877.44140625,975.5859375,484.86328125,0.0,0,0
1772203009.399511,1772203009.360423,-469.7265625,-239.74609375,-396.484375,2.9296875,0.0,0,0
1772203009.399523,1772203009.3643198,-1000.0,-1000.0,-1000.0,-546.875,0.0,0,0
1772203009.3995352,1772203009.3682165,-706.54296875,-830.56640625,-658.203125,-383.7890625,0.0,0,0
1772203009.3995469,1772203009.3721135,718.75,510.25390625,715.8203125,215.8203125,0.0,0,0
1772203009.487295,1772203009.3761265,-920.41015625,-812.98828125,-899.4140625,459.9609375,0.0,0,0
1772203009.4873312,1772203009.3800232,-315.91796875,163.0859375,-216.30859375,72.265625,0.0,0,0
1772203009.4873521,1772203009.3839202,-1000.0,-1000.0,-1000.0,-531.25,0.0,0,0
1772203009.487369,1772203009.387817,-829.1015625,-866.69921875,-734.86328125,-437.98828125,0.0,0,0
1772203009.4873888,1772203009.3917136,532.2265625,519.53125,596.19140625,142.08984375,0.0,0,0
1772203009.4874082,1772203009.3956106,-831.54296875,-815.4296875,-838.37890625,456.0546875,0.0,0,0
1772203009.487427,1772203009.3995073,-33.203125,513.18359375,133.7890625,144.53125,0.0,0,0
1772203009.487446,1772203009.4034042,-1000.0,-926.26953125,-1000.0,-504.39453125,0.0,0,0
1772203009.487464,1772203009.407301,-846.19140625,-969.7265625,-838.8671875,-487.79296875,0.0,0,0
1772203009.4874828,1772203009.4111977,511.71875,476.5625,545.41015625,101.07421875,0.0,0,0
1772203009.487533,1772203009.4150946,-811.03515625,-837.890625,-822.265625,484.86328125,0.0,0,0
1772203009.487662,1772203009.4189913,357.91015625,676.26953125,496.09375,253.41796875,0.0,0,0
1772203009.502898,1772203009.4229999,-1000.0,-756.34765625,-942.87109375,-388.18359375,0.0,0,0
1772203009.502958,1772203009.4268966,-895.01953125,-1000.0,-933.59375,-487.79296875,0.0,0,0
1772203009.503016,1772203009.4307933,534.66796875,317.3828125,523.92578125,42.96875,0.0,0,0
1772203009.5030558,1772203009.4346902,-833.0078125,-857.91015625,-844.23828125,515.13671875,0.0,0,0
1772203009.5030808,1772203009.438587,617.67578125,796.38671875,674.31640625,333.984375,0.0,0,0
1772203009.503105,1772203009.442484,-833.49609375,-571.77734375,-777.83203125,-321.2890625,0.0,0,0
1772203009.503159,1772203009.4463806,-1000.0,-1000.0,-1000.0,-520.99609375,0.0,0,0
1772203009.5031989,1772203009.4502776,404.296875,52.24609375,395.99609375,-43.45703125,0.0,0,0
1772203009.503223,1772203009.4541743,-849.609375,-888.18359375,-860.83984375,494.140625,0.0,0,0
1772203009.5032508,1772203009.458071,748.046875,810.05859375,786.1328125,364.74609375,0.0,0,0
1772203009.503274,1772203009.461968,-660.64453125,-544.921875,-616.2109375,-259.27734375,0.0,0,0
1772203009.503298,1772203009.4658647,-1000.0,-1000.0,-1000.0,-535.64453125,0.0,0,0
1772203009.594923,1772203009.470161,229.00390625,-333.49609375,215.8203125,-151.3671875,0.0,0,0
1772203009.595028,1772203009.4740577,-859.375,-1000.0,-876.46484375,435.546875,0.0,0,0
1772203009.595168,1772203009.4779546,800.78125,854.00390625,816.40625,397.4609375,0.0,0,0
1772203009.5952132,1772203009.4818516,-547.8515625,-562.01171875,-567.87109375,-195.80078125,0.0,0,0
1772203009.595257,1772203009.4857483,-1000.0,-1000.0,-1000.0,-541.9921875,0.0,0,0
1772203009.5952919,1772203009.4896452,-121.58203125,-587.890625,-10.7421875,-232.421875,0.0,0,0
1772203009.595329,1772203009.4935422,-932.6171875,851.07421875,-930.17578125,368.65234375,0.0,0,0
1772203009.595366,1772203009.497439,824.70703125,988.28125,822.75390625,421.38671875,0.0,0,0
1772203009.5954502,1772203009.5013359,-548.828125,-440.4296875,-550.78125,-128.41796875,0.0,0,0
1772203009.595516,1772203009.5052328,-1000.0,-1000.0,-1000.0,-558.10546875,0.0,0,0
1772203009.5955572,1772203009.5091295,-503.41796875,-757.8125,-441.89453125,-308.10546875,0.0,0,0
1772203009.595598,1772203009.5130265,912.109375,655.2734375,903.80859375,308.59375,0.0,0,0
1772203009.598089,1772203009.5171,928.7109375,-890.13671875,959.47265625,458.984375,0.0,0,0
1772203009.598167,1772203009.520997,-506.34765625,-270.99609375,-450.68359375,-37.109375,0.0,0,0
1772203009.598232,1772203009.5248938,-1000.0,-1000.0,-1000.0,-553.22265625,0.0,0,0
1772203009.598273,1772203009.5287907,-686.03515625,-834.47265625,-599.12109375,-356.93359375,0.0,0,0
1772203009.598312,1772203009.5326877,744.140625,517.08984375,759.27734375,239.2578125,0.0,0,0
1772203009.598349,1772203009.5365846,-938.96484375,-821.2890625,-927.24609375,464.84375,0.0,0,0
1772203009.5983858,1772203009.5404813,-345.21484375,62.5,-279.296875,58.59375,0.0,0,0
1772203009.598422,1772203009.5443783,-1000.0,-1000.0,-1000.0,-531.73828125,0.0,0,0
1772203009.598457,1772203009.5482752,-805.17578125,-854.98046875,-724.609375,-419.43359375,0.0,0,0
1772203009.598496,1772203009.5521722,568.84765625,514.6484375,610.83984375,176.7578125,0.0,0,0
1772203009.5985322,1772203009.5560691,-843.75,-812.98828125,-846.6796875,468.75,0.0,0,0
1772203009.598567,1772203009.5599658,-80.078125,456.54296875,48.33984375,137.20703125,0.0,0,0
1772203009.639702,1772203009.5640159,-1000.0,-959.47265625,-1000.0,-490.72265625,0.0,0,0
1772203009.639807,1772203009.5679128,-852.05078125,-947.265625,-851.5625,-475.09765625,0.0,0,0
1772203009.639849,1772203009.5718095,521.97265625,515.13671875,540.52734375,101.07421875,0.0,0,0
1772203009.639887,1772203009.5757065,-810.546875,-833.49609375,-814.94140625,475.5859375,0.0,0,0
1772203009.639926,1772203009.5796034,110.83984375,450.1953125,221.19140625,147.94921875,0.0,0,0
1772203009.6399622,1772203009.5835004,-1000.0,-864.74609375,-1000.0,-451.171875,0.0,0,0
1772203009.639997,1772203009.5873973,-853.515625,-1000.0,-886.71875,-492.1875,0.0,0,0
1772203009.640033,1772203009.5912943,514.6484375,320.80078125,502.9296875,17.578125,0.0,0,0
1772203009.6400719,1772203009.5951912,-823.73046875,-846.6796875,-831.0546875,481.93359375,0.0,0,0
1772203009.640108,1772203009.599088,598.6328125,775.87890625,643.5546875,289.0625,0.0,0,0
1772203009.6401439,1772203009.602985,-859.375,-620.1171875,-817.3828125,-373.53515625,0.0,0,0
1772203009.640182,1772203009.6068819,-1000.0,-1000.0,-1000.0,-536.62109375,0.0,0,0
1772203009.684813,1772203009.6109219,445.80078125,177.24609375,439.453125,-58.59375,0.0,0,0
1772203009.684937,1772203009.6148188,-849.12109375,-863.28125,-859.86328125,458.0078125,0.0,0,0
1772203009.6850162,1772203009.6187158,731.93359375,801.7578125,772.4609375,331.54296875,0.0,0,0
1772203009.685062,1772203009.6226125,-690.91796875,-544.921875,-645.01953125,-296.38671875,0.0,0,0
1772203009.6851,1772203009.6265094,-1000.0,-1000.0,-1000.0,-545.41015625,0.0,0,0
1772203009.6851351,1772203009.6304064,290.52734375,-195.3125,287.109375,-122.0703125,0.0,0,0
1772203009.685171,1772203009.6343033,-859.86328125,-952.1484375,-865.234375,465.8203125,0.0,0,0
1772203009.685211,1772203009.6382003,800.78125,832.51953125,802.734375,406.73828125,0.0,0,0
1772203009.685293,1772203009.6420972,-550.78125,-551.26953125,-551.26953125,-209.9609375,0.0,0,0
1772203009.685337,1772203009.6459942,-1000.0,-1000.0,-1000.0,-535.64453125,0.0,0,0
1772203009.6853728,1772203009.6498911,-49.31640625,-587.890625,-100.09765625,-198.73046875,0.0,0,0
1772203009.68541,1772203009.653788,-912.59765625,863.76953125,-940.91796875,388.671875,0.0,0,0
1772203009.7311082,1772203009.6578186,819.82421875,961.42578125,842.28515625,430.17578125,0.0,0,0
1772203009.731264,1772203009.6617155,-548.828125,-485.83984375,-573.2421875,-108.88671875,0.0,0,0
1772203009.731321,1772203009.6656125,-1000.0,-1000.0,-1000.0,-534.66796875,0.0,0,0
1772203009.731373,1772203009.6695094,-388.18359375,-708.49609375,-222.16796875,-276.85546875,0.0,0,0
1772203009.731429,1772203009.6734064,968.75,713.8671875,979.4921875,335.9375,0.0,0,0
1772203009.731481,1772203009.6773033,890.13671875,-914.0625,910.15625,468.26171875,0.0,0,0
1772203009.731531,1772203009.6812003,-523.92578125,-303.22265625,-462.40234375,-18.06640625,0.0,0,0
1772203009.731585,1772203009.6850972,-1000.0,-1000.0,-1000.0,-540.0390625,0.0,0,0
1772203009.7316391,1772203009.6889942,-650.390625,-838.37890625,-612.3046875,-347.65625,0.0,0,0
1772203009.7317078,1772203009.6928911,786.1328125,523.4375,772.94921875,279.296875,0.0,0,0
1772203009.731763,1772203009.696788,-964.35546875,-829.1015625,-940.4296875,480.95703125,0.0,0,0
1772203009.731814,1772203009.700685,-377.44140625,-36.1328125,-313.96484375,29.78515625,0.0,0,0
1772203009.7750201,1772203009.7047057,-1000.0,-1000.0,-1000.0,-549.8046875,0.0,0,0
1772203009.775147,1772203009.7086027,-778.3203125,-845.703125,-726.07421875,-415.52734375,0.0,0,0
1772203009.7752051,1772203009.7124996,616.2109375,511.71875,622.55859375,173.828125,0.0,0,0
1772203009.77526,1772203009.7163968,-862.3046875,-810.05859375,-854.98046875,458.49609375,0.0,0,0
1772203009.775316,1772203009.7202938,-164.0625,358.3984375,-26.85546875,100.5859375,0.0,0,0
1772203009.775368,1772203009.7241907,-1000.0,-1000.0,-1000.0,-543.45703125,0.0,0,0
1772203009.775419,1772203009.7280877,-836.9140625,-894.53125,-827.1484375,-497.0703125,0.0,0,0
1772203009.775469,1772203009.7319846,511.23046875,535.64453125,535.15625,85.9375,0.0,0,0
1772203009.775522,1772203009.7358816,-813.4765625,-831.54296875,-816.89453125,441.89453125,0.0,0,0
1772203009.7755709,1772203009.7397785,218.26171875,617.1875,360.83984375,163.57421875,0.0,0,0
1772203009.775622,1772203009.7436755,-1000.0,-830.56640625,-1000.0,-466.796875,0.0,0,0
1772203009.775688,1772203009.7475724,-874.0234375,-1000.0,-883.30078125,-508.7890625,0.0,0,0
1772203009.8338308,1772203009.7515838,522.4609375,392.08984375,550.29296875,34.66796875,0.0,0,0
1772203009.8339698,1772203009.7554808,-820.3125,-850.5859375,-836.42578125,472.16796875,0.0,0,0
1772203009.834023,1772203009.759378,555.17578125,758.7890625,619.62890625,260.7421875,0.0,0,0
1772203009.834202,1772203009.763275,-902.83203125,-649.90234375,-843.26171875,-392.08984375,0.0,0,0
1772203009.834259,1772203009.7671719,-979.00390625,-1000.0,-1000.0,-540.0390625,0.0,0,0
1772203009.834309,1772203009.7710688,478.515625,235.3515625,455.078125,-35.15625,0.0,0,0
1772203009.834361,1772203009.7749658,-841.796875,-858.3984375,-852.05078125,474.12109375,0.0,0,0
1772203009.834411,1772203009.7788627,687.98828125,798.33984375,739.74609375,333.984375,0.0,0,0
1772203009.834461,1772203009.78276,-742.1875,-543.9453125,-678.7109375,-311.5234375,0.0,0,0
1772203009.8345091,1772203009.7866569,-1000.0,-1000.0,-1000.0,-559.08203125,0.0,0,0
1772203009.8345568,1772203009.7905538,309.08203125,-166.50390625,274.90234375,-118.1640625,0.0,0,0
1772203009.8346071,1772203009.7944508,-860.83984375,-944.3359375,-861.328125,453.61328125,0.0,0,0
1772203009.8812091,1772203009.7985272,805.17578125,830.078125,804.6875,382.32421875,0.0,0,0
1772203009.881363,1772203009.8024242,-557.6171875,-550.29296875,-554.6875,-229.00390625,0.0,0,0
1772203009.881419,1772203009.8063211,-1000.0,-1000.0,-1000.0,-553.22265625,0.0,0,0
1772203009.881469,1772203009.810218,38.0859375,-539.55078125,-39.0625,-209.9609375,0.0,0,0
1772203009.881519,1772203009.8141153,-891.11328125,893.06640625,-916.9921875,396.484375,0.0,0,0
1772203009.88157,1772203009.8180122,809.5703125,945.3125,822.75390625,408.69140625,0.0,0,0
1772203009.88162,1772203009.8219092,-543.9453125,-494.62890625,-551.7578125,-177.734375,0.0,0,0
1772203009.881671,1772203009.8258064,-1000.0,-1000.0,-1000.0,-582.03125,0.0,0,0
1772203009.881719,1772203009.8297033,-362.79296875,-702.63671875,-379.39453125,-306.640625,0.0,0,0
1772203009.881771,1772203009.8336003,989.2578125,730.46875,956.54296875,314.453125,0.0,0,0
1772203009.881831,1772203009.8374972,857.421875,-935.546875,904.78515625,449.70703125,0.0,0,0
1772203009.881887,1772203009.8413944,-565.4296875,-350.5859375,-517.578125,-64.453125,0.0,0,0
1772203009.924932,1772203009.8454604,-1000.0,-1000.0,-1000.0,-576.66015625,0.0,0,0
1772203009.925045,1772203009.8493574,-622.55859375,-817.3828125,-558.10546875,-361.328125,0.0,0,0
1772203009.925092,1772203009.8532546,815.91796875,549.31640625,810.05859375,272.94921875,0.0,0,0
1772203009.92513,1772203009.8571515,-988.28125,-836.9140625,-967.28515625,461.9140625,0.0,0,0
1772203009.92517,1772203009.8610485,-413.0859375,-60.05859375,-349.12109375,5.37109375,0.0,0,0
1772203009.9252071,1772203009.8649457,-1000.0,-1000.0,-1000.0,-556.640625,0.0,0,0
1772203009.925243,1772203009.8688426,-761.71875,-845.703125,-781.25,-389.6484375,0.0,0,0
1772203009.925282,1772203009.8727396,645.5078125,514.16015625,602.5390625,210.44921875,0.0,0,0
1772203009.92532,1772203009.8766367,-880.37109375,-811.5234375,-857.421875,489.2578125,0.0,0,0
1772203009.9253619,1772203009.8805337,-244.140625,293.9453125,-127.44140625,123.53515625,0.0,0,0
1772203009.925407,1772203009.884431,-1000.0,-1000.0,-1000.0,-528.3203125,0.0,0,0
1772203009.925458,1772203009.8883278,-832.03125,-885.25390625,-816.89453125,-464.84375,0.0,0,0
1772203009.96979,1772203009.8923843,511.71875,529.78515625,538.0859375,145.01953125,0.0,0,0
1772203009.9699159,1772203009.8962815,-815.91796875,-827.1484375,-818.359375,509.27734375,0.0,0,0
1772203009.969957,1772203009.9001784,139.16015625,594.7265625,253.41796875,198.2421875,0.0,0,0
1772203009.969996,1772203009.9040754,-1000.0,-869.140625,-1000.0,-490.72265625,0.0,0,0
1772203009.9700322,1772203009.9079726,-862.79296875,-997.55859375,-862.3046875,-500.9765625,0.0,0,0
1772203009.970069,1772203009.9118695,517.08984375,467.7734375,546.38671875,83.0078125,0.0,0,0
1772203009.9701068,1772203009.9157667,-816.40625,-844.7265625,-828.61328125,518.06640625,0.0,0,0
1772203009.970144,1772203009.9196637,524.90234375,710.9375,567.3828125,291.9921875,0.0,0,0
1772203009.9702022,1772203009.9235609,-927.734375,-704.1015625,-891.11328125,-376.953125,0.0,0,0
1772203009.970238,1772203009.9274578,-954.1015625,-1000.0,-972.65625,-504.8828125,0.0,0,0
1772203009.970295,1772203009.931355,503.90625,254.8828125,491.2109375,-11.71875,0.0,0,0
1772203009.970335,1772203009.935252,-841.796875,-860.3515625,-851.5625,502.44140625,0.0,0,0
1772203010.029852,1772203009.9393003,672.36328125,806.640625,721.19140625,343.75,0.0,0,0
1772203010.029997,1772203009.9431973,-768.06640625,-557.12890625,-729.98046875,-334.9609375,0.0,0,0
1772203010.030058,1772203009.9470944,-1000.0,-1000.0,-1000.0,-579.58984375,0.0,0,0
1772203010.030111,1772203009.9509916,351.5625,3.41796875,391.6015625,-114.74609375,0.0,0,0
1772203010.030163,1772203009.9548886,-858.3984375,-897.4609375,-866.69921875,505.37109375,0.0,0,0
1772203010.030217,1772203009.9587858,791.015625,810.546875,803.7109375,423.33984375,0.0,0,0
1772203010.030269,1772203009.9626827,-585.44921875,-541.9921875,-576.66015625,-252.9296875,0.0,0,0
1772203010.0303192,1772203009.96658,-1000.0,-1000.0,-1000.0,-572.75390625,0.0,0,0
1772203010.030369,1772203009.9704769,108.88671875,-448.2421875,110.3515625,-181.15234375,0.0,0,0
1772203010.030431,1772203009.974374,-877.44140625,949.21875,-895.5078125,450.68359375,0.0,0,0
1772203010.030484,1772203009.978271,806.15234375,887.20703125,816.40625,457.51953125,0.0,0,0
1772203010.03053,1772203009.9821682,-545.8984375,-549.8046875,-555.6640625,-153.3203125,0.0,0,0
1772203010.059919,1772203009.9862044,-1000.0,-1000.0,-1000.0,-572.265625,0.0,0,0
1772203010.0599868,1772203009.9901016,-259.765625,-653.3203125,-223.6328125,-275.87890625,0.0,0,0
1772203010.0600262,1772203009.9939988,-975.09765625,791.50390625,-994.140625,377.9296875,0.0,0,0
1772203010.060064,1772203009.9978957,841.796875,-978.02734375,878.41796875,488.76953125,0.0,0,0
1772203010.060101,1772203010.001793,-556.640625,-411.1328125,-540.52734375,-77.1484375,0.0,0,0
1772203010.060137,1772203010.00569,-1000.0,-1000.0,-1000.0,-585.44921875,0.0,0,0
1772203010.060171,1772203010.009587,-590.33203125,-781.25,-372.55859375,-340.33203125,0.0,0,0
1772203010.0602071,1772203010.0134842,850.5859375,623.046875,890.13671875,305.17578125,0.0,0,0
1772203010.060247,1772203010.0173812,984.86328125,-872.0703125,987.3046875,499.0234375,0.0,0,0
1772203010.060283,1772203010.0212784,-443.84765625,-235.3515625,-377.9296875,21.97265625,0.0,0,0
1772203010.06032,1772203010.0251756,-1000.0,-1000.0,-1000.0,-568.359375,0.0,0,0
1772203010.060353,1772203010.0290725,-725.09765625,-832.03125,-658.203125,-411.62109375,0.0,0,0
1772203010.104791,1772203010.0330985,692.87109375,512.20703125,700.68359375,236.81640625,0.0,0,0
1772203010.104882,1772203010.0369956,-903.3203125,-814.453125,-893.5546875,530.2734375,0.0,0,0
1772203010.104925,1772203010.0408928,-281.73828125,145.99609375,-182.6171875,131.8359375,0.0,0,0
1772203010.104964,1772203010.0447898,-1000.0,-1000.0,-1000.0,-540.52734375,0.0,0,0
1772203010.1049988,1772203010.048687,-832.51953125,-863.28125,-794.921875,-469.23828125,0.0,0,0
1772203010.105036,1772203010.0525842,519.53125,517.578125,555.6640625,158.203125,0.0,0,0
1772203010.105082,1772203010.0564811,-823.73046875,-815.4296875,-824.70703125,516.6015625,0.0,0,0
1772203010.105119,1772203010.0603783,50.29296875,534.1796875,181.640625,192.87109375,0.0,0,0
1772203010.105161,1772203010.0642755,-1000.0,-915.52734375,-1000.0,-517.578125,0.0,0,0
1772203010.105195,1772203010.0681727,-854.00390625,-977.5390625,-840.33203125,-536.62109375,0.0,0,0
1772203010.105241,1772203010.0720696,514.16015625,472.65625,552.734375,69.3359375,0.0,0,0
1772203010.1052852,1772203010.0759668,-814.453125,-839.84375,-827.1484375,501.46484375,0.0,0,0
1772203010.181205,1772203010.0801325,438.96484375,687.5,533.69140625,257.8125,0.0,0,0
1772203010.1813471,1772203010.0840294,-977.05078125,-751.953125,-924.31640625,-452.1484375,0.0,0,0
1772203010.1814039,1772203010.0879266,-908.69140625,-1000.0,-933.59375,-578.125,0.0,0,0
1772203010.1814551,1772203010.0918238,542.48046875,341.30859375,536.1328125,-16.6015625,0.0,0,0
1772203010.181508,1772203010.095721,-839.84375,-861.328125,-850.5859375,504.8828125,0.0,0,0
1772203010.181561,1772203010.0996182,643.06640625,804.19921875,693.84765625,310.05859375,0.0,0,0
1772203010.181612,1772203010.1035154,-807.6171875,-555.6640625,-755.37109375,-382.32421875,0.0,0,0
1772203010.1818,1772203010.1074126,-1000.0,-1000.0,-1000.0,-588.8671875,0.0,0,0
1772203010.1818519,1772203010.1113095,397.4609375,35.15625,389.6484375,-110.3515625,0.0,0,0
1772203010.181921,1772203010.1152067,-853.02734375,-891.11328125,-862.79296875,480.46875,0.0,0,0
1772203010.181988,1772203010.119104,763.671875,811.5234375,796.38671875,402.34375,0.0,0,0
1772203010.1820369,1772203010.123001,-637.20703125,-545.41015625,-597.65625,-268.06640625,0.0,0,0
1772203010.195563,1772203010.1270134,-1000.0,-1000.0,-1000.0,-600.09765625,0.0,0,0
1772203010.195623,1772203010.1309106,213.37890625,-344.23828125,181.15234375,-193.84765625,0.0,0,0
1772203010.195661,1772203010.1348078,-859.375,996.09375,-881.34765625,462.40234375,0.0,0,0
1772203010.1956968,1772203010.138705,800.29296875,855.46875,816.89453125,451.171875,0.0,0,0
1772203010.195733,1772203010.1426022,-546.875,-563.4765625,-565.91796875,-198.2421875,0.0,0,0
1772203010.195769,1772203010.1464994,-1000.0,-1000.0,-1000.0,-597.16796875,0.0,0,0
1772203010.195803,1772203010.1503963,-144.04296875,-609.375,-62.01171875,-274.4140625,0.0,0,0
1772203010.195839,1772203010.1542935,-938.4765625,833.984375,-946.2890625,365.72265625,0.0,0,0
1772203010.195874,1772203010.1581907,826.66015625,994.62890625,837.890625,446.77734375,0.0,0,0
1772203010.19591,1772203010.162088,-549.31640625,-439.94140625,-547.36328125,-132.8125,0.0,0,0
1772203010.195946,1772203010.165985,-1000.0,-1000.0,-1000.0,-639.16015625,0.0,0,0
1772203010.195979,1772203010.1698823,-523.4375,-766.11328125,-421.875,-380.37109375,0.0,0,0
1772203010.2548108,1772203010.17388,898.92578125,644.53125,895.5078125,307.6171875,0.0,0,0
1772203010.254924,1772203010.1777773,942.87109375,-885.25390625,974.12109375,480.46875,0.0,0,0
1772203010.2549682,1772203010.1816745,-490.72265625,-262.20703125,-422.8515625,-48.828125,0.0,0,0
1772203010.2550058,1772203010.1855717,-1000.0,-1000.0,-1000.0,-617.1875,0.0,0,0
1772203010.255044,1772203010.1894689,-698.73046875,-834.47265625,-602.5390625,-431.640625,0.0,0,0
1772203010.255081,1772203010.193366,728.02734375,516.11328125,743.1640625,216.796875,0.0,0,0
1772203010.2551181,1772203010.1972632,-927.24609375,-820.3125,-913.0859375,491.2109375,0.0,0,0
1772203010.255154,1772203010.2011604,-328.125,76.66015625,-249.51171875,64.453125,0.0,0,0
1772203010.2552168,1772203010.2050576,-1000.0,-1000.0,-1000.0,-589.84375,0.0,0,0
1772203010.255251,1772203010.2089548,-814.94140625,-855.95703125,-680.17578125,-483.3984375,0.0,0,0
1772203010.255303,1772203010.212852,549.31640625,514.6484375,624.0234375,164.0625,0.0,0,0
1772203010.25534,1772203010.2167492,-834.47265625,-813.96484375,-848.6328125,515.625,0.0,0,0
1772203010.316003,1772203010.2208202,-35.64453125,485.3515625,107.421875,176.7578125,0.0,0,0
1772203010.316155,1772203010.2247174,-1000.0,-951.66015625,-1000.0,-534.1796875,0.0,0,0
1772203010.316215,1772203010.2286146,-846.6796875,-930.6640625,-825.68359375,-546.38671875,0.0,0,0
1772203010.3162692,1772203010.2325118,512.6953125,526.3671875,552.734375,65.91796875,0.0,0,0
1772203010.316322,1772203010.236409,-811.03515625,-842.28515625,-821.77734375,503.41796875,0.0,0,0
1772203010.316373,1772203010.2403061,340.8203125,667.96875,476.5625,251.953125,0.0,0,0
1772203010.316423,1772203010.2442033,-1000.0,-770.99609375,-957.51953125,-476.07421875,0.0,0,0
1772203010.316481,1772203010.2481008,-892.08984375,-1000.0,-922.8515625,-591.796875,0.0,0,0
1772203010.31653,1772203010.251998,533.203125,347.16796875,531.73828125,-8.30078125,0.0,0,0
1772203010.316587,1772203010.2558951,-831.54296875,-853.515625,-841.796875,521.484375,0.0,0,0
1772203010.316654,1772203010.2597923,610.83984375,776.85546875,659.1796875,342.28515625,0.0,0,0
1772203010.316715,1772203010.2636895,-841.796875,-604.4921875,-794.921875,-388.671875,0.0,0,0
1772203010.347015,1772203010.267752,-1000.0,-1000.0,-1000.0,-624.0234375,0.0,0,0
1772203010.347133,1772203010.2716494,415.0390625,108.88671875,405.76171875,-120.1171875,0.0,0,0
1772203010.347189,1772203010.2755466,-849.12109375,-876.953125,-860.83984375,479.00390625,0.0,0,0
1772203010.347241,1772203010.2794437,743.65234375,806.15234375,785.64453125,375.9765625,0.0,0,0
1772203010.347292,1772203010.283341,-667.48046875,-544.921875,-621.58203125,-307.12890625,0.0,0,0
1772203010.3473432,1772203010.2872381,-1000.0,-1000.0,-1000.0,-611.328125,0.0,0,0
1772203010.347383,1772203010.2911355,240.72265625,-266.6015625,237.3046875,-181.15234375,0.0,0,0
1772203010.3474188,1772203010.2950327,-859.86328125,-976.5625,-874.51171875,453.61328125,0.0,0,0
1772203010.3474581,1772203010.29893,801.7578125,843.75,811.5234375,416.9921875,0.0,0,0
1772203010.3474948,1772203010.3028271,-550.29296875,-556.640625,-560.546875,-231.93359375,0.0,0,0
1772203010.3475342,1772203010.3067243,-1000.0,-1000.0,-1000.0,-628.90625,0.0,0,0
1772203010.347577,1772203010.3106215,-89.35546875,-585.44921875,-58.10546875,-284.66796875,0.0,0,0
1772203010.391304,1772203010.3146687,-923.828125,862.3046875,-935.546875,381.8359375,0.0,0,0
1772203010.3913999,1772203010.318566,820.80078125,968.75,827.63671875,445.80078125,0.0,0,0
1772203010.391451,1772203010.3224633,-546.875,-473.6328125,-555.17578125,-139.16015625,0.0,0,0
1772203010.391501,1772203010.3263605,-1000.0,-1000.0,-1000.0,-615.72265625,0.0,0,0
1772203010.391551,1772203010.330258,-488.28125,-738.76953125,-431.640625,-348.6328125,0.0,0,0
1772203010.3916008,1772203010.334155,920.8984375,689.453125,907.2265625,334.47265625,0.0,0,0
1772203010.39165,1772203010.3380523,920.41015625,-916.50390625,951.66015625,487.79296875,0.0,0,0
1772203010.3917,1772203010.3419495,-512.6953125,-330.56640625,-464.84375,-45.8984375,0.0,0,0
1772203010.3917499,1772203010.345847,-1000.0,-1000.0,-1000.0,-604.98046875,0.0,0,0
1772203010.3917959,1772203010.349744,-671.38671875,-835.44921875,-567.3828125,-416.50390625,0.0,0,0
1772203010.391847,1772203010.3536413,759.27734375,520.99609375,780.76171875,240.234375,0.0,0,0
1772203010.391896,1772203010.3575385,-946.2890625,-827.63671875,-937.98828125,492.1875,0.0,0,0
1772203010.437969,1772203010.3615756,-351.07421875,-17.578125,-290.52734375,47.36328125,0.0,0,0
1772203010.438093,1772203010.365473,-1000.0,-1000.0,-1000.0,-607.91015625,0.0,0,0
1772203010.438148,1772203010.3693702,-791.50390625,-846.19140625,-721.6796875,-491.69921875,0.0,0,0
1772203010.4382012,1772203010.3732674,586.9140625,511.23046875,614.74609375,181.15234375,0.0,0,0
1772203010.4382532,1772203010.3771648,-847.65625,-811.5234375,-848.6328125,520.99609375,0.0,0,0
1772203010.438304,1772203010.381062,-85.44921875,402.83203125,32.71484375,151.85546875,0.0,0,0
1772203010.438354,1772203010.3849592,-1000.0,-992.67578125,-1000.0,-564.94140625,0.0,0,0
1772203010.43841,1772203010.3888566,-843.26171875,-902.34375,-831.0546875,-552.734375,0.0,0,0
1772203010.4384608,1772203010.3927538,512.6953125,538.57421875,539.0625,92.7734375,0.0,0,0
1772203010.438529,1772203010.3966513,-812.5,-832.51953125,-818.359375,517.578125,0.0,0,0
1772203010.4385972,1772203010.4005485,286.62109375,616.69921875,402.34375,225.09765625,0.0,0,0
1772203010.4386601,1772203010.4044456,-1000.0,-829.58984375,-993.1640625,-498.53515625,0.0,0,0
1772203010.480428,1772203010.4084733,-884.27734375,-1000.0,-893.5546875,-577.63671875,0.0,0,0
1772203010.480524,1772203010.4123704,528.80859375,385.7421875,547.8515625,3.41796875,0.0,0,0
1772203010.4805708,1772203010.4162676,-827.1484375,-847.65625,-839.35546875,499.51171875,0.0,0,0
1772203010.4806101,1772203010.420165,588.8671875,750.48828125,635.25390625,290.0390625,0.0,0,0
1772203010.4806468,1772203010.4240623,-872.0703125,-655.76171875,-832.51953125,-413.0859375,0.0,0,0
1772203010.480684,1772203010.4279597,-998.046875,-1000.0,-1000.0,-594.7265625,0.0,0,0
1772203010.4807198,1772203010.4318569,464.84375,213.37890625,466.30859375,-81.0546875,0.0,0,0
1772203010.480756,1772203010.4357543,-850.5859375,-858.88671875,-859.86328125,496.58203125,0.0,0,0
1772203010.480792,1772203010.4396515,730.95703125,799.8046875,762.6953125,370.60546875,0.0,0,0
1772203010.480829,1772203010.4435487,-688.96484375,-544.921875,-660.64453125,-329.1015625,0.0,0,0
1772203010.480865,1772203010.447446,-1000.0,-1000.0,-1000.0,-614.74609375,0.0,0,0
1772203010.481017,1772203010.4513433,281.25,-166.015625,310.05859375,-178.7109375,0.0,0,0
1772203010.525397,1772203010.4553614,-859.86328125,-943.84765625,-865.234375,458.984375,0.0,0,0
1772203010.525475,1772203010.4592586,803.7109375,830.56640625,809.08203125,420.41015625,0.0,0,0
1772203010.525528,1772203010.463156,-554.19921875,-550.78125,-564.453125,-250.9765625,0.0,0,0
1772203010.525578,1772203010.4670532,-1000.0,-1000.0,-1000.0,-635.25390625,0.0,0,0
1772203010.525631,1772203010.4709506,-11.71875,-528.3203125,34.1796875,-261.71875,0.0,0,0
1772203010.5256672,1772203010.4748478,-902.34375,901.3671875,-913.0859375,425.78125,0.0,0,0
1772203010.525704,1772203010.4787452,813.96484375,934.5703125,822.265625,467.7734375,0.0,0,0
1772203010.5257401,1772203010.4826424,-545.41015625,-506.8359375,-557.12890625,-154.296875,0.0,0,0
1772203010.525776,1772203010.4865398,-1000.0,-1000.0,-1000.0,-619.62890625,0.0,0,0
1772203010.525811,1772203010.490437,-398.92578125,-701.171875,-292.96875,-328.125,0.0,0,0
1772203010.525846,1772203010.4943345,965.8203125,726.07421875,967.7734375,346.19140625,0.0,0,0
1772203010.525881,1772203010.4982316,889.16015625,-925.78125,911.62109375,482.91015625,0.0,0,0
1772203010.583623,1772203010.5022373,-528.3203125,-326.66015625,-479.98046875,-77.63671875,0.0,0,0
1772203010.583758,1772203010.5061345,-1000.0,-1000.0,-1000.0,-638.18359375,0.0,0,0
1772203010.583807,1772203010.510032,-638.671875,-805.6640625,-576.171875,-409.66796875,0.0,0,0
1772203010.583859,1772203010.5139291,795.41015625,566.40625,798.828125,267.578125,0.0,0,0
1772203010.583916,1772203010.5178266,-967.28515625,-838.8671875,-951.171875,511.23046875,0.0,0,0
1772203010.5839648,1772203010.521724,-376.46484375,-54.6875,-321.77734375,55.6640625,0.0,0,0
1772203010.5840151,1772203010.5256212,-1000.0,-1000.0,-1000.0,-582.03125,0.0,0,0
1772203010.5840619,1772203010.5295186,-775.87890625,-846.19140625,-713.37890625,-445.80078125,0.0,0,0
1772203010.5841122,1772203010.5334158,622.0703125,514.6484375,638.18359375,225.5859375,0.0,0,0
1772203010.584172,1772203010.5373132,-865.72265625,-812.01171875,-861.328125,546.38671875,0.0,0,0
1772203010.58423,1772203010.5412104,-180.6640625,296.875,-68.359375,139.16015625,0.0,0,0
1772203010.584289,1772203010.5451078,-1000.0,-1000.0,-1000.0,-554.6875,0.0,0,0
1772203010.629844,1772203010.5491023,-835.44921875,-885.25390625,-780.76171875,-503.90625,0.0,0,0
1772203010.629944,1772203010.5529995,510.7421875,530.2734375,565.91796875,108.3984375,0.0,0,0
1772203010.629995,1772203010.556897,-812.98828125,-828.61328125,-824.21875,490.72265625,0.0,0,0
1772203010.630045,1772203010.560794,211.9140625,602.05078125,327.1484375,179.6875,0.0,0,0
1772203010.630094,1772203010.5646915,-1000.0,-856.4453125,-1000.0,-553.7109375,0.0,0,0
1772203010.630142,1772203010.568589,-873.046875,-1000.0,-831.0546875,-612.3046875,0.0,0,0
1772203010.6301901,1772203010.5724862,521.97265625,442.87109375,586.9140625,-6.34765625,0.0,0,0
1772203010.630239,1772203010.5763836,-819.3359375,-845.21484375,-840.8203125,459.9609375,0.0,0,0
1772203010.630302,1772203010.5802808,549.31640625,721.6796875,600.5859375,209.9609375,0.0,0,0
1772203010.630353,1772203010.5841782,-907.2265625,-692.3828125,-868.1640625,-509.27734375,0.0,0,0
1772203010.630402,1772203010.5880756,-978.515625,-1000.0,-991.2109375,-666.015625,0.0,0,0
1772203010.6304681,1772203010.5919728,477.05078125,249.0234375,473.6328125,-132.32421875,0.0,0,0
1772203010.675151,1772203010.5960336,-841.30859375,-859.375,-852.5390625,427.24609375,0.0,0,0
1772203010.6752708,1772203010.5999308,687.98828125,802.734375,732.421875,286.62109375,0.0,0,0
1772203010.675304,1772203010.6038282,-744.62890625,-550.29296875,-700.1953125,-411.1328125,0.0,0,0
1772203010.675334,1772203010.6077256,-1000.0,-1000.0,-1000.0,-680.17578125,0.0,0,0
1772203010.675362,1772203010.6116228,317.3828125,-77.63671875,323.73046875,-209.9609375,0.0,0,0
1772203010.675393,1772203010.6155202,-861.328125,-919.43359375,-864.74609375,419.921875,0.0,0,0
1772203010.675422,1772203010.6194177,806.15234375,819.82421875,809.5703125,354.00390625,0.0,0,0
1772203010.6754508,1772203010.623315,-559.5703125,-545.8984375,-565.4296875,-290.52734375,0.0,0,0
1772203010.6754801,1772203010.6272123,-1000.0,-1000.0,-1000.0,-630.37109375,0.0,0,0
1772203010.6755059,1772203010.6311097,57.6171875,-487.79296875,64.94140625,-251.46484375,0.0,0,0
1772203010.675541,1772203010.6350071,-887.6953125,925.29296875,-903.3203125,411.1328125,0.0,0,0
1772203010.675581,1772203010.6389043,809.08203125,910.64453125,819.82421875,450.68359375,0.0,0,0
1772203010.72131,1772203010.6429536,-544.921875,-527.83203125,-557.12890625,-161.62109375,0.0,0,0
