timestamp,lsl_timestamp,TP9,AF7,AF8,TP10,Right AUX,keypress_A,keypress_B
1772203551.5663612,1772203551.4813488,-770.99609375,-895.01953125,-783.203125,447.75390625,0.0,0,0
1772203551.566632,1772203551.4852436,326.66015625,710.9375,390.625,302.734375,0.0,0,0
1772203551.5666702,1772203551.4891386,-952.1484375,-673.33984375,-919.43359375,-331.54296875,0.0,0,0
1772203551.5667012,1772203551.4930336,-1000.0,-1000.0,-1000.0,-617.1875,0.0,0,0
1772203551.56673,1772203551.4969287,-131.34765625,-193.84765625,-180.17578125,-112.79296875,0.0,0,0
1772203551.5667589,1772203551.5008235,-822.75390625,-964.84375,-857.421875,419.921875,0.0,0,0
1772203551.5667892,1772203551.5047185,521.484375,943.84765625,617.1875,375.0,0.0,0,0
1772203551.566817,1772203551.5086136,-852.05078125,-328.125,-766.11328125,-252.44140625,0.0,0,0
1772203551.566846,1772203551.5125086,-1000.0,-1000.0,-1000.0,-617.1875,0.0,0,0
1772203551.566874,1772203551.5164034,-219.7265625,-193.84765625,-207.51953125,-181.640625,0.0,0,0
1772203551.566903,1772203551.5202985,-919.43359375,995.1171875,-938.96484375,370.1171875,0.0,0,0
1772203551.566931,1772203551.5241935,790.52734375,-958.0078125,860.3515625,441.89453125,0.0,0,0
1772203551.595358,1772203551.528217,-568.359375,-74.70703125,-464.35546875,-166.50390625,0.0,0,0
1772203551.5954618,1772203551.5321121,-1000.0,-1000.0,-1000.0,-611.81640625,0.0,0,0
1772203551.5955179,1772203551.536007,-183.59375,-375.9765625,-177.734375,-234.375,0.0,0,0
1772203551.595571,1772203551.539902,-984.375,908.203125,-991.69921875,347.65625,0.0,0,0
1772203551.595625,1772203551.543797,-999.51171875,-896.97265625,-977.5390625,492.67578125,0.0,0,0
1772203551.595686,1772203551.547692,-213.37890625,134.765625,-139.6484375,-84.47265625,0.0,0,0
1772203551.595737,1772203551.551587,-1000.0,-1000.0,-1000.0,-587.890625,0.0,0,0
1772203551.595785,1772203551.5554821,-242.1875,-574.21875,-295.8984375,-329.58984375,0.0,0,0
1772203551.595835,1772203551.559377,971.6796875,810.546875,948.2421875,265.625,0.0,0,0
1772203551.595886,1772203551.563272,-937.01171875,-856.4453125,-919.921875,506.34765625,0.0,0,0
1772203551.595936,1772203551.567167,-0.48828125,182.6171875,57.6171875,-9.27734375,0.0,0,0
1772203551.595993,1772203551.571062,-1000.0,-1000.0,-1000.0,-537.109375,0.0,0,0
1772203551.6392288,1772203551.5750704,-427.734375,-858.3984375,-486.81640625,-393.06640625,0.0,0,0
1772203551.639364,1772203551.5789654,883.30078125,487.79296875,855.46875,217.7734375,0.0,0,0
1772203551.6393962,1772203551.5828605,-885.25390625,-797.8515625,-873.046875,545.8984375,0.0,0,0
1772203551.639429,1772203551.5867555,185.546875,149.90234375,193.84765625,74.70703125,0.0,0,0
1772203551.639458,1772203551.5906506,-1000.0,-1000.0,-1000.0,-502.44140625,0.0,0,0
1772203551.6394858,1772203551.5945456,-640.625,-1000.0,-714.84375,-463.8671875,0.0,0,0
1772203551.6395142,1772203551.5984406,751.46484375,174.8046875,668.9453125,153.80859375,0.0,0,0
1772203551.639544,1772203551.6023357,-845.703125,-763.671875,-828.61328125,543.9453125,0.0,0,0
1772203551.639573,1772203551.6062307,175.29296875,226.5625,165.0390625,148.92578125,0.0,0,0
1772203551.639602,1772203551.6101258,-1000.0,-995.60546875,-1000.0,-448.73046875,0.0,0,0
1772203551.63963,1772203551.6140206,-895.5078125,-1000.0,-956.0546875,-531.25,0.0,0,0
1772203551.639658,1772203551.6179156,429.6875,-56.640625,324.21875,61.5234375,0.0,0,0
1772203551.6850188,1772203551.621906,-791.015625,-792.96875,-778.3203125,526.3671875,0.0,0,0
1772203551.685106,1772203551.625801,145.01953125,423.33984375,173.828125,241.69921875,0.0,0,0
1772203551.6851578,1772203551.6296961,-1000.0,-903.3203125,-1000.0,-372.55859375,0.0,0,0
1772203551.685208,1772203551.6335912,-1000.0,-1000.0,-1000.0,-551.26953125,0.0,0,0
1772203551.685312,1772203551.6374862,112.3046875,-221.6796875,47.8515625,2.9296875,0.0,0,0
1772203551.685366,1772203551.6413813,-766.11328125,-884.765625,-774.90234375,510.7421875,0.0,0,0
1772203551.685418,1772203551.6452763,284.66796875,685.05859375,347.16796875,331.0546875,0.0,0,0
1772203551.685472,1772203551.6491714,-971.6796875,-703.125,-939.94140625,-315.4296875,0.0,0,0
1772203551.685523,1772203551.6530664,-1000.0,-1000.0,-1000.0,-580.078125,0.0,0,0
1772203551.685571,1772203551.6569614,-79.1015625,-199.70703125,-143.5546875,-67.3828125,0.0,0,0
1772203551.68562,1772203551.6608565,-806.15234375,-952.63671875,-834.9609375,454.1015625,0.0,0,0
1772203551.6856802,1772203551.6647515,474.12109375,906.73828125,553.7109375,390.13671875,0.0,0,0
1772203551.742805,1772203551.6687322,-874.0234375,-394.53125,-818.84765625,-249.51171875,0.0,0,0
1772203551.742966,1772203551.6726272,-1000.0,-1000.0,-1000.0,-603.02734375,0.0,0,0
1772203551.7430232,1772203551.6765223,-228.02734375,-173.828125,-215.8203125,-144.04296875,0.0,0,0
1772203551.743076,1772203551.6804173,-902.83203125,-998.046875,-924.31640625,395.5078125,0.0,0,0
1772203551.7431328,1772203551.6843123,732.91015625,-961.42578125,811.03515625,432.6171875,0.0,0,0
1772203551.7431948,1772203551.6882074,-644.04296875,-87.40234375,-536.62109375,-185.546875,0.0,0,0
1772203551.743297,1772203551.6921024,-1000.0,-1000.0,-1000.0,-625.48828125,0.0,0,0
1772203551.743344,1772203551.6959975,-193.359375,-324.21875,-183.10546875,-237.79296875,0.0,0,0
1772203551.743398,1772203551.6998925,-965.8203125,936.03515625,-982.91015625,340.33203125,0.0,0,0
1772203551.743449,1772203551.7037876,947.75390625,-911.62109375,999.51171875,473.14453125,0.0,0,0
1772203551.743498,1772203551.7076828,-323.73046875,90.8203125,-208.0078125,-111.328125,0.0,0,0
1772203551.743548,1772203551.711578,-1000.0,-1000.0,-1000.0,-601.5625,0.0,0,0
1772203551.7890508,1772203551.715549,-172.8515625,-538.57421875,-243.1640625,-302.24609375,0.0,0,0
1772203551.789191,1772203551.719444,999.51171875,828.125,971.19140625,304.19921875,0.0,0,0
1772203551.789233,1772203551.723339,-958.0078125,-863.28125,-935.05859375,529.296875,0.0,0,0
1772203551.789271,1772203551.7272341,-55.6640625,195.3125,7.8125,-17.578125,0.0,0,0
1772203551.789311,1772203551.7311292,-1000.0,-1000.0,-1000.0,-562.01171875,0.0,0,0
1772203551.78936,1772203551.7350242,-369.62890625,-744.62890625,-424.8046875,-386.23046875,0.0,0,0
1772203551.789398,1772203551.7389193,915.0390625,638.671875,887.20703125,239.74609375,0.0,0,0
1772203551.7894342,1772203551.7428143,-901.3671875,-820.80078125,-886.23046875,548.828125,0.0,0,0
1772203551.789488,1772203551.7467093,117.67578125,157.2265625,177.24609375,64.94140625,0.0,0,0
1772203551.789543,1772203551.7506046,-1000.0,-1000.0,-1000.0,-492.67578125,0.0,0,0
1772203551.7895849,1772203551.7544997,-565.91796875,-1000.0,-652.34375,-433.10546875,0.0,0,0
1772203551.789634,1772203551.7583947,814.94140625,240.234375,736.81640625,183.10546875,0.0,0,0
1772203551.865383,1772203551.7626147,-858.3984375,-770.01953125,-841.796875,563.4765625,0.0,0,0
1772203551.865547,1772203551.7665098,185.05859375,186.5234375,174.8046875,142.08984375,0.0,0,0
1772203551.865605,1772203551.770405,-1000.0,-1000.0,-1000.0,-448.73046875,0.0,0,0
1772203551.865658,1772203551.7743,-833.984375,-1000.0,-898.4375,-489.2578125,0.0,0,0
1772203551.8657138,1772203551.7781951,522.4609375,7.32421875,423.828125,113.28125,0.0,0,0
1772203551.865775,1772203551.7820902,-803.22265625,-779.296875,-789.0625,544.43359375,0.0,0,0
1772203551.865825,1772203551.7859855,149.4140625,368.65234375,144.53125,224.609375,0.0,0,0
1772203551.865875,1772203551.7898805,-1000.0,-929.6875,-1000.0,-389.6484375,0.0,0,0
1772203551.865922,1772203551.7937756,-1000.0,-1000.0,-1000.0,-549.8046875,0.0,0,0
1772203551.865967,1772203551.7976708,168.9453125,-178.7109375,99.12109375,24.90234375,0.0,0,0
1772203551.866016,1772203551.801566,-764.6484375,-850.09765625,-768.06640625,511.23046875,0.0,0,0
1772203551.866061,1772203551.805461,236.81640625,594.23828125,298.33984375,303.7109375,0.0,0,0
1772203551.880146,1772203551.8095045,-994.62890625,-790.0390625,-966.30859375,-329.1015625,0.0,0,0
1772203551.880223,1772203551.8133996,-1000.0,-1000.0,-1000.0,-575.68359375,0.0,0,0
1772203551.880262,1772203551.8172946,-41.015625,-212.40234375,-91.30859375,-51.7578125,0.0,0,0
1772203551.880301,1772203551.8211899,-792.48046875,-929.19921875,-810.05859375,460.9375,0.0,0,0
1772203551.8807402,1772203551.825085,422.8515625,829.58984375,486.81640625,357.421875,0.0,0,0
1772203551.8807821,1772203551.8289802,-901.85546875,-514.16015625,-869.62890625,-279.78515625,0.0,0,0
1772203551.8808188,1772203551.8328753,-1000.0,-1000.0,-1000.0,-599.12109375,0.0,0,0
1772203551.8808792,1772203551.8367703,-216.796875,-180.17578125,-216.30859375,-128.41796875,0.0,0,0
1772203551.8809159,1772203551.8406656,-882.8125,-989.2578125,-905.76171875,412.59765625,0.0,0,0
1772203551.8809521,1772203551.8445606,679.6875,-981.4453125,754.8828125,434.5703125,0.0,0,0
1772203551.880988,1772203551.848456,-707.51953125,-172.8515625,-613.76953125,-193.84765625,0.0,0,0
1772203551.881023,1772203551.852351,-1000.0,-1000.0,-1000.0,-615.72265625,0.0,0,0
1772203551.924008,1772203551.8563752,-199.21875,-271.97265625,-188.96484375,-211.42578125,0.0,0,0
1772203551.924135,1772203551.8602703,-955.078125,959.9609375,-973.6328125,353.02734375,0.0,0,0
1772203551.9241679,1772203551.8641655,911.1328125,-927.734375,971.19140625,462.40234375,0.0,0,0
1772203551.924198,1772203551.8680606,-387.20703125,24.4140625,-273.92578125,-138.18359375,0.0,0,0
1772203551.9242282,1772203551.8719559,-1000.0,-1000.0,-1000.0,-612.3046875,0.0,0,0
1772203551.924256,1772203551.875851,-174.31640625,-465.33203125,-208.0078125,-290.0390625,0.0,0,0
1772203551.924284,1772203551.8797462,-997.55859375,864.2578125,987.3046875,295.8984375,0.0,0,0
1772203551.924313,1772203551.8836412,-964.35546875,-875.48828125,-948.73046875,499.0234375,0.0,0,0
1772203551.924355,1772203551.8875365,-93.26171875,202.63671875,-36.62109375,-45.8984375,0.0,0,0
1772203551.924392,1772203551.8914316,-1000.0,-1000.0,-1000.0,-567.3828125,0.0,0,0
1772203551.924424,1772203551.8953269,-334.9609375,-719.7265625,-388.671875,-360.3515625,0.0,0,0
1772203551.924451,1772203551.899222,929.6875,671.875,903.3203125,255.37109375,0.0,0,0
1772203551.983018,1772203551.9032354,-909.1796875,-828.125,-894.53125,543.9453125,0.0,0,0
1772203551.9831848,1772203551.9071305,96.19140625,165.0390625,147.4609375,34.1796875,0.0,0,0
1772203551.983247,1772203551.9110258,-1000.0,-1000.0,-1000.0,-529.296875,0.0,0,0
1772203551.983347,1772203551.9149208,-522.94921875,-957.51953125,-599.12109375,-437.98828125,0.0,0,0
1772203551.9834082,1772203551.918816,838.8671875,334.9609375,780.2734375,179.6875,0.0,0,0
1772203551.9834611,1772203551.9227111,-867.1875,-777.83203125,-852.05078125,549.31640625,0.0,0,0
1772203551.983514,1772203551.9266064,192.87109375,140.13671875,181.15234375,115.72265625,0.0,0,0
1772203551.9835641,1772203551.9305017,-1000.0,-1000.0,-1000.0,-471.6796875,0.0,0,0
1772203551.983604,1772203551.9343967,-779.78515625,-1000.0,-859.86328125,-487.3046875,0.0,0,0
1772203551.983648,1772203551.938292,592.7734375,41.015625,479.98046875,125.9765625,0.0,0,0
1772203551.983694,1772203551.942187,-815.4296875,-770.99609375,-797.8515625,555.6640625,0.0,0,0
1772203551.9837341,1772203551.9460824,158.203125,325.68359375,149.90234375,208.0078125,0.0,0,0
1772203552.014137,1772203551.950082,-1000.0,-952.1484375,-1000.0,-406.25,0.0,0,0
1772203552.014268,1772203551.9539773,-988.28125,-1000.0,-1000.0,-533.203125,0.0,0,0
1772203552.0143309,1772203551.9578726,268.5546875,-142.578125,164.0625,39.0625,0.0,0,0
1772203552.0143821,1772203551.9617677,-772.94921875,-823.2421875,-767.578125,520.01953125,0.0,0,0
1772203552.0144398,1772203551.965663,188.96484375,515.625,251.46484375,290.0390625,0.0,0,0
1772203552.0144901,1772203551.969558,-1000.0,-857.91015625,-986.81640625,-349.609375,0.0,0,0
1772203552.01454,1772203551.9734533,-1000.0,-1000.0,-1000.0,-566.89453125,0.0,0,0
1772203552.014587,1772203551.9773486,16.6015625,-220.21484375,-51.7578125,-33.69140625,0.0,0,0
1772203552.014636,1772203551.9812436,-779.78515625,-918.9453125,-797.36328125,480.95703125,0.0,0,0
1772203552.014714,1772203551.985139,375.48828125,792.48046875,443.84765625,359.375,0.0,0,0
1772203552.014763,1772203551.9890342,-927.24609375,-566.40625,-891.11328125,-299.31640625,0.0,0,0
1772203552.014833,1772203551.9929292,-1000.0,-1000.0,-1000.0,-613.76953125,0.0,0,0
1772203552.059104,1772203551.9969199,-161.1328125,-184.08203125,-206.54296875,-122.55859375,0.0,0,0
1772203552.059229,1772203552.0008152,-844.23828125,-981.93359375,-883.30078125,405.76171875,0.0,0,0
1772203552.059286,1772203552.0047102,581.54296875,996.09375,685.546875,401.85546875,0.0,0,0
1772203552.059339,1772203552.0086055,-798.828125,-223.6328125,-693.359375,-217.7734375,0.0,0,0
1772203552.059391,1772203552.0125008,-1000.0,-1000.0,-1000.0,-609.86328125,0.0,0,0
1772203552.0594409,1772203552.0163958,-212.40234375,-235.3515625,-198.2421875,-180.17578125,0.0,0,0
1772203552.059493,1772203552.020291,-932.12890625,975.5859375,-956.0546875,373.046875,0.0,0,0
1772203552.059544,1772203552.0241864,835.44921875,-939.453125,916.015625,463.37890625,0.0,0,0
1772203552.059595,1772203552.0280817,-503.90625,-8.30078125,-373.53515625,-137.6953125,0.0,0,0
1772203552.059648,1772203552.0319767,-1000.0,-1000.0,-1000.0,-598.14453125,0.0,0,0
1772203552.059695,1772203552.035872,-179.6875,-435.05859375,-182.12890625,-252.9296875,0.0,0,0
1772203552.059731,1772203552.0397673,-990.72265625,878.41796875,999.51171875,337.890625,0.0,0,0
1772203552.104546,1772203552.0437458,-980.95703125,-882.32421875,-961.42578125,521.97265625,0.0,0,0
1772203552.104637,1772203552.0476408,-167.96875,187.98828125,-83.0078125,-48.828125,0.0,0,0
1772203552.1046882,1772203552.051536,-1000.0,-1000.0,-1000.0,-572.75390625,0.0,0,0
1772203552.1047418,1772203552.0554314,-270.5078125,-669.43359375,-335.44921875,-338.37890625,0.0,0,0
1772203552.104793,1772203552.0593266,960.9375,721.6796875,930.17578125,271.484375,0.0,0,0
1772203552.104843,1772203552.063222,-928.7109375,-838.37890625,-908.203125,524.4140625,0.0,0,0
1772203552.104893,1772203552.067117,22.94921875,172.36328125,103.515625,7.32421875,0.0,0,0
1772203552.104982,1772203552.0710123,-1000.0,-1000.0,-1000.0,-540.0390625,0.0,0,0
1772203552.105119,1772203552.0749075,-458.0078125,-911.1328125,-529.296875,-420.41015625,0.0,0,0
1772203552.107858,1772203552.0788028,867.67578125,405.76171875,836.42578125,194.82421875,0.0,0,0
1772203552.107927,1772203552.0826979,-877.9296875,-787.109375,-865.234375,542.96875,0.0,0,0
1772203552.107977,1772203552.0865932,203.61328125,144.53125,192.87109375,87.40234375,0.0,0,0
1772203552.1642509,1772203552.0906487,-1000.0,-1000.0,-1000.0,-501.46484375,0.0,0,0
1772203552.1643462,1772203552.094544,-707.51953125,-1000.0,-782.2265625,-498.046875,0.0,0,0
1772203552.164386,1772203552.0984392,684.5703125,99.12109375,588.37890625,115.234375,0.0,0,0
1772203552.164425,1772203552.1023345,-831.54296875,-766.6015625,-813.4765625,532.71484375,0.0,0,0
1772203552.164463,1772203552.1062298,166.015625,306.640625,155.2734375,159.66796875,0.0,0,0
1772203552.164504,1772203552.110125,-1000.0,-958.49609375,-1000.0,-425.78125,0.0,0,0
1772203552.1645398,1772203552.1140203,-948.2421875,-1000.0,-1000.0,-527.83203125,0.0,0,0
1772203552.164576,1772203552.1179156,348.14453125,-116.69921875,221.6796875,37.109375,0.0,0,0
1772203552.164612,1772203552.1218107,-780.2734375,-812.5,-768.5546875,513.18359375,0.0,0,0
1772203552.164674,1772203552.125706,141.11328125,468.75,201.171875,253.90625,0.0,0,0
1772203552.164709,1772203552.1296012,-1000.0,-883.7890625,-1000.0,-381.8359375,0.0,0,0
1772203552.164744,1772203552.1334965,-1000.0,-1000.0,-1000.0,-581.0546875,0.0,0,0
1772203552.210619,1772203552.1375458,58.10546875,-229.4921875,-0.48828125,-21.97265625,0.0,0,0
1772203552.210746,1772203552.141441,-770.99609375,-900.390625,-783.69140625,487.3046875,0.0,0,0
1772203552.210787,1772203552.1453364,325.68359375,728.02734375,393.5546875,338.37890625,0.0,0,0
1772203552.210827,1772203552.1492317,-952.1484375,-650.87890625,-918.9453125,-295.41015625,0.0,0,0
1772203552.210864,1772203552.153127,-1000.0,-1000.0,-1000.0,-585.44921875,0.0,0,0
1772203552.2109,1772203552.1570222,-128.90625,-194.3359375,-170.8984375,-89.35546875,0.0,0,0
1772203552.210937,1772203552.1609175,-822.265625,-961.9140625,-855.46875,450.1953125,0.0,0,0
1772203552.210973,1772203552.1648128,520.5078125,937.5,615.72265625,412.109375,0.0,0,0
1772203552.211216,1772203552.168708,-852.5390625,-340.8203125,-765.625,-242.1875,0.0,0,0
1772203552.211256,1772203552.1726034,-1000.0,-1000.0,-1000.0,-611.81640625,0.0,0,0
1772203552.2112908,1772203552.1764987,-219.7265625,-188.4765625,-206.54296875,-159.66796875,0.0,0,0
1772203552.21134,1772203552.180394,-919.43359375,996.09375,-941.40625,386.23046875,0.0,0,0
1772203552.256882,1772203552.1844306,791.9921875,-957.51953125,870.1171875,455.56640625,0.0,0,0
1772203552.256989,1772203552.188326,-566.89453125,-70.80078125,-451.66015625,-164.0625,0.0,0,0
1772203552.257046,1772203552.1922212,-1000.0,-1000.0,-1000.0,-624.51171875,0.0,0,0
1772203552.257096,1772203552.1961164,-184.08203125,-375.9765625,-177.24609375,-252.9296875,0.0,0,0
1772203552.2572212,1772203552.2000117,-982.91015625,907.71484375,-992.1875,324.21875,0.0,0,0
1772203552.257279,1772203552.2039073,996.58203125,-896.484375,-976.5625,483.88671875,0.0,0,0
1772203552.257377,1772203552.2078025,-222.16796875,138.671875,-138.18359375,-80.078125,0.0,0,0
1772203552.2574599,1772203552.2116978,-1000.0,-1000.0,-1000.0,-582.03125,0.0,0,0
1772203552.257513,1772203552.215593,-233.3984375,-587.40234375,-296.875,-322.265625,0.0,0,0
1772203552.257565,1772203552.2194884,975.5859375,797.36328125,947.265625,281.73828125,0.0,0,0
1772203552.2576158,1772203552.2233837,-939.94140625,-854.00390625,-919.43359375,530.76171875,0.0,0,0
1772203552.257659,1772203552.227279,-7.8125,183.59375,57.6171875,-3.41796875,0.0,0,0
1772203552.3153028,1772203552.231392,-1000.0,-1000.0,-1000.0,-564.94140625,0.0,0,0
1772203552.315428,1772203552.2352872,-421.875,-845.21484375,-484.375,-404.296875,0.0,0,0
1772203552.315469,1772203552.2391825,886.71875,508.30078125,857.421875,224.12109375,0.0,0,0
1772203552.315517,1772203552.2430778,-887.20703125,-799.31640625,-873.53515625,536.62109375,0.0,0,0
1772203552.315563,1772203552.2469733,172.36328125,147.94921875,188.96484375,69.3359375,0.0,0,0
1772203552.3156009,1772203552.2508686,-1000.0,-1000.0,-1000.0,-504.39453125,0.0,0,0
1772203552.315636,1772203552.2547638,-640.625,-1000.0,-734.86328125,-476.07421875,0.0,0,0
1772203552.315681,1772203552.2586591,748.53515625,145.99609375,644.53125,151.85546875,0.0,0,0
1772203552.315718,1772203552.2625546,-845.21484375,-761.71875,-824.21875,551.26953125,0.0,0,0
1772203552.3157918,1772203552.26645,176.7578125,235.83984375,164.55078125,154.296875,0.0,0,0
1772203552.31583,1772203552.2703452,-1000.0,-994.140625,-1000.0,-438.96484375,0.0,0,0
1772203552.315883,1772203552.2742405,-882.32421875,-1000.0,-955.56640625,-514.6484375,0.0,0,0
1772203552.344822,1772203552.2782564,450.1953125,-54.19921875,324.70703125,83.49609375,0.0,0,0
1772203552.344945,1772203552.2821517,-792.96875,-793.45703125,-778.3203125,537.109375,0.0,0,0
1772203552.3449862,1772203552.286047,145.5078125,431.15234375,175.78125,235.83984375,0.0,0,0
1772203552.345025,1772203552.2899425,-1000.0,-899.4140625,-1000.0,-387.6953125,0.0,0,0
1772203552.3450618,1772203552.2938378,-1000.0,-1000.0,-1000.0,-558.59375,0.0,0,0
1772203552.345099,1772203552.297733,117.67578125,-221.19140625,48.33984375,0.9765625,0.0,0,0
1772203552.3451362,1772203552.3016286,-765.625,-879.39453125,-774.90234375,500.48828125,0.0,0,0
1772203552.345174,1772203552.3055239,278.80859375,662.109375,347.16796875,317.87109375,0.0,0,0
1772203552.34521,1772203552.3094192,-974.609375,-728.02734375,-940.91796875,-321.2890625,0.0,0,0
1772203552.345248,1772203552.3133147,-1000.0,-1000.0,-1000.0,-592.7734375,0.0,0,0
1772203552.3452811,1772203552.31721,-73.73046875,-200.68359375,-138.671875,-84.9609375,0.0,0,0
1772203552.3453178,1772203552.3211052,-803.22265625,-952.1484375,-833.0078125,435.05859375,0.0,0,0
1772203552.392223,1772203552.3251095,461.9140625,904.78515625,548.33984375,360.83984375,0.0,0,0
1772203552.3923452,1772203552.329005,-880.859375,-397.94921875,-821.77734375,-277.34375,0.0,0,0
1772203552.392458,1772203552.3329003,-1000.0,-1000.0,-1000.0,-617.1875,0.0,0,0
1772203552.392509,1772203552.3367956,-229.98046875,-173.828125,-215.8203125,-149.4140625,0.0,0,0
1772203552.3925602,1772203552.340691,-900.390625,-998.046875,-925.78125,395.99609375,0.0,0,0
1772203552.392612,1772203552.3445864,724.609375,-962.890625,815.4296875,431.15234375,0.0,0,0
1772203552.392662,1772203552.3484817,-654.78515625,-85.9375,-530.2734375,-189.94140625,0.0,0,0
1772203552.392713,1772203552.3523772,-1000.0,-1000.0,-1000.0,-619.140625,0.0,0,0
1772203552.392759,1772203552.3562725,-193.359375,-348.6328125,-182.6171875,-238.28125,0.0,0,0
1772203552.392809,1772203552.360168,-966.30859375,924.8046875,-984.375,332.51953125,0.0,0,0
1772203552.392859,1772203552.3640633,947.75390625,-906.25,-997.55859375,473.14453125,0.0,0,0
1772203552.392909,1772203552.3679585,-323.2421875,97.16796875,-200.1953125,-114.74609375,0.0,0,0
1772203552.464003,1772203552.3721185,-1000.0,-1000.0,-1000.0,-607.91015625,0.0,0,0
1772203552.464065,1772203552.376014,-173.33984375,-540.0390625,-242.67578125,-311.5234375,0.0,0,0
1772203552.464085,1772203552.3799093,-999.0234375,828.61328125,971.6796875,299.8046875,0.0,0,0
1772203552.464104,1772203552.3838048,-959.47265625,-862.79296875,-935.05859375,530.2734375,0.0,0,0
1772203552.464122,1772203552.3877,-63.96484375,191.40625,11.71875,-12.20703125,0.0,0,0
1772203552.464139,1772203552.3915956,-1000.0,-1000.0,-1000.0,-550.78125,0.0,0,0
1772203552.4642072,1772203552.395491,-368.65234375,-788.57421875,-430.6640625,-382.32421875,0.0,0,0
1772203552.464268,1772203552.3993864,914.55078125,582.03125,884.27734375,237.79296875,0.0,0,0
1772203552.4643111,1772203552.4032817,-901.3671875,-812.01171875,-884.765625,543.9453125,0.0,0,0
1772203552.464392,1772203552.4071772,117.67578125,154.296875,179.6875,57.12890625,0.0,0,0
1772203552.464415,1772203552.4110725,-1000.0,-1000.0,-1000.0,-509.765625,0.0,0,0
1772203552.4644322,1772203552.414968,-559.08203125,-1000.0,-660.15625,-448.2421875,0.0,0,0
1772203552.494817,1772203552.418959,819.3359375,214.84375,729.4921875,170.8984375,0.0,0,0
1772203552.4948668,1772203552.4228542,-859.86328125,-768.06640625,-839.84375,555.17578125,0.0,0,0
1772203552.494886,1772203552.4267497,185.546875,195.3125,172.8515625,142.08984375,0.0,0,0
1772203552.494903,1772203552.4306452,-1000.0,-1000.0,-1000.0,-453.61328125,0.0,0,0
1772203552.4949188,1772203552.4345405,-834.9609375,-1000.0,-911.1328125,-497.55859375,0.0,0,0
1772203552.494935,1772203552.438436,520.99609375,-12.6953125,405.76171875,103.02734375,0.0,0,0
1772203552.494952,1772203552.4423316,-802.734375,-782.71484375,-787.109375,548.33984375,0.0,0,0
1772203552.4949682,1772203552.4462268,149.4140625,369.140625,145.5078125,209.9609375,0.0,0,0
1772203552.4949849,1772203552.4501224,-1000.0,-935.05859375,-1000.0,-397.94921875,0.0,0,0
1772203552.4950001,1772203552.4540176,-1000.0,-1000.0,-1000.0,-532.2265625,0.0,0,0
1772203552.495015,1772203552.4579132,172.8515625,-154.78515625,108.88671875,9.765625,0.0,0,0
1772203552.495032,1772203552.4618087,-765.13671875,-841.30859375,-768.06640625,491.69921875,0.0,0,0
1772203552.5386748,1772203552.4657927,227.5390625,581.54296875,298.33984375,283.203125,0.0,0,0
1772203552.5387251,1772203552.469688,-998.53515625,-797.8515625,-965.33203125,-343.26171875,0.0,0,0
1772203552.538739,1772203552.4735835,-1000.0,-1000.0,-1000.0,-578.61328125,0.0,0,0
1772203552.53875,1772203552.477479,-35.64453125,-207.51953125,-94.23828125,-56.640625,0.0,0,0
1772203552.538762,1772203552.4813743,-791.50390625,-944.3359375,-811.5234375,469.7265625,0.0,0,0
1772203552.538774,1772203552.4852698,421.875,877.44140625,494.140625,381.34765625,0.0,0,0
1772203552.538786,1772203552.4891653,-901.85546875,-440.4296875,-865.234375,-270.01953125,0.0,0,0
1772203552.5387971,1772203552.4930606,-1000.0,-1000.0,-1000.0,-603.515625,0.0,0,0
1772203552.538808,1772203552.496956,-216.796875,-178.22265625,-218.75,-124.0234375,0.0,0,0
1772203552.538819,1772203552.5008516,-878.90625,-990.72265625,-907.71484375,423.33984375,0.0,0,0
1772203552.53883,1772203552.504747,662.59765625,-975.09765625,758.30078125,448.73046875,0.0,0,0
1772203552.5388422,1772203552.5086424,-725.5859375,-146.484375,-609.86328125,-165.52734375,0.0,0,0
1772203552.583349,1772203552.5126798,-1000.0,-1000.0,-1000.0,-588.8671875,0.0,0,0
1772203552.5834281,1772203552.5165753,-201.171875,-278.3203125,-187.98828125,-192.87109375,0.0,0,0
1772203552.583443,1772203552.5204709,-952.63671875,957.03125,-975.09765625,379.39453125,0.0,0,0
1772203552.583454,1772203552.5243664,903.80859375,-924.8046875,976.07421875,498.046875,0.0,0,0
1772203552.583466,1772203552.5282617,-398.92578125,43.9453125,-264.16015625,-106.4453125,0.0,0,0
1772203552.583478,1772203552.5321572,-1000.0,-1000.0,-1000.0,-601.5625,0.0,0,0
1772203552.583488,1772203552.5360527,-174.8046875,-487.3046875,-215.8203125,-279.78515625,0.0,0,0
1772203552.583499,1772203552.5399482,-997.55859375,853.515625,982.91015625,323.2421875,0.0,0,0
1772203552.58351,1772203552.5438435,-965.33203125,-872.0703125,-944.3359375,525.390625,0.0,0,0
1772203552.5835211,1772203552.547739,-96.19140625,200.68359375,-23.92578125,-32.71484375,0.0,0,0
1772203552.583533,1772203552.5516346,-1000.0,-1000.0,-1000.0,-572.265625,0.0,0,0
1772203552.583543,1772203552.55553,-333.984375,-725.09765625,-396.484375,-367.1875,0.0,0,0
1772203552.62817,1772203552.559561,930.6640625,664.55078125,900.390625,241.2109375,0.0,0,0
1772203552.628204,1772203552.5634565,-909.66796875,-827.1484375,-892.578125,523.4375,0.0,0,0
1772203552.628222,1772203552.567352,91.30859375,165.52734375,154.78515625,32.71484375,0.0,0,0
1772203552.628237,1772203552.5712473,-1000.0,-1000.0,-1000.0,-532.2265625,0.0,0,0
1772203552.6282508,1772203552.5751429,-517.08984375,-949.70703125,-603.02734375,-447.75390625,0.0,0,0
1772203552.628267,1772203552.5790384,841.796875,346.19140625,778.80859375,172.36328125,0.0,0,0
1772203552.628281,1772203552.582934,-868.1640625,-778.80859375,-851.5625,531.73828125,0.0,0,0
1772203552.628296,1772203552.5868294,193.84765625,140.13671875,181.640625,107.421875,0.0,0,0
1772203552.62831,1772203552.590725,-1000.0,-1000.0,-1000.0,-464.84375,0.0,0,0
1772203552.628323,1772203552.5946205,-775.390625,-1000.0,-855.46875,-491.2109375,0.0,0,0
1772203552.628337,1772203552.5985157,598.6328125,40.52734375,486.328125,97.65625,0.0,0,0
1772203552.628351,1772203552.6024113,-816.40625,-770.99609375,-798.33984375,524.90234375,0.0,0,0
1772203552.675912,1772203552.6064322,159.1796875,334.9609375,149.4140625,189.453125,0.0,0,0
1772203552.675936,1772203552.6103277,-1000.0,-947.265625,-1000.0,-410.64453125,0.0,0,0
1772203552.6759522,1772203552.6142232,-984.375,-1000.0,-1000.0,-530.2734375,0.0,0,0
1772203552.675968,1772203552.6181185,275.390625,-150.390625,157.2265625,35.64453125,0.0,0,0
1772203552.675987,1772203552.622014,-773.4375,-827.1484375,-768.06640625,513.18359375,0.0,0,0
1772203552.6760042,1772203552.6259096,190.91796875,533.69140625,265.13671875,273.92578125,0.0,0,0
1772203552.67602,1772203552.629805,-1000.0,-848.14453125,-980.95703125,-349.609375,0.0,0,0
1772203552.6760361,1772203552.6337006,-1000.0,-1000.0,-1000.0,-576.171875,0.0,0,0
1772203552.676051,1772203552.6375961,13.18359375,-218.26171875,-57.12890625,-70.80078125,0.0,0,0
1772203552.676106,1772203552.6414917,-780.2734375,-920.8984375,-798.828125,441.89453125,0.0,0,0
1772203552.676126,1772203552.6453872,373.046875,798.33984375,445.80078125,329.1015625,0.0,0,0
1772203552.676142,1772203552.6492827,-928.7109375,-559.08203125,-891.11328125,-313.96484375,0.0,0,0
1772203552.7185988,1772203552.6532943,-1000.0,-1000.0,-1000.0,-622.0703125,0.0,0,0
1772203552.718645,1772203552.6571898,-160.64453125,-182.12890625,-206.54296875,-137.20703125,0.0,0,0
1772203552.718671,1772203552.6610854,-845.21484375,-985.83984375,-886.23046875,382.8125,0.0,0,0
1772203552.718695,1772203552.664981,587.40234375,-991.69921875,696.2890625,380.37109375,0.0,0,0
1772203552.71872,1772203552.6688764,-792.48046875,-200.68359375,-680.6640625,-244.62890625,0.0,0,0
1772203552.718743,1772203552.672772,-1000.0,-1000.0,-1000.0,-635.7421875,0.0,0,0
1772203552.718765,1772203552.6766675,-225.5859375,-245.60546875,-211.42578125,-218.26171875,0.0,0,0
1772203552.718789,1772203552.680563,-897.4609375,-987.3046875,-922.36328125,362.79296875,0.0,0,0
1772203552.718816,1772203552.6844585,737.79296875,956.54296875,820.3125,393.5546875,0.0,0,0
1772203552.7188401,1772203552.688354,-674.8046875,-175.78125,-539.0625,-251.46484375,0.0,0,0
1772203552.718863,1772203552.6922495,-1000.0,-1000.0,-1000.0,-629.39453125,0.0,0,0
1772203552.7188852,1772203552.696145,-177.734375,-452.1484375,-185.05859375,-298.828125,0.0,0,0
1772203552.764705,1772203552.7001505,-996.09375,865.234375,992.67578125,288.0859375,0.0,0,0
1772203552.7647989,1772203552.704046,-979.98046875,-879.39453125,-959.9609375,482.91015625,0.0,0,0
1772203552.764833,1772203552.7079415,-164.55078125,179.19921875,-81.0546875,-81.54296875,0.0,0,0
1772203552.764864,1772203552.711837,-1000.0,-1000.0,-1000.0,-603.02734375,0.0,0,0
1772203552.764895,1772203552.7157328,-270.5078125,-691.89453125,-341.30859375,-364.74609375,0.0,0,0
1772203552.7649238,1772203552.7196283,960.44921875,696.2890625,927.734375,236.81640625,0.0,0,0
1772203552.764956,1772203552.7235239,-928.7109375,-833.0078125,-907.2265625,496.58203125,0.0,0,0
1772203552.764985,1772203552.7274194,27.34375,169.43359375,102.5390625,-8.7890625,0.0,0,0
1772203552.7650151,1772203552.731315,-1000.0,-1000.0,-1000.0,-562.98828125,0.0,0,0
1772203552.765044,1772203552.7352104,-465.8203125,-929.6875,-536.1328125,-441.40625,0.0,0,0
1772203552.7650719,1772203552.739106,863.76953125,377.9296875,830.56640625,181.640625,0.0,0,0
1772203552.7651,1772203552.7430015,-876.953125,-783.203125,-863.76953125,530.76171875,0.0,0,0
1772203552.812691,1772203552.7469985,203.125,142.578125,190.91796875,79.58984375,0.0,0,0
1772203552.8128388,1772203552.750894,-1000.0,-1000.0,-1000.0,-503.90625,0.0,0,0
1772203552.8128939,1772203552.7547896,-708.49609375,-1000.0,-795.8984375,-503.41796875,0.0,0,0
1772203552.812945,1772203552.758685,683.59375,71.77734375,571.77734375,105.95703125,0.0,0,0
1772203552.8130062,1772203552.7625806,-831.54296875,-768.5546875,-810.546875,521.97265625,0.0,0,0
1772203552.8131342,1772203552.7664762,166.50390625,313.4765625,154.78515625,161.62109375,0.0,0,0
1772203552.813198,1772203552.770372,-1000.0,-957.03125,-1000.0,-442.87109375,0.0,0,0
1772203552.8132522,1772203552.7742674,-946.77734375,-1000.0,-1000.0,-541.9921875,0.0,0,0
1772203552.813303,1772203552.778163,350.09765625,-124.51171875,219.7265625,56.15234375,0.0,0,0
1772203552.813353,1772203552.7820585,-780.76171875,-814.94140625,-768.5546875,524.4140625,0.0,0,0
1772203552.813403,1772203552.785954,141.11328125,476.5625,203.61328125,259.27734375,0.0,0,0
1772203552.813452,1772203552.7898495,-1000.0,-880.37109375,-1000.0,-365.234375,0.0,0,0
1772203552.869351,1772203552.7938282,-1000.0,-1000.0,-1000.0,-555.17578125,0.0,0,0
1772203552.8695092,1772203552.7977238,58.10546875,-226.5625,-5.859375,-8.30078125,0.0,0,0
1772203552.86957,1772203552.8016193,-770.99609375,-906.73828125,-784.1796875,489.2578125,0.0,0,0
1772203552.869623,1772203552.8055148,325.1953125,751.46484375,395.99609375,333.0078125,0.0,0,0
1772203552.869675,1772203552.8094103,-952.1484375,-620.1171875,-916.50390625,-305.6640625,0.0,0,0
1772203552.869726,1772203552.813306,-1000.0,-1000.0,-1000.0,-583.984375,0.0,0,0
1772203552.869785,1772203552.8172016,-129.39453125,-191.40625,-183.59375,-93.75,0.0,0,0
1772203552.869843,1772203552.8210971,-822.75390625,-966.796875,-859.86328125,413.57421875,0.0,0,0
1772203552.869896,1772203552.8249927,521.484375,953.61328125,621.58203125,394.53125,0.0,0,0
1772203552.869948,1772203552.8288882,-852.05078125,-309.5703125,-762.6953125,-218.26171875,0.0,0,0
1772203552.8700118,1772203552.832784,-1000.0,-1000.0,-1000.0,-603.02734375,0.0,0,0
1772203552.8700569,1772203552.8366795,-219.7265625,-198.2421875,-206.0546875,-173.828125,0.0,0,0
1772203552.915431,1772203552.8406487,-919.43359375,991.2109375,-943.359375,375.0,0.0,0,0
1772203552.915553,1772203552.8445442,792.48046875,-952.63671875,875.48828125,452.63671875,0.0,0,0
1772203552.915612,1772203552.8484397,-565.91796875,-51.7578125,-443.359375,-163.0859375,0.0,0,0
1772203552.915665,1772203552.8523355,-1000.0,-1000.0,-1000.0,-616.69921875,0.0,0,0
1772203552.915712,1772203552.856231,-183.10546875,-375.48828125,-176.26953125,-242.1875,0.0,0,0
1772203552.9159439,1772203552.8601265,-984.86328125,908.69140625,-994.62890625,342.28515625,0.0,0,0
1772203552.916001,1772203552.864022,-997.0703125,-895.99609375,-969.7265625,494.140625,0.0,0,0
1772203552.916055,1772203552.8679178,-209.47265625,154.78515625,-122.55859375,-84.47265625,0.0,0,0
1772203552.9161081,1772203552.8718133,-1000.0,-1000.0,-1000.0,-592.28515625,0.0,0,0
1772203552.9161549,1772203552.8757088,-234.86328125,-609.375,-300.29296875,-329.1015625,0.0,0,0
1772203552.916211,1772203552.8796043,974.609375,777.83203125,946.2890625,279.296875,0.0,0,0
1772203552.91626,1772203552.8835,-938.4765625,-850.5859375,-918.45703125,528.80859375,0.0,0,0
1772203552.9613419,1772203552.887545,-0.48828125,182.6171875,63.4765625,4.8828125,0.0,0,0
1772203552.961386,1772203552.8914406,-1000.0,-1000.0,-1000.0,-543.45703125,0.0,0,0
1772203552.9614022,1772203552.8953364,-423.33984375,-846.6796875,-489.74609375,-395.99609375,0.0,0,0
1772203552.961418,1772203552.899232,885.7421875,505.859375,854.4921875,229.4921875,0.0,0,0
1772203552.9614332,1772203552.9031274,-886.71875,-799.31640625,-872.0703125,543.45703125,0.0,0,0
1772203552.961448,1772203552.9070232,180.17578125,147.94921875,192.87109375,72.265625,0.0,0,0
1772203552.961462,1772203552.9109187,-1000.0,-1000.0,-1000.0,-496.58203125,0.0,0,0
1772203552.961476,1772203552.9148142,-644.53125,-1000.0,-740.234375,-466.796875,0.0,0,0
1772203552.961542,1772203552.91871,746.58203125,145.99609375,638.671875,144.04296875,0.0,0,0
1772203552.9615722,1772203552.9226055,-844.23828125,-761.71875,-823.2421875,538.0859375,0.0,0,0
1772203552.961589,1772203552.926501,174.8046875,236.81640625,163.0859375,145.5078125,0.0,0,0
1772203552.961607,1772203552.9303968,-1000.0,-993.1640625,-1000.0,-457.03125,0.0,0,0
1772203553.003819,1772203552.934422,-895.99609375,-1000.0,-964.84375,-537.59765625,0.0,0,0
1772203553.003843,1772203552.9383175,428.7109375,-55.6640625,308.59375,60.546875,0.0,0,0
1772203553.0038521,1772203552.9422133,-790.52734375,-793.9453125,-776.85546875,533.69140625,0.0,0,0
1772203553.003861,1772203552.9461088,145.01953125,433.59375,178.22265625,245.60546875,0.0,0,0
1772203553.00387,1772203552.9500043,-1000.0,-897.94921875,-1000.0,-378.90625,0.0,0,0
1772203553.0038779,1772203552.9539,-1000.0,-1000.0,-1000.0,-557.6171875,0.0,0,0
1772203553.0038872,1772203552.9577956,108.3984375,-221.6796875,41.015625,-6.34765625,0.0,0,0
1772203553.0038972,1772203552.9616914,-766.6015625,-879.8828125,-776.3671875,498.046875,0.0,0,0
1772203553.003906,1772203552.965587,291.015625,664.55078125,357.421875,315.4296875,0.0,0,0
1772203553.003915,1772203552.9694827,-969.7265625,-725.5859375,-936.03515625,-338.37890625,0.0,0,0
1772203553.003924,1772203552.9733782,-1000.0,-1000.0,-1000.0,-607.91015625,0.0,0,0
1772203553.003932,1772203552.9772737,-78.61328125,-199.70703125,-142.578125,-93.26171875,0.0,0,0
1772203553.0633862,1772203552.981371,-805.6640625,-954.58984375,-835.9375,436.03515625,0.0,0,0
1772203553.0634198,1772203552.9852664,470.703125,912.109375,558.59375,384.27734375,0.0,0,0
1772203553.0634298,1772203552.9891622,-876.46484375,-386.71875,-813.96484375,-245.1171875,0.0,0,0
1772203553.0634391,1772203552.993058,-1000.0,-1000.0,-1000.0,-614.2578125,0.0,0,0
1772203553.063447,1772203552.9969535,-229.00390625,-173.828125,-214.84375,-163.0859375,0.0,0,0
1772203553.063456,1772203553.0008492,-901.3671875,-997.55859375,-926.7578125,396.484375,0.0,0,0
1772203553.063464,1772203553.0047448,728.515625,-964.35546875,819.3359375,456.0546875,0.0,0,0
1772203553.063472,1772203553.0086405,-649.90234375,-88.8671875,-524.90234375,-164.0625,0.0,0,0
1772203553.063481,1772203553.012536,-1000.0,-1000.0,-1000.0,-608.88671875,0.0,0,0
1772203553.063488,1772203553.0164318,-192.3828125,-357.421875,-181.640625,-227.5390625,0.0,0,0
1772203553.063497,1772203553.0203276,-968.75,919.43359375,-985.83984375,340.33203125,0.0,0,0
1772203553.063505,1772203553.024223,954.1015625,-903.80859375,-992.67578125,493.65234375,0.0,0,0
1772203553.094157,1772203553.0282278,-311.5234375,104.00390625,-187.5,-91.796875,0.0,0,0
1772203553.0941901,1772203553.0321236,-1000.0,-1000.0,-1000.0,-600.5859375,0.0,0,0
1772203553.0942001,1772203553.036019,-173.33984375,-546.38671875,-249.0234375,-306.640625,0.0,0,0
1772203553.0942101,1772203553.0399148,-999.51171875,825.68359375,968.75,289.0625,0.0,0,0
1772203553.094219,1772203553.0438106,-958.49609375,-860.83984375,-932.6171875,508.7890625,0.0,0,0
1772203553.094228,1772203553.0477061,-58.59375,187.98828125,21.97265625,-18.5546875,0.0,0,0
1772203553.0942369,1772203553.051602,-1000.0,-1000.0,-1000.0,-551.7578125,0.0,0,0
1772203553.0942452,1772203553.0554976,-369.140625,-822.75390625,-443.359375,-388.18359375,0.0,0,0
1772203553.094254,1772203553.0593932,914.55078125,537.59765625,877.9296875,213.37890625,0.0,0,0
1772203553.094264,1772203553.063289,-900.87890625,-805.17578125,-882.32421875,524.4140625,0.0,0,0
1772203553.094273,1772203553.0671844,120.60546875,152.83203125,181.15234375,56.640625,0.0,0,0
1772203553.094282,1772203553.0710802,-1000.0,-1000.0,-1000.0,-523.92578125,0.0,0,0
1772203553.138446,1772203553.0750744,-559.5703125,-1000.0,-668.9453125,-480.46875,0.0,0,0
1772203553.138475,1772203553.0789702,819.82421875,203.125,719.7265625,122.55859375,0.0,0,0
1772203553.138489,1772203553.082866,-859.86328125,-767.08984375,-838.37890625,504.8828125,0.0,0,0
1772203553.1385012,1772203553.0867617,185.546875,206.0546875,172.36328125,116.69921875,0.0,0,0
1772203553.1385128,1772203553.0906572,-1000.0,-1000.0,-1000.0,-490.234375,0.0,0,0
1772203553.1385229,1772203553.094553,-834.9609375,-1000.0,-911.1328125,-556.15234375,0.0,0,0
1772203553.138535,1772203553.0984488,520.99609375,-3.90625,405.76171875,62.98828125,0.0,0,0
1772203553.138547,1772203553.1023443,-802.734375,-781.73828125,-786.62109375,514.16015625,0.0,0,0
1772203553.1385589,1772203553.10624,149.90234375,369.140625,145.99609375,181.15234375,0.0,0,0
1772203553.13857,1772203553.1101358,-1000.0,-929.19921875,-1000.0,-431.640625,0.0,0,0
1772203553.138581,1772203553.1140313,-1000.0,-1000.0,-1000.0,-580.56640625,0.0,0,0
1772203553.138592,1772203553.117927,170.8984375,-192.87109375,99.12109375,-16.6015625,0.0,0,0
1772203553.183959,1772203553.1219103,-764.6484375,-856.4453125,-768.06640625,468.26171875,0.0,0,0
1772203553.183984,1772203553.125806,236.81640625,606.4453125,302.734375,263.671875,0.0,0,0
1772203553.183999,1772203553.1297019,-994.62890625,-780.2734375,-963.37890625,-366.69921875,0.0,0,0
1772203553.184015,1772203553.1335976,-1000.0,-1000.0,-1000.0,-604.00390625,0.0,0,0
1772203553.184028,1772203553.1374931,-39.0625,-205.078125,-96.6796875,-78.125,0.0,0,0
1772203553.184043,1772203553.141389,-791.9921875,-946.77734375,-812.01171875,422.8515625,0.0,0,0
1772203553.184057,1772203553.1452847,422.36328125,886.23046875,494.62890625,322.265625,0.0,0,0
1772203553.1840708,1772203553.1491804,-901.85546875,-426.26953125,-864.74609375,-310.546875,0.0,0,0
1772203553.184086,1772203553.153076,-1000.0,-1000.0,-1000.0,-645.01953125,0.0,0,0
1772203553.184101,1772203553.1569717,-217.7734375,-178.7109375,-217.7734375,-178.22265625,0.0,0,0
1772203553.184116,1772203553.1608675,-879.8828125,-989.2578125,-908.203125,367.1875,0.0,0,0
1772203553.184145,1772203553.1647632,667.48046875,-979.00390625,759.27734375,391.6015625,0.0,0,0
1772203553.230751,1772203553.168742,-720.703125,-156.73828125,-607.91015625,-227.5390625,0.0,0,0
1772203553.230786,1772203553.1726375,-1000.0,-1000.0,-1000.0,-634.765625,0.0,0,0
1772203553.2307992,1772203553.1765332,-200.1953125,-297.36328125,-187.5,-208.0078125,0.0,0,0
1772203553.230814,1772203553.180429,-953.61328125,944.3359375,-976.07421875,373.046875,0.0,0,0
1772203553.230828,1772203553.1843247,907.2265625,-917.48046875,978.515625,487.3046875,0.0,0,0
1772203553.230844,1772203553.1882205,-393.06640625,68.359375,-259.27734375,-106.93359375,0.0,0,0
1772203553.230859,1772203553.1921163,-1000.0,-1000.0,-1000.0,-583.49609375,0.0,0,0
1772203553.2308722,1772203553.1960118,-174.8046875,-500.9765625,-217.7734375,-265.13671875,0.0,0,0
1772203553.230886,1772203553.1999075,-997.55859375,848.14453125,982.421875,327.1484375,0.0,0,0
1772203553.230965,1772203553.2038033,-965.33203125,-870.1171875,-943.84765625,532.71484375,0.0,0,0
1772203553.230981,1772203553.207699,-95.703125,198.2421875,-22.94921875,-8.7890625,0.0,0,0
1772203553.230996,1772203553.2115948,-1000.0,-1000.0,-1000.0,-530.76171875,0.0,0,0
1772203553.287824,1772203553.215563,-335.44921875,-743.1640625,-400.87890625,-325.1953125,0.0,0,0
1772203553.2878752,1772203553.2194588,929.19921875,641.11328125,897.94921875,285.64453125,0.0,0,0
1772203553.287898,1772203553.2233546,-909.66796875,-823.2421875,-891.6015625,575.68359375,0.0,0,0
1772203553.287915,1772203553.2272503,92.7734375,164.55078125,154.78515625,71.2890625,0.0,0,0
1772203553.2879329,1772203553.2311459,-1000.0,-1000.0,-1000.0,-508.7890625,0.0,0,0
1772203553.287949,1772203553.2350416,-521.484375,-957.51953125,-603.02734375,-422.36328125,0.0,0,0
1772203553.287966,1772203553.2389374,839.35546875,334.9609375,778.80859375,203.125,0.0,0,0
1772203553.287982,1772203553.2428331,-867.1875,-777.83203125,-851.5625,571.77734375,0.0,0,0
1772203553.287998,1772203553.246729,193.359375,140.13671875,181.15234375,142.578125,0.0,0,0
1772203553.2880151,1772203553.2506247,-1000.0,-1000.0,-1000.0,-444.3359375,0.0,0,0
1772203553.2880719,1772203553.2545204,-778.80859375,-1000.0,-860.3515625,-465.33203125,0.0,0,0
1772203553.2881122,1772203553.258416,593.75,40.52734375,479.4921875,148.4375,0.0,0,0
1772203553.365772,1772203553.2626176,-815.91796875,-771.484375,-797.36328125,577.63671875,0.0,0,0
1772203553.3658519,1772203553.2665133,157.2265625,335.44921875,148.92578125,230.46875,0.0,0,0
1772203553.36588,1772203553.270409,-1000.0,-948.2421875,-1000.0,-367.67578125,0.0,0,0
1772203553.3659048,1772203553.2743049,-994.140625,-1000.0,-1000.0,-502.44140625,0.0,0,0
1772203553.365939,1772203553.2782006,255.859375,-141.6015625,153.80859375,50.78125,0.0,0,0
1772203553.365963,1772203553.2820964,-771.97265625,-825.1953125,-768.06640625,534.66796875,0.0,0,0
1772203553.365987,1772203553.2859921,197.75390625,531.73828125,262.20703125,306.15234375,0.0,0,0
1772203553.366011,1772203553.289888,-1000.0,-847.65625,-981.93359375,-329.1015625,0.0,0,0
1772203553.366035,1772203553.2937837,-1000.0,-1000.0,-1000.0,-545.41015625,0.0,0,0
1772203553.366057,1772203553.2976794,9.765625,-216.796875,-59.5703125,-1.46484375,0.0,0,0
1772203553.366091,1772203553.3015752,-781.73828125,-924.31640625,-800.29296875,506.8359375,0.0,0,0
1772203553.3661141,1772203553.305471,385.25390625,812.5,453.61328125,370.1171875,0.0,0,0
1772203553.3802612,1772203553.3095055,-921.875,-540.52734375,-886.23046875,-277.83203125,0.0,0,0
1772203553.38033,1772203553.3134012,-1000.0,-1000.0,-1000.0,-585.44921875,0.0,0,0
1772203553.3803608,1772203553.317297,-165.52734375,-180.17578125,-207.51953125,-88.37890625,0.0,0,0
1772203553.380391,1772203553.3211927,-848.6328125,-989.2578125,-887.20703125,437.5,0.0,0,0
1772203553.3804212,1772203553.3250885,593.75,-982.421875,698.2421875,417.96875,0.0,0,0
1772203553.38045,1772203553.3289843,-787.109375,-179.6875,-678.7109375,-207.51953125,0.0,0,0
1772203553.3804789,1772203553.33288,-1000.0,-1000.0,-1000.0,-603.515625,0.0,0,0
1772203553.380507,1772203553.336776,-210.44921875,-254.39453125,-196.77734375,-181.640625,0.0,0,0
1772203553.3805351,1772203553.3406718,-935.546875,970.21484375,-958.984375,380.859375,0.0,0,0
1772203553.380564,1772203553.3445675,845.703125,-936.03515625,925.29296875,471.19140625,0.0,0,0
1772203553.380594,1772203553.3484633,-488.28125,-3.41796875,-356.93359375,-129.8828125,0.0,0,0
1772203553.3806221,1772203553.352359,-1000.0,-1000.0,-1000.0,-588.37890625,0.0,0,0
1772203553.42524,1772203553.3563838,-178.7109375,-446.77734375,-185.05859375,-252.9296875,0.0,0,0
1772203553.425355,1772203553.3602798,-992.1875,872.55859375,997.55859375,329.1015625,0.0,0,0
1772203553.42539,1772203553.3641756,-977.5390625,-879.8828125,-958.49609375,508.30078125,0.0,0,0
1772203553.425421,1772203553.3680713,-154.296875,189.453125,-71.2890625,-57.6171875,0.0,0,0
1772203553.425451,1772203553.371967,-1000.0,-1000.0,-1000.0,-572.265625,0.0,0,0
1772203553.4254808,1772203553.3758628,-270.5078125,-679.6875,-345.703125,-342.7734375,0.0,0,0
1772203553.425511,1772203553.3797588,959.9609375,710.9375,925.78125,263.671875,0.0,0,0
1772203553.4255471,1772203553.3836546,-927.24609375,-835.9375,-905.76171875,531.25,0.0,0,0
1772203553.425575,1772203553.3875504,40.0390625,170.41015625,112.3046875,20.99609375,0.0,0,0
1772203553.425604,1772203553.391446,-1000.0,-1000.0,-1000.0,-537.109375,0.0,0,0
1772203553.425631,1772203553.395342,-467.28515625,-928.7109375,-545.41015625,-418.45703125,0.0,0,0
1772203553.4256809,1772203553.3992379,864.74609375,378.90625,823.2421875,214.35546875,0.0,0,0
1772203553.4690182,1772203553.4032435,-876.953125,-783.69140625,-862.3046875,561.03515625,0.0,0,0
1772203553.469137,1772203553.4071393,203.125,143.06640625,190.91796875,123.046875,0.0,0,0
1772203553.469185,1772203553.4110353,-1000.0,-1000.0,-1000.0,-451.171875,0.0,0,0
1772203553.469225,1772203553.414931,-708.984375,-1000.0,-794.43359375,-456.54296875,0.0,0,0
1772203553.469265,1772203553.4188268,682.6171875,79.58984375,574.21875,144.04296875,0.0,0,0
1772203553.469302,1772203553.4227228,-831.0546875,-768.06640625,-811.03515625,546.38671875,0.0,0,0
1772203553.469339,1772203553.4266186,166.015625,312.98828125,154.78515625,184.08203125,0.0,0,0
1772203553.469376,1772203553.4305143,-1000.0,-956.54296875,-1000.0,-423.33984375,0.0,0,0
1772203553.469412,1772203553.43441,-947.75390625,-1000.0,-1000.0,-541.015625,0.0,0,0
1772203553.469449,1772203553.438306,348.6328125,-124.51171875,220.703125,33.69140625,0.0,0,0
1772203553.469484,1772203553.4422019,-780.2734375,-816.40625,-768.06640625,517.08984375,0.0,0,0
1772203553.469538,1772203553.4460976,140.625,488.28125,209.47265625,221.19140625,0.0,0,0
1772203553.516736,1772203553.4500973,-1000.0,-872.55859375,-1000.0,-416.9921875,0.0,0,0
1772203553.516861,1772203553.453993,-1000.0,-1000.0,-1000.0,-585.44921875,0.0,0,0
1772203553.516918,1772203553.457889,51.26953125,-226.07421875,-16.6015625,-43.45703125,0.0,0,0
1772203553.51697,1772203553.4617848,-771.484375,-905.2734375,-785.64453125,478.02734375,0.0,0,0
1772203553.517021,1772203553.4656806,334.47265625,745.1171875,398.92578125,321.77734375,0.0,0,0
1772203553.517072,1772203553.4695766,-948.2421875,-628.90625,-915.52734375,-318.84765625,0.0,0,0
1772203553.51713,1772203553.4734724,-1000.0,-1000.0,-1000.0,-594.7265625,0.0,0,0
1772203553.51717,1772203553.4773684,-135.7421875,-190.4296875,-189.453125,-88.37890625,0.0,0,0
1772203553.517206,1772203553.481264,-824.21875,-970.703125,-862.79296875,447.265625,0.0,0,0
1772203553.51725,1772203553.4851599,522.4609375,962.890625,628.90625,419.921875,0.0,0,0
1772203553.5172942,1772203553.4890559,-852.5390625,-289.0625,-755.859375,-214.84375,0.0,0,0
1772203553.51733,1772203553.4929516,-1000.0,-1000.0,-1000.0,-591.796875,0.0,0,0
1772203553.5592608,1772203553.4969378,-219.23828125,-212.890625,-205.078125,-157.2265625,0.0,0,0
1772203553.559395,1772203553.5008337,-920.8984375,985.3515625,-944.3359375,374.0234375,0.0,0,0
1772203553.559436,1772203553.5047295,796.875,-947.265625,878.41796875,444.82421875,0.0,0,0
1772203553.559469,1772203553.5086253,-560.546875,-41.50390625,-438.4765625,-152.34375,0.0,0,0
1772203553.559499,1772203553.5125213,-1000.0,-1000.0,-1000.0,-608.3984375,0.0,0,0
1772203553.5595279,1772203553.516417,-182.6171875,-370.1171875,-176.26953125,-241.69921875,0.0,0,0
1772203553.559556,1772203553.520313,-985.83984375,915.52734375,-994.62890625,336.9140625,0.0,0,0
1772203553.559585,1772203553.5242088,-995.60546875,-899.4140625,-969.7265625,501.953125,0.0,0,0
1772203553.559624,1772203553.5281048,-205.078125,129.39453125,-121.09375,-68.84765625,0.0,0,0
1772203553.559654,1772203553.5320005,-1000.0,-1000.0,-1000.0,-591.796875,0.0,0,0
1772203553.55968,1772203553.5358963,-239.74609375,-603.02734375,-304.6875,-327.63671875,0.0,0,0
1772203553.5597131,1772203553.5397923,972.65625,778.3203125,942.87109375,287.59765625,0.0,0,0
1772203553.6042922,1772203553.543771,-936.5234375,-850.09765625,-915.52734375,544.43359375,0.0,0,0
1772203553.6043708,1772203553.547667,3.90625,181.640625,75.1953125,15.13671875,0.0,0,0
1772203553.604623,1772203553.5515628,-1000.0,-1000.0,-1000.0,-551.7578125,0.0,0,0
1772203553.604664,1772203553.5554588,-428.22265625,-852.5390625,-495.1171875,-404.78515625,0.0,0,0
1772203553.604702,1772203553.5593545,883.7890625,496.09375,853.02734375,224.12109375,0.0,0,0
1772203553.6047392,1772203553.5632505,-885.7421875,-797.36328125,-871.58203125,551.7578125,0.0,0,0
1772203553.604776,1772203553.5671463,180.6640625,145.99609375,190.91796875,78.125,0.0,0,0
1772203553.6048121,1772203553.5710423,-1000.0,-1000.0,-1000.0,-507.32421875,0.0,0,0
1772203553.6048481,1772203553.574938,-654.78515625,-1000.0,-751.953125,-481.93359375,0.0,0,0
1772203553.604884,1772203553.578834,734.86328125,119.62890625,624.0234375,140.625,0.0,0,0
1772203553.604919,1772203553.5827298,-842.28515625,-764.16015625,-820.80078125,558.59375,0.0,0,0
1772203553.604955,1772203553.5866258,174.31640625,241.69921875,162.109375,184.5703125,0.0,0,0
1772203553.666015,1772203553.5906727,-1000.0,-993.65234375,-1000.0,-415.0390625,0.0,0,0
1772203553.666158,1772203553.5945685,-896.97265625,-1000.0,-968.75,-516.11328125,0.0,0,0
1772203553.66621,1772203553.5984645,427.24609375,-55.6640625,300.29296875,67.87109375,0.0,0,0
1772203553.666272,1772203553.6023602,-790.0390625,-793.9453125,-775.87890625,526.3671875,0.0,0,0
1772203553.666325,1772203553.6062562,144.04296875,432.6171875,181.640625,232.91015625,0.0,0,0
1772203553.6663702,1772203553.610152,-1000.0,-896.97265625,-1000.0,-385.25390625,0.0,0,0
1772203553.6664052,1772203553.614048,-1000.0,-1000.0,-1000.0,-575.1953125,0.0,0,0
1772203553.66644,1772203553.617944,96.19140625,-235.3515625,22.94921875,-17.578125,0.0,0,0
1772203553.666476,1772203553.6218398,-767.578125,-888.671875,-778.80859375,489.2578125,0.0,0,0
1772203553.6665118,1772203553.6257358,296.38671875,687.5,369.62890625,312.5,0.0,0,0
1772203553.666556,1772203553.6296315,-966.30859375,-704.1015625,-930.6640625,-319.82421875,0.0,0,0
1772203553.666593,1772203553.6335275,-1000.0,-1000.0,-1000.0,-581.54296875,0.0,0,0
1772203553.710049,1772203553.6375682,-92.7734375,-198.73046875,-155.2734375,-64.453125,0.0,0,0
1772203553.7101882,1772203553.641464,-810.05859375,-954.58984375,-841.796875,453.125,0.0,0,0
1772203553.710231,1772203553.64536,481.4453125,913.57421875,571.77734375,375.48828125,0.0,0,0
1772203553.710271,1772203553.649256,-871.58203125,-384.765625,-804.19921875,-263.671875,0.0,0,0
1772203553.710309,1772203553.6531518,-1000.0,-1000.0,-1000.0,-612.3046875,0.0,0,0
1772203553.710359,1772203553.6570477,-227.5390625,-173.33984375,-213.8671875,-155.76171875,0.0,0,0
1772203553.710397,1772203553.6609437,-902.83203125,-998.046875,-928.22265625,397.4609375,0.0,0,0
1772203553.710434,1772203553.6648395,732.421875,-963.37890625,824.70703125,440.91796875,0.0,0,0
1772203553.7104719,1772203553.6687355,-644.04296875,-84.47265625,-516.6015625,-183.10546875,0.0,0,0
1772203553.7105181,1772203553.6726315,-1000.0,-1000.0,-1000.0,-612.79296875,0.0,0,0
1772203553.710562,1772203553.6765273,-191.40625,-358.3984375,-180.6640625,-232.91015625,0.0,0,0
1772203553.710624,1772203553.6804233,-969.7265625,918.45703125,-987.79296875,336.42578125,0.0,0,0
1772203553.7556212,1772203553.6844566,958.0078125,-902.34375,-988.76953125,490.234375,0.0,0,0
1772203553.755729,1772203553.6883526,-302.24609375,112.3046875,-176.26953125,-96.6796875,0.0,0,0
1772203553.7557719,1772203553.6922483,-1000.0,-1000.0,-1000.0,-613.28125,0.0,0,0
1772203553.7558122,1772203553.6961443,-180.6640625,-550.78125,-257.8125,-314.94140625,0.0,0,0
1772203553.755849,1772203553.7000403,996.58203125,824.21875,964.84375,290.0390625,0.0,0,0
1772203553.755887,1772203553.7039363,-955.078125,-860.3515625,-930.6640625,523.92578125,0.0,0,0
1772203553.755925,1772203553.7078323,-48.828125,186.5234375,27.83203125,-5.859375,0.0,0,0
1772203553.755967,1772203553.711728,-1000.0,-1000.0,-1000.0,-544.921875,0.0,0,0
1772203553.756002,1772203553.715624,-369.140625,-833.984375,-452.63671875,-362.3046875,0.0,0,0
1772203553.756048,1772203553.71952,914.0625,522.4609375,873.046875,259.765625,0.0,0,0
1772203553.756084,1772203553.723416,-900.390625,-802.734375,-880.37109375,568.359375,0.0,0,0
1772203553.756119,1772203553.7273118,133.7890625,152.34375,183.59375,78.61328125,0.0,0,0
1772203553.802093,1772203553.7313333,-1000.0,-1000.0,-1000.0,-508.30078125,0.0,0,0
1772203553.802271,1772203553.7352293,-568.359375,-1000.0,-673.828125,-445.3125,0.0,0,0
1772203553.8023329,1772203553.739125,815.91796875,200.68359375,715.33203125,171.38671875,0.0,0,0
1772203553.802388,1772203553.743021,-858.3984375,-766.6015625,-836.9140625,546.875,0.0,0,0
1772203553.802439,1772203553.746917,184.08203125,210.9375,171.38671875,142.578125,0.0,0,0
1772203553.802492,1772203553.750813,-1000.0,-1000.0,-1000.0,-441.40625,0.0,0,0
1772203553.802559,1772203553.754709,-845.21484375,-1000.0,-921.38671875,-503.90625,0.0,0,0
1772203553.80261,1772203553.758605,507.8125,-32.71484375,387.6953125,77.63671875,0.0,0,0
1772203553.8026712,1772203553.7625008,-800.29296875,-787.59765625,-784.66796875,533.69140625,0.0,0,0
1772203553.802741,1772203553.7663968,148.92578125,395.5078125,151.3671875,223.6328125,0.0,0,0
1772203553.802798,1772203553.7702928,-1000.0,-917.48046875,-1000.0,-391.11328125,0.0,0,0
1772203553.802845,1772203553.7741888,-1000.0,-1000.0,-1000.0,-539.55078125,0.0,0,0
1772203553.845464,1772203553.778201,160.64453125,-205.56640625,84.47265625,15.625,0.0,0,0
1772203553.84556,1772203553.782097,-764.16015625,-863.28125,-768.5546875,495.60546875,0.0,0,0
1772203553.845602,1772203553.785993,236.81640625,618.1640625,307.12890625,288.57421875,0.0,0,0
1772203553.845641,1772203553.789889,-994.140625,-770.99609375,-961.9140625,-345.21484375,0.0,0,0
1772203553.845679,1772203553.793785,-1000.0,-1000.0,-1000.0,-596.19140625,0.0,0,0
1772203553.845717,1772203553.797681,-44.921875,-207.03125,-100.09765625,-76.171875,0.0,0,0
1772203553.8457532,1772203553.8015769,-792.96875,-940.4296875,-812.98828125,443.359375,0.0,0,0
1772203553.845802,1772203553.8054729,422.8515625,866.69921875,496.09375,350.09765625,0.0,0,0
1772203553.845839,1772203553.8093688,-901.85546875,-457.03125,-864.74609375,-287.109375,0.0,0,0
1772203553.845879,1772203553.8132648,-1000.0,-1000.0,-1000.0,-610.83984375,0.0,0,0
1772203553.8459342,1772203553.8171608,-221.6796875,-177.734375,-217.7734375,-139.6484375,0.0,0,0
1772203553.845969,1772203553.8210568,-882.32421875,-992.1875,-909.66796875,390.13671875,0.0,0,0
1772203553.890786,1772203553.8250563,670.8984375,-975.09765625,765.625,403.80859375,0.0,0,0
1772203553.890916,1772203553.8289523,-717.7734375,-139.6484375,-600.09765625,-209.47265625,0.0,0,0
1772203553.890975,1772203553.8328483,-1000.0,-1000.0,-1000.0,-615.234375,0.0,0,0
1772203553.891026,1772203553.8367443,-200.1953125,-309.08203125,-187.01171875,-225.5859375,0.0,0,0
1772203553.891078,1772203553.8406403,-954.1015625,940.4296875,-976.5625,340.33203125,0.0,0,0
1772203553.891128,1772203553.8445363,908.69140625,-915.52734375,980.46875,471.6796875,0.0,0,0
1772203553.891179,1772203553.8484323,-391.6015625,71.2890625,-255.859375,-126.46484375,0.0,0,0
1772203553.891232,1772203553.8523283,-1000.0,-1000.0,-1000.0,-625.48828125,0.0,0,0
1772203553.8912792,1772203553.8562243,-174.31640625,-505.37109375,-217.28515625,-316.89453125,0.0,0,0
1772203553.89133,1772203553.8601203,-997.55859375,846.6796875,982.421875,304.19921875,0.0,0,0
1772203553.8913789,1772203553.8640163,-964.84375,-869.140625,-943.84765625,515.13671875,0.0,0,0
1772203553.8914292,1772203553.8679123,-93.75,198.2421875,-21.97265625,-53.7109375,0.0,0,0
1772203553.968608,1772203553.872065,-1000.0,-1000.0,-1000.0,-579.58984375,0.0,0,0
1772203553.968777,1772203553.875961,-332.51953125,-741.69921875,-398.4375,-377.44140625,0.0,0,0
1772203553.968835,1772203553.879857,929.6875,643.06640625,897.94921875,237.3046875,0.0,0,0
1772203553.968888,1772203553.8837533,-908.69140625,-823.73046875,-890.625,521.484375,0.0,0,0
1772203553.96894,1772203553.8876493,102.05078125,164.55078125,167.48046875,35.64453125,0.0,0,0
1772203553.968991,1772203553.8915453,-1000.0,-1000.0,-1000.0,-516.11328125,0.0,0,0
1772203553.9690409,1772203553.8954413,-530.2734375,-957.03125,-615.72265625,-440.91796875,0.0,0,0
1772203553.969374,1772203553.8993373,834.9609375,334.9609375,769.04296875,179.6875,0.0,0,0
1772203553.969429,1772203553.9032333,-865.72265625,-777.83203125,-849.12109375,545.8984375,0.0,0,0
1772203553.969483,1772203553.9071293,191.89453125,140.13671875,179.6875,123.046875,0.0,0,0
1772203553.969546,1772203553.9110253,-1000.0,-1000.0,-1000.0,-454.1015625,0.0,0,0
1772203553.969592,1772203553.9149215,-788.57421875,-1000.0,-868.1640625,-485.83984375,0.0,0,0
1772203553.980146,1772203553.9189038,581.0546875,37.109375,468.26171875,112.79296875,0.0,0,0
1772203553.980222,1772203553.9228,-813.4765625,-771.484375,-795.8984375,544.43359375,0.0,0,0
1772203553.9802592,1772203553.926696,156.73828125,335.44921875,148.4375,207.03125,0.0,0,0
1772203553.980296,1772203553.930592,-1000.0,-947.265625,-1000.0,-399.4140625,0.0,0,0
1772203553.980334,1772203553.934488,-997.0703125,-1000.0,-1000.0,-528.80859375,0.0,0,0
1772203553.9803689,1772203553.938384,250.48828125,-149.4140625,144.53125,50.78125,0.0,0,0
1772203553.980404,1772203553.9422803,-771.484375,-827.1484375,-767.578125,527.83203125,0.0,0,0
1772203553.9804401,1772203553.9461763,199.21875,533.203125,267.08984375,282.2265625,0.0,0,0
1772203553.980475,1772203553.9500723,-1000.0,-847.65625,-979.98046875,-339.35546875,0.0,0,0
1772203553.980512,1772203553.9539683,-1000.0,-1000.0,-1000.0,-550.29296875,0.0,0,0
1772203553.980545,1772203553.9578643,6.34765625,-218.26171875,-62.98828125,-24.90234375,0.0,0,0
1772203553.980581,1772203553.9617605,-782.2265625,-920.8984375,-800.78125,480.95703125,0.0,0,0
1772203554.040603,1772203553.9657297,385.7421875,799.8046875,454.1015625,365.234375,0.0,0,0
1772203554.040776,1772203553.9696257,-921.875,-557.12890625,-886.71875,-271.484375,0.0,0,0
1772203554.040833,1772203553.9735217,-1000.0,-1000.0,-1000.0,-578.61328125,0.0,0,0
1772203554.0408802,1772203553.9774177,-167.48046875,-180.6640625,-207.03125,-104.00390625,0.0,0,0
1772203554.040919,1772203553.981314,-851.07421875,-989.2578125,-890.625,424.31640625,0.0,0,0
1772203554.040957,1772203553.98521,602.5390625,-982.91015625,710.9375,420.41015625,0.0,0,0
1772203554.040998,1772203553.989106,-777.83203125,-178.7109375,-663.0859375,-200.1953125,0.0,0,0
1772203554.041035,1772203553.993002,-1000.0,-1000.0,-1000.0,-603.02734375,0.0,0,0
1772203554.0410712,1772203553.9968982,-208.984375,-270.5078125,-195.3125,-199.21875,0.0,0,0
1772203554.041107,1772203554.0007942,-938.96484375,962.890625,-961.9140625,366.2109375,0.0,0,0
1772203554.041164,1772203554.0046902,857.91015625,-931.15234375,934.5703125,455.078125,0.0,0,0
1772203554.0412002,1772203554.0085862,-469.7265625,4.8828125,-340.33203125,-153.80859375,0.0,0,0
1772203554.08546,1772203554.0126202,-1000.0,-1000.0,-1000.0,-604.98046875,0.0,0,0
1772203554.08562,1772203554.0165162,-178.7109375,-445.80078125,-187.5,-261.23046875,0.0,0,0
1772203554.085676,1772203554.0204122,-991.69921875,873.53515625,997.0703125,312.98828125,0.0,0,0
1772203554.08573,1772203554.0243084,-977.05078125,-879.8828125,-957.51953125,500.0,0.0,0,0
1772203554.085788,1772203554.0282044,-152.34375,192.3828125,-68.359375,-51.26953125,0.0,0,0
1772203554.085833,1772203554.0321004,-1000.0,-1000.0,-1000.0,-578.125,0.0,0,0
1772203554.085869,1772203554.0359967,-272.94921875,-689.453125,-352.5390625,-364.2578125,0.0,0,0
1772203554.085906,1772203554.0398927,958.49609375,701.66015625,921.38671875,249.51171875,0.0,0,0
1772203554.085943,1772203554.0437887,-926.26953125,-833.984375,-903.3203125,532.2265625,0.0,0,0
1772203554.08598,1772203554.047685,43.9453125,169.43359375,121.58203125,31.25,0.0,0,0
1772203554.086016,1772203554.051581,-1000.0,-1000.0,-1000.0,-515.13671875,0.0,0,0
1772203554.086049,1772203554.055477,-467.7734375,-929.19921875,-548.33984375,-403.80859375,0.0,0,0
1772203554.129465,1772203554.0595014,865.234375,377.9296875,822.75390625,217.28515625,0.0,0,0
1772203554.129605,1772203554.0633974,-876.953125,-783.69140625,-862.3046875,571.2890625,0.0,0,0
1772203554.1296482,1772203554.0672936,202.1484375,143.5546875,190.4296875,117.67578125,0.0,0,0
1772203554.1296902,1772203554.0711896,-1000.0,-1000.0,-1000.0,-479.4921875,0.0,0,0
1772203554.129726,1772203554.0750859,-719.7265625,-1000.0,-798.33984375,-479.98046875,0.0,0,0
1772203554.129765,1772203554.0789819,671.38671875,87.40234375,568.84765625,142.08984375,0.0,0,0
1772203554.129803,1772203554.0828779,-828.61328125,-767.578125,-809.5703125,552.24609375,0.0,0,0
1772203554.129843,1772203554.086774,165.0390625,301.26953125,154.296875,169.43359375,0.0,0,0
1772203554.12988,1772203554.09067,-1000.0,-961.42578125,-1000.0,-426.7578125,0.0,0,0
1772203554.129933,1772203554.0945663,-953.61328125,-1000.0,-1000.0,-545.41015625,0.0,0,0
1772203554.129992,1772203554.0984623,339.84375,-122.55859375,212.890625,10.25390625,0.0,0,0
1772203554.130031,1772203554.1023583,-779.296875,-815.91796875,-768.06640625,485.3515625,0.0,0,0
1772203554.174023,1772203554.1063719,140.625,491.2109375,213.8671875,223.6328125,0.0,0,0
1772203554.174142,1772203554.110268,-1000.0,-870.60546875,-1000.0,-408.203125,0.0,0,0
1772203554.174183,1772203554.114164,-1000.0,-1000.0,-1000.0,-603.02734375,0.0,0,0
1772203554.174219,1772203554.1180604,50.29296875,-223.6328125,-14.6484375,-70.3125,0.0,0,0
1772203554.1742568,1772203554.1219563,-771.484375,-913.0859375,-786.1328125,422.36328125,0.0,0,0
1772203554.174295,1772203554.1258526,334.47265625,773.92578125,406.73828125,284.66796875,0.0,0,0
1772203554.1743329,1772203554.1297486,-948.2421875,-590.8203125,-910.64453125,-340.8203125,0.0,0,0
1772203554.1743722,1772203554.1336448,-1000.0,-1000.0,-1000.0,-626.953125,0.0,0,0
1772203554.1744058,1772203554.1375408,-135.25390625,-187.5,-191.40625,-137.6953125,0.0,0,0
1772203554.174442,1772203554.141437,-824.21875,-975.09765625,-863.76953125,394.53125,0.0,0,0
1772203554.17448,1772203554.145333,522.4609375,976.5625,630.37109375,379.39453125,0.0,0,0
1772203554.1745338,1772203554.1492293,-852.05078125,-261.71875,-754.39453125,-247.0703125,0.0,0,0
1772203554.2202492,1772203554.153232,-1000.0,-1000.0,-1000.0,-620.60546875,0.0,0,0
1772203554.220371,1772203554.1571283,-219.23828125,-223.6328125,-205.078125,-188.96484375,0.0,0,0
1772203554.220429,1772203554.1610243,-921.38671875,980.95703125,-944.82421875,359.375,0.0,0,0
1772203554.220483,1772203554.1649206,797.36328125,-943.84765625,880.859375,445.80078125,0.0,0,0
1772203554.220535,1772203554.1688166,-559.5703125,-30.76171875,-435.05859375,-161.62109375,0.0,0,0
1772203554.220593,1772203554.1727128,-1000.0,-1000.0,-1000.0,-616.69921875,0.0,0,0
1772203554.220639,1772203554.1766088,-183.10546875,-376.46484375,-176.26953125,-252.9296875,0.0,0,0
1772203554.220691,1772203554.180505,-985.3515625,913.57421875,-994.62890625,323.2421875,0.0,0,0
1772203554.220746,1772203554.184401,-997.55859375,-898.4375,-969.23828125,488.76953125,0.0,0,0
1772203554.2208269,1772203554.1882973,-208.49609375,130.859375,-118.65234375,-79.58984375,0.0,0,0
1772203554.220889,1772203554.1921933,-1000.0,-1000.0,-1000.0,-588.8671875,0.0,0,0
1772203554.2209358,1772203554.1960895,-242.1875,-627.9296875,-308.59375,-329.1015625,0.0,0,0
1772203554.264129,1772203554.200083,971.19140625,751.953125,940.91796875,284.66796875,0.0,0,0
1772203554.264251,1772203554.2039793,-936.5234375,-844.23828125,-915.0390625,526.3671875,0.0,0,0
1772203554.2643049,1772203554.2078753,4.8828125,177.24609375,76.171875,-4.39453125,0.0,0,0
1772203554.2643552,1772203554.2117715,-1000.0,-1000.0,-1000.0,-543.9453125,0.0,0,0
1772203554.2644029,1772203554.2156675,-436.5234375,-882.32421875,-506.34765625,-412.109375,0.0,0,0
1772203554.264454,1772203554.2195637,879.39453125,450.1953125,846.19140625,200.1953125,0.0,0,0
1772203554.2645051,1772203554.22346,-883.7890625,-792.48046875,-869.62890625,531.73828125,0.0,0,0
1772203554.264555,1772203554.227356,180.6640625,146.484375,189.94140625,75.1953125,0.0,0,0
1772203554.264605,1772203554.2312522,-1000.0,-1000.0,-1000.0,-495.1171875,0.0,0,0
1772203554.264651,1772203554.2351482,-660.15625,-1000.0,-751.46484375,-471.6796875,0.0,0,0
1772203554.264708,1772203554.2390444,729.4921875,127.9296875,625.0,138.671875,0.0,0,0
1772203554.264756,1772203554.2429407,-841.30859375,-763.18359375,-820.80078125,533.69140625,0.0,0,0
1772203554.3094962,1772203554.246926,173.828125,240.72265625,161.62109375,147.94921875,0.0,0,0
1772203554.309685,1772203554.250822,-1000.0,-993.1640625,-1000.0,-437.98828125,0.0,0,0
1772203554.3097348,1772203554.2547183,-901.3671875,-1000.0,-970.703125,-522.94921875,0.0,0,0
1772203554.3097758,1772203554.2586143,420.8984375,-55.6640625,295.41015625,74.70703125,0.0,0,0
1772203554.309814,1772203554.2625105,-789.55078125,-798.33984375,-775.390625,539.0625,0.0,0,0
1772203554.309851,1772203554.2664068,144.04296875,466.796875,189.94140625,238.76953125,0.0,0,0
1772203554.309889,1772203554.2703028,-1000.0,-875.0,-1000.0,-367.67578125,0.0,0,0
1772203554.309925,1772203554.274199,-1000.0,-1000.0,-1000.0,-533.69140625,0.0,0,0
1772203554.309959,1772203554.2780952,94.7265625,-232.91015625,21.97265625,4.8828125,0.0,0,0
1772203554.309997,1772203554.2819912,-767.578125,-888.18359375,-778.80859375,501.46484375,0.0,0,0
1772203554.310045,1772203554.2858875,291.9921875,681.640625,362.3046875,323.2421875,0.0,0,0
1772203554.310082,1772203554.2897837,-968.26171875,-709.9609375,-934.08203125,-313.96484375,0.0,0,0
1772203554.3569138,1772203554.2937627,-1000.0,-1000.0,-1000.0,-569.82421875,0.0,0,0
1772203554.357045,1772203554.297659,-93.75,-197.75390625,-155.2734375,-76.66015625,0.0,0,0
1772203554.357104,1772203554.301555,-810.05859375,-958.0078125,-842.7734375,430.17578125,0.0,0,0
1772203554.357158,1772203554.3054512,482.91015625,924.8046875,577.1484375,378.41796875,0.0,0,0
1772203554.3572102,1772203554.3093474,-870.60546875,-367.1875,-798.828125,-247.0703125,0.0,0,0
1772203554.357263,1772203554.3132436,-1000.0,-1000.0,-1000.0,-602.5390625,0.0,0,0
1772203554.357311,1772203554.3171396,-227.05078125,-172.8515625,-212.40234375,-153.3203125,0.0,0,0
1772203554.3573608,1772203554.3210359,-905.2734375,-999.0234375,-931.15234375,390.13671875,0.0,0,0
1772203554.357412,1772203554.324932,741.2109375,-960.44921875,833.49609375,447.75390625,0.0,0,0
1772203554.3574631,1772203554.328828,-632.8125,-73.2421875,-503.90625,-145.99609375,0.0,0,0
1772203554.357514,1772203554.3327243,-1000.0,-1000.0,-1000.0,-593.26171875,0.0,0,0
1772203554.357568,1772203554.3366206,-191.89453125,-367.1875,-181.15234375,-221.6796875,0.0,0,0
1772203554.414906,1772203554.3405886,-969.23828125,914.55078125,-986.328125,368.1640625,0.0,0,0
1772203554.415043,1772203554.3444846,956.54296875,-900.390625,-991.2109375,509.765625,0.0,0,0
1772203554.415096,1772203554.3483808,-304.6875,117.67578125,-181.640625,-69.3359375,0.0,0,0
1772203554.415154,1772203554.352277,-1000.0,-1000.0,-1000.0,-574.21875,0.0,0,0
1772203554.4152,1772203554.3561733,-184.5703125,-565.91796875,-261.23046875,-302.734375,0.0,0,0
1772203554.4152498,1772203554.3600693,995.1171875,815.4296875,963.37890625,297.36328125,0.0,0,0
1772203554.4153001,1772203554.3639655,-954.1015625,-857.421875,-929.6875,526.85546875,0.0,0,0
1772203554.415349,1772203554.3678617,-48.33984375,185.05859375,27.83203125,-17.08984375,0.0,0,0
1772203554.4153988,1772203554.371758,-1000.0,-1000.0,-1000.0,-567.87109375,0.0,0,0
1772203554.415458,1772203554.375654,-369.140625,-835.44921875,-451.171875,-404.78515625,0.0,0,0
1772203554.415508,1772203554.3795502,914.0625,520.5078125,873.53515625,202.63671875,0.0,0,0
1772203554.415563,1772203554.3834465,-899.90234375,-801.7578125,-880.37109375,516.11328125,0.0,0,0
1772203554.460511,1772203554.387483,135.7421875,149.4140625,184.5703125,44.921875,0.0,0,0
1772203554.46064,1772203554.3913789,-1000.0,-1000.0,-1000.0,-525.87890625,0.0,0,0
1772203554.460694,1772203554.395275,-568.84765625,-1000.0,-690.91796875,-464.35546875,0.0,0,0
1772203554.460746,1772203554.3991714,816.40625,161.1328125,694.82421875,151.3671875,0.0,0,0
1772203554.4607968,1772203554.4030676,-858.88671875,-763.18359375,-833.984375,530.2734375,0.0,0,0
1772203554.460851,1772203554.4069638,184.5703125,237.79296875,170.41015625,131.34765625,0.0,0,0
1772203554.460902,1772203554.41086,-1000.0,-994.62890625,-1000.0,-468.75,0.0,0,0
1772203554.46095,1772203554.4147563,-835.9375,-1000.0,-920.41015625,-542.96875,0.0,0,0
1772203554.460999,1772203554.4186523,519.53125,-39.55078125,388.671875,50.78125,0.0,0,0
1772203554.4610481,1772203554.4225485,-802.24609375,-790.52734375,-784.66796875,493.1640625,0.0,0,0
1772203554.461099,1772203554.4264448,148.4375,413.0859375,154.296875,178.22265625,0.0,0,0
1772203554.4611478,1772203554.430341,-1000.0,-908.203125,-1000.0,-413.57421875,0.0,0,0
1772203554.506888,1772203554.434368,-1000.0,-1000.0,-1000.0,-561.03515625,0.0,0,0
1772203554.507016,1772203554.4382641,158.69140625,-211.9140625,81.54296875,-27.83203125,0.0,0,0
1772203554.50707,1772203554.4421604,-764.16015625,-878.90625,-769.53125,445.80078125,0.0,0,0
1772203554.507123,1772203554.4460566,236.81640625,672.36328125,320.80078125,250.48828125,0.0,0,0
1772203554.5071738,1772203554.4499526,-994.62890625,-714.35546875,-955.078125,-394.53125,0.0,0,0
1772203554.507227,1772203554.4538488,-1000.0,-1000.0,-1000.0,-651.85546875,0.0,0,0
1772203554.507276,1772203554.457745,-42.96875,-203.61328125,-103.02734375,-126.46484375,0.0,0,0
1772203554.507326,1772203554.4616413,-792.48046875,-942.87109375,-813.96484375,397.4609375,0.0,0,0
1772203554.5073862,1772203554.4655375,426.26953125,875.48828125,495.60546875,311.03515625,0.0,0,0
1772203554.507437,1772203554.4694338,-900.390625,-443.84765625,-865.234375,-329.58984375,0.0,0,0
1772203554.507487,1772203554.47333,-1000.0,-1000.0,-1000.0,-654.296875,0.0,0,0
1772203554.507541,1772203554.4772263,-220.21484375,-176.26953125,-218.26171875,-190.4296875,0.0,0,0
1772203554.5646772,1772203554.4813201,-881.8359375,-994.62890625,-909.1796875,341.30859375,0.0,0,0
1772203554.564793,1772203554.4852164,671.38671875,-970.21484375,763.18359375,383.7890625,0.0,0,0
1772203554.564836,1772203554.4891126,-717.28515625,-119.140625,-603.515625,-224.12109375,0.0,0,0
1772203554.5648751,1772203554.4930089,-1000.0,-1000.0,-1000.0,-646.484375,0.0,0,0
1772203554.5649102,1772203554.496905,-199.70703125,-323.2421875,-187.01171875,-241.69921875,0.0,0,0
1772203554.564948,1772203554.5008013,-955.078125,935.546875,-977.05078125,339.35546875,0.0,0,0
1772203554.5649862,1772203554.5046976,912.59765625,-912.59765625,981.4453125,464.84375,0.0,0,0
1772203554.565023,1772203554.5085938,-385.25390625,76.66015625,-253.41796875,-113.76953125,0.0,0,0
1772203554.5650592,1772203554.51249,-1000.0,-1000.0,-1000.0,-584.9609375,0.0,0,0
1772203554.565093,1772203554.5163865,-174.31640625,-520.5078125,-219.7265625,-285.64453125,0.0,0,0
1772203554.565129,1772203554.5202827,-997.55859375,837.890625,981.4453125,308.59375,0.0,0,0
1772203554.5651681,1772203554.524179,-964.84375,-865.72265625,-942.87109375,533.203125,0.0,0,0
1772203554.607736,1772203554.5281913,-92.28515625,193.359375,-19.04296875,2.9296875,0.0,0,0
1772203554.607881,1772203554.5320876,-1000.0,-1000.0,-1000.0,-516.11328125,0.0,0,0
1772203554.607935,1772203554.5359838,-337.890625,-782.2265625,-403.80859375,-327.63671875,0.0,0,0
1772203554.607987,1772203554.53988,927.24609375,589.84375,895.01953125,283.69140625,0.0,0,0
1772203554.608038,1772203554.5437763,-908.203125,-813.4765625,-890.13671875,582.03125,0.0,0,0
1772203554.6080918,1772203554.5476725,100.5859375,156.73828125,167.96875,90.33203125,0.0,0,0
1772203554.608153,1772203554.5515687,-1000.0,-1000.0,-1000.0,-474.609375,0.0,0,0
1772203554.6081998,1772203554.5554652,-532.2265625,-1000.0,-626.46484375,-393.06640625,0.0,0,0
1772203554.6082492,1772203554.5593615,833.49609375,240.72265625,759.27734375,238.76953125,0.0,0,0
1772203554.608299,1772203554.5632577,-865.234375,-770.5078125,-847.16796875,615.234375,0.0,0,0
1772203554.608358,1772203554.567154,191.40625,170.8984375,178.7109375,186.03515625,0.0,0,0
1772203554.608418,1772203554.5710502,-1000.0,-1000.0,-1000.0,-411.62109375,0.0,0,0
1772203554.64,1772203554.5750396,-791.015625,-1000.0,-872.55859375,-434.5703125,0.0,0,0
1772203554.640102,1772203554.578936,578.125,5.37109375,461.42578125,156.73828125,0.0,0,0
1772203554.64016,1772203554.5828323,-812.98828125,-778.3203125,-795.41015625,568.84765625,0.0,0,0
1772203554.6402152,1772203554.5867286,156.73828125,351.5625,148.4375,244.62890625,0.0,0,0
1772203554.640509,1772203554.5906248,-1000.0,-942.87109375,-1000.0,-360.83984375,0.0,0,0
1772203554.640564,1772203554.594521,-997.55859375,-1000.0,-1000.0,-498.53515625,0.0,0,0
1772203554.6406121,1772203554.5984173,248.046875,-149.4140625,148.4375,70.80078125,0.0,0,0
1772203554.640664,1772203554.6023138,-771.484375,-827.63671875,-768.06640625,541.50390625,0.0,0,0
1772203554.640714,1772203554.60621,201.66015625,533.69140625,269.04296875,300.78125,0.0,0,0
1772203554.6407628,1772203554.6101062,-1000.0,-848.14453125,-979.4921875,-329.58984375,0.0,0,0
1772203554.640812,1772203554.6140025,-1000.0,-1000.0,-1000.0,-548.828125,0.0,0,0
1772203554.6408582,1772203554.6178987,5.859375,-216.796875,-60.05859375,-31.25,0.0,0,0
1772203554.683957,1772203554.6218808,-782.71484375,-924.8046875,-800.78125,472.65625,0.0,0,0
1772203554.6840582,1772203554.6257772,387.20703125,812.5,457.03125,369.140625,0.0,0,0
1772203554.6841002,1772203554.6296735,-920.41015625,-540.52734375,-883.7890625,-260.7421875,0.0,0,0
1772203554.6841412,1772203554.6335697,-1000.0,-1000.0,-1000.0,-572.265625,0.0,0,0
1772203554.684177,1772203554.637466,-173.828125,-179.19921875,-209.9609375,-92.28515625,0.0,0,0
1772203554.684214,1772203554.6413624,-852.5390625,-991.69921875,-891.6015625,445.3125,0.0,0,0
1772203554.68425,1772203554.6452587,602.05078125,-978.515625,709.9609375,460.9375,0.0,0,0
1772203554.684287,1772203554.649155,-779.78515625,-161.62109375,-665.0390625,-179.19921875,0.0,0,0
1772203554.684324,1772203554.6530511,-1000.0,-1000.0,-1000.0,-596.6796875,0.0,0,0
1772203554.684358,1772203554.6569474,-208.0078125,-270.5078125,-194.82421875,-177.734375,0.0,0,0
1772203554.684394,1772203554.6608438,-940.4296875,961.9140625,-962.890625,374.0234375,0.0,0,0
1772203554.6844301,1772203554.66474,862.3046875,-928.22265625,938.4765625,463.8671875,0.0,0,0
1772203554.774036,1772203554.6687222,-462.40234375,23.4375,-333.49609375,-140.13671875,0.0,0,0
1772203554.7742012,1772203554.6726184,-1000.0,-1000.0,-1000.0,-614.74609375,0.0,0,0
1772203554.774289,1772203554.6765149,-178.22265625,-465.33203125,-192.3828125,-285.64453125,0.0,0,0
1772203554.774356,1772203554.680411,-992.1875,864.2578125,995.1171875,308.10546875,0.0,0,0
1772203554.7743979,1772203554.6843073,-975.09765625,-875.48828125,-956.54296875,501.953125,0.0,0,0
1772203554.7744372,1772203554.6882036,-145.5078125,202.63671875,-65.4296875,-49.31640625,0.0,0,0
1772203554.774475,1772203554.6921,-1000.0,-1000.0,-1000.0,-584.47265625,0.0,0,0
1772203554.7745101,1772203554.6959963,-274.4140625,-719.7265625,-357.421875,-366.2109375,0.0,0,0
1772203554.774548,1772203554.6998925,958.0078125,671.875,918.9453125,261.71875,0.0,0,0
1772203554.7746282,1772203554.7037888,-925.29296875,-828.125,-902.83203125,527.83203125,0.0,0,0
1772203554.774691,1772203554.7076852,45.8984375,165.0390625,121.09375,13.18359375,0.0,0,0
1772203554.774732,1772203554.7115815,-1000.0,-1000.0,-1000.0,-535.64453125,0.0,0,0
1772203554.7759519,1772203554.7155597,-468.26171875,-957.51953125,-560.05859375,-422.36328125,0.0,0,0
1772203554.7760031,1772203554.7194562,865.234375,334.9609375,812.01171875,207.03125,0.0,0,0
1772203554.776035,1772203554.7233524,-876.953125,-778.3203125,-859.86328125,561.5234375,0.0,0,0
1772203554.776066,1772203554.7272487,202.1484375,142.578125,189.453125,126.953125,0.0,0,0
1772203554.7761269,1772203554.731145,-1000.0,-1000.0,-1000.0,-455.56640625,0.0,0,0
1772203554.776159,1772203554.7350414,-719.7265625,-1000.0,-803.22265625,-466.796875,0.0,0,0
1772203554.776188,1772203554.7389376,671.38671875,68.84765625,562.01171875,143.5546875,0.0,0,0
1772203554.7762182,1772203554.7428339,-829.1015625,-768.5546875,-809.08203125,560.546875,0.0,0,0
1772203554.776247,1772203554.7467303,165.52734375,309.5703125,153.80859375,196.77734375,0.0,0,0
1772203554.776284,1772203554.7506266,-1000.0,-957.51953125,-1000.0,-413.57421875,0.0,0,0
1772203554.7763112,1772203554.7545228,-948.2421875,-1000.0,-1000.0,-521.484375,0.0,0,0
1772203554.7763379,1772203554.7584193,348.14453125,-137.6953125,211.9140625,64.453125,0.0,0,0
1772203554.8632588,1772203554.7624488,-780.2734375,-821.77734375,-768.06640625,525.87890625,0.0,0,0
1772203554.863422,1772203554.766345,140.625,515.625,220.703125,262.20703125,0.0,0,0
1772203554.863483,1772203554.7702415,-1000.0,-857.421875,-1000.0,-357.421875,0.0,0,0
1772203554.863559,1772203554.7741377,-1000.0,-1000.0,-1000.0,-560.546875,0.0,0,0
1772203554.86362,1772203554.7780342,49.8046875,-221.19140625,-16.11328125,-18.5546875,0.0,0,0
1772203554.8636632,1772203554.7819304,-771.484375,-915.52734375,-787.109375,494.140625,0.0,0,0
1772203554.863704,1772203554.7858267,334.9609375,779.78515625,408.69140625,346.19140625,0.0,0,0
1772203554.863743,1772203554.7897232,-947.75390625,-583.49609375,-910.15625,-288.0859375,0.0,0,0
1772203554.863822,1772203554.7936194,-1000.0,-1000.0,-1000.0,-576.171875,0.0,0,0
1772203554.863863,1772203554.7975159,-136.23046875,-186.5234375,-187.98828125,-87.890625,0.0,0,0
1772203554.8639228,1772203554.801412,-825.1953125,-977.05078125,-863.76953125,444.82421875,0.0,0,0
1772203554.863965,1772203554.8053083,528.80859375,981.93359375,631.8359375,423.828125,0.0,0,0
1772203554.880696,1772203554.8093371,-848.6328125,-249.0234375,-751.953125,-208.49609375,0.0,0,0
1772203554.8807979,1772203554.8132334,-1000.0,-1000.0,-1000.0,-593.75,0.0,0,0
1772203554.880838,1772203554.8171299,-218.26171875,-239.74609375,-204.1015625,-161.62109375,0.0,0,0
1772203554.880877,1772203554.821026,-921.875,971.6796875,-946.2890625,389.16015625,0.0,0,0
1772203554.880914,1772203554.8249226,799.8046875,-937.01171875,885.7421875,451.171875,0.0,0,0
1772203554.8809521,1772203554.8288188,-556.640625,0.0,-427.734375,-168.45703125,0.0,0,0
1772203554.880996,1772203554.8327153,-1000.0,-1000.0,-1000.0,-620.1171875,0.0,0,0
1772203554.8810308,1772203554.8366115,-182.6171875,-442.87109375,-175.78125,-259.27734375,0.0,0,0
1772203554.881067,1772203554.840508,-985.83984375,879.39453125,-994.62890625,326.171875,0.0,0,0
1772203554.881105,1772203554.8444042,-995.1171875,-883.7890625,-968.75,491.2109375,0.0,0,0
1772203554.881142,1772203554.8483007,-203.61328125,153.3203125,-116.69921875,-86.42578125,0.0,0,0
1772203554.881196,1772203554.852197,-1000.0,-1000.0,-1000.0,-590.8203125,0.0,0,0
1772203554.925353,1772203554.8562093,-246.09375,-660.64453125,-309.08203125,-326.171875,0.0,0,0
1772203554.925545,1772203554.8601055,970.21484375,723.6328125,940.91796875,279.78515625,0.0,0,0
1772203554.925619,1772203554.864002,-935.546875,-839.35546875,-914.55078125,527.34375,0.0,0,0
1772203554.925663,1772203554.8678982,4.8828125,177.24609375,77.63671875,-5.859375,0.0,0,0
1772203554.9257019,1772203554.8717947,-1000.0,-1000.0,-1000.0,-554.6875,0.0,0,0
1772203554.925738,1772203554.8756912,-432.6171875,-871.58203125,-497.0703125,-415.52734375,0.0,0,0
1772203554.9257758,1772203554.8795874,881.34765625,467.28515625,851.5625,200.68359375,0.0,0,0
1772203554.925812,1772203554.883484,-884.27734375,-793.9453125,-870.60546875,538.0859375,0.0,0,0
1772203554.9258492,1772203554.8873801,183.59375,144.53125,195.80078125,89.35546875,0.0,0,0
1772203554.925888,1772203554.8912766,-1000.0,-1000.0,-1000.0,-491.2109375,0.0,0,0
1772203554.9259222,1772203554.8951728,-668.45703125,-1000.0,-758.7890625,-498.53515625,0.0,0,0
1772203554.925958,1772203554.8990693,721.19140625,97.65625,617.67578125,116.2109375,0.0,0,0
1772203554.969729,1772203554.9030726,-839.35546875,-766.11328125,-819.3359375,535.15625,0.0,0,0
1772203554.969886,1772203554.906969,172.36328125,276.85546875,161.1328125,147.4609375,0.0,0,0
1772203554.969932,1772203554.9108655,-1000.0,-977.05078125,-1000.0,-442.3828125,0.0,0,0
1772203554.969975,1772203554.9147618,-908.69140625,-1000.0,-975.09765625,-504.39453125,0.0,0,0
1772203554.970013,1772203554.9186583,409.1796875,-78.125,288.57421875,84.47265625,0.0,0,0
1772203554.97005,1772203554.9225545,-788.0859375,-804.6875,-774.90234375,534.66796875,0.0,0,0
1772203554.9700868,1772203554.926451,143.5546875,476.07421875,187.01171875,261.23046875,0.0,0,0
1772203554.970124,1772203554.9303474,-1000.0,-873.046875,-1000.0,-369.62890625,0.0,0,0
1772203554.970168,1772203554.9342437,-1000.0,-1000.0,-1000.0,-567.87109375,0.0,0,0
1772203554.970407,1772203554.9381402,92.28515625,-229.98046875,22.4609375,-16.11328125,0.0,0,0
1772203554.970447,1772203554.9420366,-767.578125,-895.01953125,-778.80859375,494.140625,0.0,0,0
1772203554.970537,1772203554.9459329,297.36328125,708.0078125,367.67578125,329.1015625,0.0,0,0
1772203555.014335,1772203554.9499254,-966.30859375,-677.24609375,-931.15234375,-300.29296875,0.0,0,0
1772203555.014445,1772203554.953822,-1000.0,-1000.0,-1000.0,-577.1484375,0.0,0,0
1772203555.014484,1772203554.9577181,-93.26171875,-194.3359375,-157.2265625,-87.890625,0.0,0,0
1772203555.0145228,1772203554.9616146,-810.546875,-963.8671875,-843.75,433.59375,0.0,0,0
1772203555.014561,1772203554.965511,486.328125,942.87109375,579.1015625,379.39453125,0.0,0,0
1772203555.0145972,1772203554.9694073,-868.65234375,-332.03125,-796.875,-251.46484375,0.0,0,0
1772203555.014636,1772203554.9733038,-1000.0,-1000.0,-1000.0,-600.5859375,0.0,0,0
1772203555.014671,1772203554.9772003,-226.5625,-183.59375,-211.9140625,-138.18359375,0.0,0,0
1772203555.014706,1772203554.9810967,-905.76171875,999.0234375,-931.640625,399.90234375,0.0,0,0
1772203555.014747,1772203554.984993,744.140625,-958.984375,836.42578125,439.453125,0.0,0,0
1772203555.014783,1772203554.9888895,-629.39453125,-73.73046875,-500.0,-177.734375,0.0,0,0
1772203555.0148249,1772203554.992786,-1000.0,-1000.0,-1000.0,-614.2578125,0.0,0,0
1772203555.0753129,1772203554.9968445,-190.4296875,-367.1875,-180.17578125,-229.00390625,0.0,0,0
1772203555.0754602,1772203555.000741,-971.6796875,914.55078125,-987.79296875,338.8671875,0.0,0,0
1772203555.075522,1772203555.0046375,963.37890625,-900.390625,-988.28125,479.98046875,0.0,0,0
1772203555.075577,1772203555.008534,-291.015625,117.67578125,-173.828125,-88.8671875,0.0,0,0
1772203555.075628,1772203555.0124302,-1000.0,-1000.0,-1000.0,-586.42578125,0.0,0,0
1772203555.075677,1772203555.0163267,-190.4296875,-556.15234375,-260.7421875,-305.17578125,0.0,0,0
1772203555.075727,1772203555.0202231,992.67578125,821.77734375,963.37890625,290.0390625,0.0,0,0
1772203555.075779,1772203555.0241196,-952.1484375,-859.375,-929.19921875,508.30078125,0.0,0,0
1772203555.07583,1772203555.028016,-41.50390625,185.05859375,30.76171875,-15.625,0.0,0,0
1772203555.0758982,1772203555.0319123,-1000.0,-1000.0,-1000.0,-548.33984375,0.0,0,0
1772203555.075964,1772203555.0358088,-376.953125,-845.21484375,-456.54296875,-397.4609375,0.0,0,0
1772203555.076013,1772203555.0397053,910.15625,508.30078125,870.60546875,220.21484375,0.0,0,0
1772203555.117985,1772203555.043684,-898.4375,-799.31640625,-878.90625,541.50390625,0.0,0,0
1772203555.1181571,1772203555.0475805,142.578125,147.94921875,185.546875,70.80078125,0.0,0,0
1772203555.118214,1772203555.051477,-1000.0,-1000.0,-1000.0,-488.28125,0.0,0,0
1772203555.1182668,1772203555.0553734,-575.1953125,-1000.0,-696.2890625,-444.3359375,0.0,0,0
1772203555.1183171,1772203555.05927,811.03515625,146.484375,688.96484375,164.55078125,0.0,0,0
1772203555.118368,1772203555.0631661,-857.421875,-762.20703125,-832.51953125,552.24609375,0.0,0,0
1772203555.1184351,1772203555.0670626,183.59375,226.5625,168.9453125,154.78515625,0.0,0,0
1772203555.1185138,1772203555.070959,-1000.0,-998.046875,-1000.0,-435.05859375,0.0,0,0
1772203555.118571,1772203555.0748556,-845.21484375,-1000.0,-933.10546875,-492.1875,0.0,0,0
1772203555.118627,1772203555.078752,507.32421875,-47.8515625,366.2109375,103.515625,0.0,0,0
1772203555.118695,1772203555.0826485,-800.29296875,-791.9921875,-782.71484375,541.50390625,0.0,0,0
1772203555.118764,1772203555.0865448,148.4375,422.8515625,159.66796875,219.23828125,0.0,0,0
1772203555.1640582,1772203555.0905058,-1000.0,-901.85546875,-1000.0,-385.7421875,0.0,0,0
1772203555.1641788,1772203555.0944023,-1000.0,-1000.0,-1000.0,-527.83203125,0.0,0,0
1772203555.1642308,1772203555.0982988,156.73828125,-227.05078125,73.73046875,20.99609375,0.0,0,0
1772203555.164284,1772203555.102195,-763.671875,-880.859375,-770.01953125,498.046875,0.0,0,0
1772203555.164334,1772203555.1060915,236.81640625,664.0625,320.80078125,294.43359375,0.0,0,0
1772203555.164385,1772203555.109988,-994.140625,-727.05078125,-954.1015625,-336.9140625,0.0,0,0
1772203555.164435,1772203555.1138844,-1000.0,-1000.0,-1000.0,-570.80078125,0.0,0,0
1772203555.164482,1772203555.117781,-48.828125,-201.66015625,-114.74609375,-62.5,0.0,0,0
1772203555.164532,1772203555.1216774,-793.9453125,-949.70703125,-818.84765625,439.453125,0.0,0,0
1772203555.1645818,1772203555.1255739,432.12890625,895.99609375,512.6953125,361.328125,0.0,0,0
1772203555.1646411,1772203555.12947,-897.4609375,-411.62109375,-851.07421875,-266.6015625,0.0,0,0
1772203555.1646998,1772203555.1333666,-1000.0,-1000.0,-1000.0,-589.35546875,0.0,0,0
1772203555.210044,1772203555.1373954,-223.14453125,-175.29296875,-222.16796875,-126.953125,0.0,0,0
1772203555.210167,1772203555.1412919,-886.23046875,-995.60546875,-914.0625,395.99609375,0.0,0,0
1772203555.210233,1772203555.1451883,685.05859375,-966.30859375,774.4140625,415.0390625,0.0,0,0
1772203555.210287,1772203555.1490848,-703.125,-106.4453125,-589.84375,-191.89453125,0.0,0,0
1772203555.210337,1772203555.1529813,-1000.0,-1000.0,-1000.0,-591.30859375,0.0,0,0
1772203555.2103848,1772203555.1568775,-199.21875,-313.96484375,-186.5234375,-201.171875,0.0,0,0
1772203555.210436,1772203555.160774,-955.56640625,939.453125,-977.5390625,352.05078125,0.0,0,0
1772203555.2104871,1772203555.1646705,913.57421875,-914.0625,982.91015625,472.16796875,0.0,0,0
1772203555.210537,1772203555.168567,-383.7890625,83.984375,-249.0234375,-98.6328125,0.0,0,0
1772203555.2105868,1772203555.1724634,-1000.0,-1000.0,-1000.0,-562.5,0.0,0,0
1772203555.2106419,1772203555.17636,-173.828125,-539.0625,-228.02734375,-268.06640625,0.0,0,0
1772203555.2106931,1772203555.1802564,-999.0234375,826.66015625,978.02734375,318.359375,0.0,0,0
1772203555.254626,1772203555.184275,-962.890625,-862.3046875,-940.4296875,528.3203125,0.0,0,0
1772203555.254727,1772203555.1881714,-84.47265625,191.89453125,-14.16015625,-7.32421875,0.0,0,0
1772203555.254792,1772203555.1920679,-1000.0,-1000.0,-1000.0,-534.1796875,0.0,0,0
1772203555.254842,1772203555.1959643,-342.7734375,-781.73828125,-406.73828125,-352.05078125,0.0,0,0
1772203555.2548952,1772203555.1998608,925.78125,590.8203125,894.04296875,238.28125,0.0,0,0
1772203555.254955,1772203555.2037573,-906.73828125,-812.98828125,-889.16015625,518.06640625,0.0,0,0
1772203555.255008,1772203555.2076538,104.00390625,154.296875,170.41015625,49.8046875,0.0,0,0
1772203555.2550771,1772203555.2115502,-1000.0,-1000.0,-1000.0,-509.27734375,0.0,0,0
1772203555.255125,1772203555.2154467,-537.109375,-1000.0,-637.6953125,-441.40625,0.0,0,0
1772203555.255179,1772203555.2193432,831.0546875,211.9140625,748.53515625,184.5703125,0.0,0,0
1772203555.25523,1772203555.2232397,-864.2578125,-768.06640625,-844.7265625,545.41015625,0.0,0,0
1772203555.2552881,1772203555.2271361,190.4296875,183.10546875,177.734375,125.9765625,0.0,0,0
1772203555.299204,1772203555.231147,-1000.0,-1000.0,-1000.0,-443.84765625,0.0,0,0
1772203555.2993448,1772203555.2350435,-798.33984375,-1000.0,-876.46484375,-481.4453125,0.0,0,0
1772203555.299407,1772203555.23894,568.359375,2.9296875,456.0546875,103.02734375,0.0,0,0
1772203555.299459,1772203555.2428365,-811.03515625,-779.78515625,-793.9453125,520.01953125,0.0,0,0
1772203555.29951,1772203555.246733,153.80859375,366.69921875,146.484375,188.96484375,0.0,0,0
1772203555.299562,1772203555.2506294,-1000.0,-930.17578125,-1000.0,-407.2265625,0.0,0,0
1772203555.2996109,1772203555.254526,-1000.0,-1000.0,-1000.0,-554.6875,0.0,0,0
1772203555.2996569,1772203555.2584226,216.796875,-192.87109375,120.60546875,3.90625,0.0,0,0
1772203555.299707,1772203555.262319,-769.04296875,-848.14453125,-767.578125,477.5390625,0.0,0,0
1772203555.299756,1772203555.2662156,210.9375,573.73046875,278.80859375,248.046875,0.0,0,0
1772203555.299816,1772203555.270112,-1000.0,-814.94140625,-975.5859375,-357.421875,0.0,0,0
1772203555.299864,1772203555.2740085,-1000.0,-1000.0,-1000.0,-571.2890625,0.0,0,0
1772203555.375359,1772203555.27816,-4.39453125,-214.84375,-71.77734375,-63.4765625,0.0,0,0
1772203555.375542,1772203555.2820566,-784.66796875,-925.78125,-804.19921875,432.6171875,0.0,0,0
1772203555.375746,1772203555.2859533,395.5078125,816.40625,467.28515625,325.1953125,0.0,0,0
1772203555.3757892,1772203555.2898498,-916.015625,-534.1796875,-879.39453125,-301.7578125,0.0,0,0
1772203555.3758268,1772203555.2937462,-1000.0,-1000.0,-1000.0,-626.953125,0.0,0,0
1772203555.375865,1772203555.2976427,-183.59375,-180.17578125,-208.0078125,-163.0859375,0.0,0,0
1772203555.375902,1772203555.3015394,-860.3515625,-989.74609375,-894.04296875,361.81640625,0.0,0,0
1772203555.3759391,1772203555.305436,623.53515625,-981.93359375,719.7265625,363.28125,0.0,0,0
1772203555.3759758,1772203555.3093324,-759.765625,-174.31640625,-653.3203125,-239.2578125,0.0,0,0
1772203555.376013,1772203555.3132288,-1000.0,-1000.0,-1000.0,-627.44140625,0.0,0,0
1772203555.37605,1772203555.3171253,-207.03125,-272.94921875,-193.84765625,-224.609375,0.0,0,0
1772203555.376086,1772203555.321022,-941.40625,959.9609375,-964.35546875,325.1953125,0.0,0,0
1772203555.3895879,1772203555.3250172,867.1875,-927.734375,941.89453125,429.6875,0.0,0,0
1772203555.389676,1772203555.3289137,-455.56640625,23.4375,-325.68359375,-160.15625,0.0,0,0
1772203555.389718,1772203555.3328104,-1000.0,-1000.0,-1000.0,-621.09375,0.0,0,0
1772203555.389754,1772203555.3367069,-177.24609375,-465.33203125,-198.73046875,-292.48046875,0.0,0,0
1772203555.389792,1772203555.3406034,-994.62890625,864.2578125,990.72265625,289.55078125,0.0,0,0
1772203555.389838,1772203555.3445,-972.16796875,-875.48828125,-952.1484375,482.91015625,0.0,0,0
1772203555.389876,1772203555.3483965,-130.37109375,201.66015625,-50.29296875,-62.5,0.0,0,0
1772203555.389913,1772203555.352293,-1000.0,-1000.0,-1000.0,-583.984375,0.0,0,0
1772203555.3899462,1772203555.3561895,-289.0625,-729.98046875,-369.140625,-356.93359375,0.0,0,0
1772203555.389982,1772203555.3600862,952.1484375,658.203125,914.0625,258.30078125,0.0,0,0
1772203555.390018,1772203555.3639827,-922.36328125,-825.68359375,-900.390625,524.4140625,0.0,0,0
1772203555.390054,1772203555.3678792,53.7109375,165.0390625,126.953125,14.16015625,0.0,0,0
1772203555.434535,1772203555.371861,-1000.0,-1000.0,-1000.0,-530.2734375,0.0,0,0
1772203555.4346812,1772203555.3757577,-488.28125,-957.51953125,-579.1015625,-416.015625,0.0,0,0
1772203555.434722,1772203555.3796542,853.515625,334.9609375,794.921875,194.3359375,0.0,0,0
1772203555.434763,1772203555.3835506,-873.046875,-777.83203125,-855.46875,545.41015625,0.0,0,0
1772203555.4348018,1772203555.3874474,200.68359375,141.11328125,186.5234375,106.4453125,0.0,0,0
1772203555.43484,1772203555.3913438,-1000.0,-1000.0,-1000.0,-459.47265625,0.0,0,0
1772203555.434874,1772203555.3952403,-720.21484375,-1000.0,-821.2890625,-466.30859375,0.0,0,0
1772203555.434911,1772203555.399137,670.41015625,54.19921875,536.1328125,124.51171875,0.0,0,0
1772203555.4349482,1772203555.4030335,-828.61328125,-770.01953125,-805.6640625,540.52734375,0.0,0,0
1772203555.434988,1772203555.40693,164.55078125,321.77734375,152.83203125,184.08203125,0.0,0,0
1772203555.4350238,1772203555.4108267,-1000.0,-953.125,-1000.0,-412.59765625,0.0,0,0
1772203555.4350631,1772203555.4147232,-957.03125,-1000.0,-1000.0,-519.04296875,0.0,0,0
1772203555.481934,1772203555.4186993,333.984375,-138.671875,196.77734375,43.45703125,0.0,0,0
1772203555.482065,1772203555.4225957,-778.3203125,-822.75390625,-768.06640625,492.1875,0.0,0,0
1772203555.482118,1772203555.4264922,150.390625,520.01953125,232.91015625,241.69921875,0.0,0,0
1772203555.4821692,1772203555.430389,-1000.0,-854.4921875,-997.0703125,-371.58203125,0.0,0,0
1772203555.482219,1772203555.4342854,-1000.0,-1000.0,-1000.0,-578.125,0.0,0,0
1772203555.482267,1772203555.438182,48.33984375,-220.21484375,-16.6015625,-50.78125,0.0,0,0
1772203555.482317,1772203555.4420786,-771.97265625,-916.50390625,-788.57421875,444.3359375,0.0,0,0
1772203555.482385,1772203555.445975,333.984375,783.69140625,416.015625,305.6640625,0.0,0,0
1772203555.482435,1772203555.4498718,-946.77734375,-578.125,-903.80859375,-320.3125,0.0,0,0
1772203555.482485,1772203555.4537683,-1000.0,-1000.0,-1000.0,-616.69921875,0.0,0,0
1772203555.482532,1772203555.457665,-149.4140625,-185.05859375,-200.68359375,-122.55859375,0.0,0,0
1772203555.482582,1772203555.4615614,-827.63671875,-979.98046875,-869.62890625,407.71484375,0.0,0,0
1772203555.540003,1772203555.4655278,532.71484375,989.2578125,644.04296875,364.74609375,0.0,0,0
1772203555.540183,1772203555.4694245,-848.14453125,-233.88671875,-740.72265625,-264.6484375,0.0,0,0
1772203555.5402381,1772203555.473321,-1000.0,-1000.0,-1000.0,-629.39453125,0.0,0,0
1772203555.540289,1772203555.4772177,-217.28515625,-246.58203125,-202.1484375,-199.21875,0.0,0,0
1772203555.54034,1772203555.4811141,-925.29296875,968.26171875,-950.68359375,348.14453125,0.0,0,0
1772203555.5403929,1772203555.4850109,811.5234375,-933.59375,898.4375,434.08203125,0.0,0,0
1772203555.540444,1772203555.4889073,-540.52734375,10.7421875,-405.76171875,-159.66796875,0.0,0,0
1772203555.5405052,1772203555.4928038,-1000.0,-1000.0,-1000.0,-604.00390625,0.0,0,0
1772203555.540552,1772203555.4967005,-180.6640625,-444.82421875,-175.78125,-244.140625,0.0,0,0
1772203555.5406048,1772203555.500597,-989.74609375,878.41796875,-994.62890625,320.80078125,0.0,0,0
1772203555.540663,1772203555.5044937,-982.91015625,-883.30078125,-967.7734375,482.421875,0.0,0,0
1772203555.5407228,1772203555.5083902,-180.17578125,162.109375,-110.83984375,-77.63671875,0.0,0,0
1772203555.58539,1772203555.5124254,-1000.0,-1000.0,-1000.0,-585.44921875,0.0,0,0
1772203555.58549,1772203555.516322,-253.41796875,-670.8984375,-318.359375,-326.66015625,0.0,0,0
1772203555.585533,1772203555.5202186,967.28515625,714.35546875,937.01171875,273.92578125,0.0,0,0
1772203555.585574,1772203555.524115,-933.10546875,-836.9140625,-912.59765625,524.90234375,0.0,0,0
1772203555.585612,1772203555.5280118,13.671875,171.38671875,83.49609375,24.90234375,0.0,0,0
1772203555.585651,1772203555.5319083,-1000.0,-1000.0,-1000.0,-521.97265625,0.0,0,0
1772203555.585686,1772203555.535805,-447.265625,-918.9453125,-515.625,-395.01953125,0.0,0,0
1772203555.5857239,1772203555.5397015,873.046875,394.04296875,840.8203125,228.02734375,0.0,0,0
1772203555.585761,1772203555.5435982,-880.859375,-785.64453125,-867.1875,562.01171875,0.0,0,0
1772203555.5857978,1772203555.5474946,194.82421875,144.53125,194.82421875,107.91015625,0.0,0,0
1772203555.585855,1772203555.5513914,-1000.0,-1000.0,-1000.0,-476.5625,0.0,0,0
1772203555.5859,1772203555.5552878,-678.22265625,-1000.0,-767.578125,-475.5859375,0.0,0,0
1772203555.630144,1772203555.5593057,713.8671875,100.09765625,606.93359375,133.7890625,0.0,0,0
1772203555.630265,1772203555.5632021,-837.890625,-766.6015625,-817.3828125,536.1328125,0.0,0,0
1772203555.630324,1772203555.5670989,170.8984375,288.57421875,160.15625,166.9921875,0.0,0,0
1772203555.630378,1772203555.5709956,-1000.0,-973.14453125,-1000.0,-418.9453125,0.0,0,0
1772203555.630429,1772203555.574892,-918.9453125,-1000.0,-978.02734375,-516.11328125,0.0,0,0
1772203555.6304781,1772203555.5787888,393.5546875,-67.87109375,283.203125,51.26953125,0.0,0,0
1772203555.630529,1772203555.5826852,-786.1328125,-800.78125,-773.92578125,498.53515625,0.0,0,0
1772203555.630584,1772203555.586582,143.06640625,454.1015625,190.91796875,224.609375,0.0,0,0
1772203555.630634,1772203555.5904787,-1000.0,-885.7421875,-1000.0,-374.51171875,0.0,0,0
1772203555.630681,1772203555.5943751,-1000.0,-1000.0,-1000.0,-551.26953125,0.0,0,0
1772203555.630743,1772203555.5982718,82.51953125,-231.93359375,15.625,-1.953125,0.0,0,0
1772203555.630792,1772203555.6021683,-768.5546875,-894.53125,-780.76171875,491.2109375,0.0,0,0
1772203555.674443,1772203555.60618,310.05859375,707.03125,383.7890625,314.94140625,0.0,0,0
1772203555.6745868,1772203555.6100764,-960.9375,-678.22265625,-924.31640625,-300.78125,0.0,0,0
1772203555.674659,1772203555.6139731,-1000.0,-1000.0,-1000.0,-558.59375,0.0,0,0
1772203555.674709,1772203555.6178699,-100.5859375,-191.40625,-153.80859375,-64.94140625,0.0,0,0
1772203555.674761,1772203555.6217663,-813.96484375,-971.19140625,-848.14453125,438.96484375,0.0,0,0
1772203555.674813,1772203555.625663,498.046875,961.9140625,598.14453125,387.20703125,0.0,0,0
1772203555.675047,1772203555.6295598,-862.3046875,-293.45703125,-777.83203125,-228.02734375,0.0,0,0
1772203555.675102,1772203555.6334562,-1000.0,-1000.0,-1000.0,-581.0546875,0.0,0,0
1772203555.6751502,1772203555.637353,-223.6328125,-200.1953125,-208.984375,-145.99609375,0.0,0,0
1772203555.6752,1772203555.6412494,-912.109375,989.74609375,-937.98828125,380.37109375,0.0,0,0
1772203555.6752489,1772203555.6451461,765.625,-950.1953125,856.93359375,443.359375,0.0,0,0
1772203555.675298,1772203555.6490428,-601.07421875,-41.015625,-470.21484375,-149.4140625,0.0,0,0
1772203555.720316,1772203555.653049,-1000.0,-1000.0,-1000.0,-587.40234375,0.0,0,0
1772203555.720417,1772203555.6569457,-188.96484375,-383.7890625,-179.6875,-217.28515625,0.0,0,0
1772203555.720476,1772203555.6608422,-973.6328125,910.15625,-988.28125,358.88671875,0.0,0,0
1772203555.72053,1772203555.664739,970.21484375,-897.94921875,-984.86328125,498.046875,0.0,0,0
1772203555.72058,1772203555.6686356,-276.85546875,116.69921875,-164.55078125,-74.21875,0.0,0,0
1772203555.7206311,1772203555.672532,-1000.0,-1000.0,-1000.0,-558.59375,0.0,0,0
1772203555.7206771,1772203555.6764288,-200.68359375,-558.59375,-269.53125,-297.8515625,0.0,0,0
1772203555.720727,1772203555.6803255,987.79296875,820.3125,958.49609375,300.78125,0.0,0,0
1772203555.720845,1772203555.6842222,-948.2421875,-858.88671875,-925.78125,543.9453125,0.0,0,0
1772203555.720909,1772203555.6881187,-27.34375,185.05859375,45.8984375,3.90625,0.0,0,0
1772203555.72096,1772203555.6920154,-1000.0,-1000.0,-1000.0,-540.52734375,0.0,0,0
1772203555.721008,1772203555.6959121,-392.578125,-845.21484375,-469.23828125,-377.44140625,0.0,0,0
1772203555.7674508,1772203555.6999104,902.83203125,507.8125,864.74609375,221.19140625,0.0,0,0
1772203555.7676091,1772203555.703807,-895.01953125,-799.8046875,-876.953125,529.296875,0.0,0,0
1772203555.7676742,1772203555.7077038,146.484375,149.4140625,186.03515625,75.68359375,0.0,0,0
1772203555.767728,1772203555.7116003,-1000.0,-1000.0,-1000.0,-483.88671875,0.0,0,0
1772203555.767779,1772203555.715497,-594.23828125,-1000.0,-708.984375,-446.77734375,0.0,0,0
1772203555.767829,1772203555.7193937,791.9921875,167.48046875,674.31640625,152.34375,0.0,0,0
1772203555.76788,1772203555.7232904,-854.00390625,-763.671875,-829.58984375,541.015625,0.0,0,0
1772203555.767933,1772203555.727187,182.12890625,226.07421875,167.48046875,142.578125,0.0,0,0
1772203555.7679832,1772203555.7310836,-1000.0,-996.09375,-1000.0,-442.3828125,0.0,0,0
1772203555.768022,1772203555.7349803,-848.6328125,-1000.0,-940.4296875,-496.58203125,0.0,0,0
1772203555.76807,1772203555.738877,501.953125,-56.640625,352.5390625,96.19140625,0.0,0,0
1772203555.768115,1772203555.7427738,-799.8046875,-792.96875,-781.25,532.71484375,0.0,0,0
1772203555.809674,1772203555.746758,147.4609375,420.41015625,166.015625,205.56640625,0.0,0,0
1772203555.809793,1772203555.7506545,-1000.0,-904.78515625,-1000.0,-388.671875,0.0,0,0
1772203555.809833,1772203555.7545512,-1000.0,-1000.0,-1000.0,-532.71484375,0.0,0,0
1772203555.809872,1772203555.758448,145.01953125,-222.16796875,62.01171875,6.8359375,0.0,0,0
1772203555.80991,1772203555.7623446,-763.18359375,-884.765625,-772.94921875,488.76953125,0.0,0,0
1772203555.8099468,1772203555.7662413,250.9765625,685.05859375,338.8671875,300.29296875,0.0,0,0
1772203555.809984,1772203555.770138,-987.3046875,-703.125,-945.3125,-318.84765625,0.0,0,0
1772203555.8100228,1772203555.7740345,-1000.0,-1000.0,-1000.0,-566.40625,0.0,0,0
1772203555.810057,1772203555.7779312,-55.17578125,-200.68359375,-123.53515625,-57.6171875,0.0,0,0
1772203555.8100932,1772203555.781828,-795.41015625,-949.21875,-823.73046875,441.40625,0.0,0,0
1772203555.810129,1772203555.7857246,432.6171875,895.5078125,521.484375,351.5625,0.0,0,0
1772203555.810169,1772203555.7896214,-897.4609375,-412.109375,-845.21484375,-272.4609375,0.0,0,0
1772203555.854219,1772203555.793594,-1000.0,-1000.0,-1000.0,-592.28515625,0.0,0,0
1772203555.85436,1772203555.7974906,-228.02734375,-174.8046875,-219.7265625,-122.55859375,0.0,0,0
1772203555.854402,1772203555.8013873,-887.6953125,-996.09375,-918.9453125,412.109375,0.0,0,0
1772203555.854443,1772203555.805284,685.546875,-966.30859375,791.9921875,431.640625,0.0,0,0
1772203555.854481,1772203555.8091805,-703.61328125,-101.5625,-564.453125,-193.84765625,0.0,0,0
1772203555.8545191,1772203555.8130772,-1000.0,-1000.0,-1000.0,-618.1640625,0.0,0,0
1772203555.8545558,1772203555.816974,-197.75390625,-339.84375,-184.5703125,-225.5859375,0.0,0,0
1772203555.854593,1772203555.8208706,-958.984375,928.7109375,-980.46875,338.37890625,0.0,0,0
1772203555.85463,1772203555.8247674,924.31640625,-909.1796875,992.67578125,470.21484375,0.0,0,0
1772203555.8546681,1772203555.828664,-367.67578125,83.984375,-227.05078125,-110.83984375,0.0,0,0
1772203555.8547049,1772203555.8325608,-1000.0,-1000.0,-1000.0,-612.3046875,0.0,0,0
1772203555.854765,1772203555.8364575,-173.828125,-525.390625,-229.00390625,-299.31640625,0.0,0,0
1772203555.914027,1772203555.840421,-998.046875,835.9375,978.02734375,305.17578125,0.0,0,0
1772203555.914189,1772203555.8443177,-962.890625,-864.74609375,-940.91796875,512.6953125,0.0,0,0
1772203555.914248,1772203555.8482144,-83.49609375,190.91796875,-10.25390625,-7.8125,0.0,0,0
1772203555.914301,1772203555.852111,-1000.0,-1000.0,-1000.0,-528.3203125,0.0,0,0
1772203555.914349,1772203555.8560078,-351.5625,-805.17578125,-424.8046875,-358.88671875,0.0,0,0
1772203555.914401,1772203555.8599043,920.8984375,559.5703125,885.25390625,239.74609375,0.0,0,0
1772203555.914452,1772203555.863801,-904.78515625,-809.08203125,-885.7421875,533.203125,0.0,0,0
1772203555.914502,1772203555.8676977,108.88671875,155.76171875,173.33984375,52.734375,0.0,0,0
1772203555.91456,1772203555.8715944,-1000.0,-1000.0,-1000.0,-494.62890625,0.0,0,0
1772203555.914625,1772203555.8754911,-545.41015625,-1000.0,-641.11328125,-420.41015625,0.0,0,0
1772203555.9146729,1772203555.8793879,826.66015625,237.3046875,746.09375,162.109375,0.0,0,0
1772203555.914732,1772203555.8832846,-862.79296875,-769.53125,-843.75,519.53125,0.0,0,0
1772203555.987817,1772203555.8873875,188.4765625,191.89453125,176.26953125,110.83984375,0.0,0,0
1772203555.987981,1772203555.8912842,-1000.0,-1000.0,-1000.0,-463.37890625,0.0,0,0
1772203555.9880378,1772203555.895181,-810.05859375,-1000.0,-886.71875,-491.2109375,0.0,0,0
1772203555.9880981,1772203555.8990777,552.734375,2.44140625,440.91796875,108.3984375,0.0,0,0
1772203555.9881501,1772203555.9029744,-808.10546875,-782.2265625,-791.50390625,541.50390625,0.0,0,0
1772203555.988202,1772203555.906871,152.83203125,394.04296875,145.5078125,203.61328125,0.0,0,0
1772203555.9882529,1772203555.9107678,-1000.0,-915.0390625,-1000.0,-402.83203125,0.0,0,0
1772203555.988302,1772203555.9146645,-1000.0,-1000.0,-1000.0,-536.1328125,0.0,0,0
1772203555.988359,1772203555.9185612,203.125,-196.77734375,109.86328125,21.484375,0.0,0,0
1772203555.988408,1772203555.922458,-767.578125,-854.98046875,-768.06640625,495.1171875,0.0,0,0
1772203555.988458,1772203555.9263546,218.75,592.28515625,292.48046875,270.99609375,0.0,0,0
1772203555.988528,1772203555.9302514,-1000.0,-796.38671875,-969.7265625,-347.16796875,0.0,0,0
1772203556.005128,1772203555.9342718,-1000.0,-1000.0,-1000.0,-563.96484375,0.0,0,0
1772203556.005208,1772203555.9381685,-13.671875,-209.9609375,-79.58984375,-54.19921875,0.0,0,0
1772203556.005261,1772203555.9420652,-787.109375,-936.03515625,-807.6171875,444.82421875,0.0,0,0
1772203556.005365,1772203555.945962,405.76171875,850.09765625,481.93359375,341.30859375,0.0,0,0
1772203556.0054421,1772203555.9498587,-910.64453125,-482.421875,-871.58203125,-283.203125,0.0,0,0
1772203556.0054982,1772203555.9537554,-1000.0,-1000.0,-1000.0,-597.16796875,0.0,0,0
1772203556.005549,1772203555.957652,-193.84765625,-177.734375,-211.42578125,-136.71875,0.0,0,0
1772203556.0056,1772203555.961549,-865.72265625,-992.67578125,-899.90234375,395.5078125,0.0,0,0
1772203556.005652,1772203555.9654458,634.27734375,-975.09765625,735.3515625,406.25,0.0,0,0
1772203556.0057018,1772203555.9693425,-750.0,-142.578125,-634.765625,-226.5625,0.0,0,0
1772203556.00576,1772203555.9732392,-1000.0,-1000.0,-1000.0,-623.046875,0.0,0,0
1772203556.006024,1772203555.977136,-204.58984375,-297.36328125,-190.91796875,-213.8671875,0.0,0,0
1772203556.050108,1772203555.981142,-946.2890625,949.70703125,-969.23828125,332.03125,0.0,0,0
1772203556.050208,1772203555.9850388,882.32421875,-921.38671875,958.984375,444.82421875,0.0,0,0
1772203556.0502532,1772203555.9889355,-432.12890625,39.0625,-296.38671875,-132.32421875,0.0,0,0
1772203556.050292,1772203555.9928324,-1000.0,-1000.0,-1000.0,-600.09765625,0.0,0,0
1772203556.050329,1772203555.9967291,-176.7578125,-467.7734375,-201.171875,-281.73828125,0.0,0,0
1772203556.0503669,1772203556.0006258,-994.62890625,865.234375,990.72265625,296.38671875,0.0,0,0
1772203556.050404,1772203556.0045226,-971.6796875,-875.9765625,-952.1484375,491.2109375,0.0,0,0
1772203556.050441,1772203556.0084193,-125.0,202.1484375,-49.8046875,-56.15234375,0.0,0,0
1772203556.050477,1772203556.012316,-1000.0,-1000.0,-1000.0,-564.94140625,0.0,0,0
1772203556.0505118,1772203556.016213,-305.6640625,-725.5859375,-378.90625,-333.0078125,0.0,0,0
1772203556.050548,1772203556.0201097,942.87109375,663.57421875,907.2265625,268.06640625,0.0,0,0
1772203556.050584,1772203556.0240064,-916.9921875,-826.66015625,-896.484375,521.484375,0.0,0,0
1772203556.093871,1772203556.028005,69.82421875,165.0390625,144.04296875,31.25,0.0,0,0
1772203556.093986,1772203556.0319018,-1000.0,-1000.0,-1000.0,-507.8125,0.0,0,0
1772203556.094026,1772203556.0357985,-492.67578125,-957.51953125,-584.47265625,-426.7578125,0.0,0,0
1772203556.094066,1772203556.0396953,854.00390625,334.9609375,793.45703125,160.64453125,0.0,0,0
1772203556.094105,1772203556.043592,-872.55859375,-777.83203125,-854.98046875,505.37109375,0.0,0,0
1772203556.094142,1772203556.0474887,199.21875,140.13671875,184.08203125,79.58984375,0.0,0,0
1772203556.0941792,1772203556.0513856,-1000.0,-1000.0,-1000.0,-482.421875,0.0,0,0
1772203556.094214,1772203556.0552824,-736.81640625,-1000.0,-839.35546875,-490.72265625,0.0,0,0
1772203556.094249,1772203556.059179,648.92578125,41.015625,509.27734375,110.3515625,0.0,0,0
1772203556.094294,1772203556.0630758,-825.1953125,-770.99609375,-801.7578125,524.4140625,0.0,0,0
1772203556.0943391,1772203556.0669727,163.57421875,324.70703125,151.3671875,175.78125,0.0,0,0
1772203556.094395,1772203556.0708694,-1000.0,-952.63671875,-1000.0,-410.15625,0.0,0,0
1772203556.154815,1772203556.074933,-959.9609375,-1000.0,-1000.0,-527.83203125,0.0,0,0
1772203556.154963,1772203556.0788298,326.66015625,-144.04296875,182.6171875,50.78125,0.0,0,0
1772203556.155005,1772203556.0827267,-777.83203125,-824.21875,-768.06640625,526.3671875,0.0,0,0
1772203556.155044,1772203556.0866234,155.2734375,523.4375,235.83984375,275.390625,0.0,0,0
1772203556.155081,1772203556.0905201,-1000.0,-853.02734375,-994.62890625,-338.8671875,0.0,0,0
1772203556.155117,1772203556.094417,-1000.0,-1000.0,-1000.0,-535.15625,0.0,0,0
1772203556.1551511,1772203556.0983138,41.015625,-219.23828125,-33.69140625,-19.04296875,0.0,0,0
1772203556.155188,1772203556.1022105,-773.92578125,-919.43359375,-792.48046875,465.8203125,0.0,0,0
1772203556.1552472,1772203556.1061075,350.09765625,794.921875,430.17578125,351.5625,0.0,0,0
1772203556.155284,1772203556.1100042,-939.94140625,-563.4765625,-897.94921875,-268.06640625,0.0,0,0
1772203556.155329,1772203556.113901,-1000.0,-1000.0,-1000.0,-562.01171875,0.0,0,0
1772203556.15538,1772203556.1177976,-141.6015625,-183.10546875,-198.73046875,-88.37890625,0.0,0,0
1772203556.185259,1772203556.1217823,-827.1484375,-983.3984375,-876.46484375,420.41015625,0.0,0,0
1772203556.185379,1772203556.1256793,531.73828125,999.51171875,668.9453125,406.73828125,0.0,0,0
1772203556.18542,1772203556.129576,-847.65625,-213.8671875,-711.42578125,-223.14453125,0.0,0,0
1772203556.185459,1772203556.133473,-1000.0,-1000.0,-1000.0,-605.95703125,0.0,0,0
1772203556.185497,1772203556.1373696,-217.28515625,-251.953125,-200.68359375,-185.546875,0.0,0,0
1772203556.185534,1772203556.1412663,-925.29296875,966.796875,-952.63671875,351.07421875,0.0,0,0
1772203556.1855721,1772203556.1451633,812.01171875,-932.6171875,905.76171875,444.82421875,0.0,0,0
1772203556.1856089,1772203556.14906,-540.52734375,13.18359375,-393.06640625,-144.53125,0.0,0,0
1772203556.185653,1772203556.1529567,-1000.0,-1000.0,-1000.0,-598.6328125,0.0,0,0
1772203556.185697,1772203556.1568537,-180.6640625,-445.80078125,-175.29296875,-258.30078125,0.0,0,0
1772203556.1857338,1772203556.1607504,-989.74609375,876.953125,-996.09375,311.5234375,0.0,0,0
1772203556.18578,1772203556.1646473,-982.91015625,-882.32421875,-965.33203125,484.375,0.0,0,0
1772203556.2290602,1772203556.168618,-179.6875,172.8515625,-99.609375,-69.3359375,0.0,0,0
1772203556.229165,1772203556.1725147,-1000.0,-1000.0,-1000.0,-579.1015625,0.0,0,0
1772203556.229213,1772203556.1764114,-254.8828125,-657.71484375,-321.77734375,-339.35546875,0.0,0,0
1772203556.229253,1772203556.1803083,965.8203125,731.4453125,935.05859375,265.625,0.0,0,0
1772203556.229291,1772203556.184205,-931.640625,-839.35546875,-911.1328125,513.671875,0.0,0,0
1772203556.229328,1772203556.188102,21.484375,169.921875,96.6796875,-3.90625,0.0,0,0
1772203556.229364,1772203556.1919987,-1000.0,-1000.0,-1000.0,-556.640625,0.0,0,0
1772203556.229398,1772203556.1958957,-451.171875,-938.4765625,-525.87890625,-428.22265625,0.0,0,0
1772203556.229435,1772203556.1997924,872.55859375,364.2578125,837.40234375,195.3125,0.0,0,0
1772203556.229472,1772203556.203689,-880.37109375,-782.2265625,-865.72265625,532.2265625,0.0,0,0
1772203556.229509,1772203556.207586,193.359375,143.5546875,192.87109375,82.03125,0.0,0,0
1772203556.229544,1772203556.2114828,-1000.0,-1000.0,-1000.0,-494.62890625,0.0,0,0
1772203556.289109,1772203556.2154436,-685.546875,-1000.0,-780.2734375,-482.91015625,0.0,0,0
1772203556.289255,1772203556.2193403,705.56640625,83.49609375,591.30859375,128.90625,0.0,0,0
1772203556.289296,1772203556.2232373,-835.9375,-768.06640625,-814.94140625,538.57421875,0.0,0,0
1772203556.289335,1772203556.227134,169.43359375,292.48046875,158.203125,154.296875,0.0,0,0
1772203556.289375,1772203556.231031,-1000.0,-973.6328125,-1000.0,-435.546875,0.0,0,0
1772203556.289411,1772203556.2349277,-928.22265625,-1000.0,-990.72265625,-520.99609375,0.0,0,0
1772203556.289453,1772203556.2388246,379.39453125,-62.01171875,260.7421875,49.8046875,0.0,0,0
1772203556.289491,1772203556.2427213,-786.1328125,-800.29296875,-773.92578125,496.58203125,0.0,0,0
1772203556.2895281,1772203556.246618,149.90234375,451.171875,199.21875,215.33203125,0.0,0,0
1772203556.289564,1772203556.250515,-1000.0,-909.66796875,-1000.0,-402.34375,0.0,0,0
1772203556.289637,1772203556.2544117,-1000.0,-1000.0,-1000.0,-558.10546875,0.0,0,0
1772203556.28967,1772203556.2583086,167.96875,-143.5546875,99.12109375,-4.39453125,0.0,0,0
1772203556.335331,1772203556.2623334,-779.78515625,-907.71484375,-791.9921875,467.28515625,0.0,0,0
1772203556.335451,1772203556.26623,311.03515625,717.7734375,384.765625,315.91796875,0.0,0,0
1772203556.33551,1772203556.270127,-957.03125,-662.109375,-919.921875,-321.2890625,0.0,0,0
1772203556.335561,1772203556.2740238,-1000.0,-1000.0,-1000.0,-606.4453125,0.0,0,0
1772203556.335626,1772203556.2779207,-109.86328125,-193.359375,-171.38671875,-104.00390625,0.0,0,0
1772203556.335674,1772203556.2818174,-816.40625,-965.33203125,-852.5390625,425.78125,0.0,0,0
1772203556.335711,1772203556.2857144,502.44140625,945.80078125,602.05078125,378.90625,0.0,0,0
1772203556.335747,1772203556.289611,-860.83984375,-324.21875,-778.3203125,-255.859375,0.0,0,0
1772203556.335788,1772203556.293508,-1000.0,-1000.0,-1000.0,-609.375,0.0,0,0
1772203556.335835,1772203556.2974048,-223.6328125,-195.3125,-208.984375,-156.25,0.0,0,0
1772203556.335902,1772203556.3013017,-911.1328125,991.69921875,-937.01171875,391.6015625,0.0,0,0
1772203556.335947,1772203556.3051984,760.7421875,-952.63671875,853.515625,468.26171875,0.0,0,0
1772203556.380857,1772203556.3092225,-607.421875,-53.22265625,-475.09765625,-133.7890625,0.0,0,0
1772203556.381001,1772203556.3131194,-1000.0,-1000.0,-1000.0,-569.82421875,0.0,0,0
1772203556.38104,1772203556.3170164,-187.5,-369.140625,-177.734375,-209.47265625,0.0,0,0
1772203556.381078,1772203556.320913,-978.515625,911.1328125,-991.69921875,333.49609375,0.0,0,0
1772203556.381232,1772203556.32481,982.421875,-896.97265625,-978.02734375,480.46875,0.0,0,0
1772203556.381273,1772203556.3287067,-252.9296875,159.66796875,-144.04296875,-79.1015625,0.0,0,0
1772203556.38131,1772203556.3326037,-1000.0,-1000.0,-1000.0,-568.84765625,0.0,0,0
1772203556.3813682,1772203556.3365006,-206.54296875,-608.88671875,-285.15625,-309.08203125,0.0,0,0
1772203556.381404,1772203556.3403974,985.83984375,779.296875,953.125,272.94921875,0.0,0,0
1772203556.381439,1772203556.3442943,-946.2890625,-850.5859375,-922.36328125,503.41796875,0.0,0,0
1772203556.381475,1772203556.348191,-21.484375,182.6171875,50.29296875,-18.06640625,0.0,0,0
1772203556.3815098,1772203556.352088,-1000.0,-1000.0,-1000.0,-554.19921875,0.0,0,0
1772203556.4246411,1772203556.3560982,-396.97265625,-845.21484375,-474.12109375,-404.78515625,0.0,0,0
1772203556.4247549,1772203556.3599951,899.90234375,508.30078125,862.79296875,197.75390625,0.0,0,0
1772203556.424812,1772203556.363892,-893.06640625,-799.8046875,-875.9765625,515.13671875,0.0,0,0
1772203556.424864,1772203556.3677888,159.66796875,149.4140625,189.453125,68.84765625,0.0,0,0
1772203556.4249148,1772203556.3716857,-1000.0,-1000.0,-1000.0,-496.09375,0.0,0,0
1772203556.424963,1772203556.3755827,-595.21484375,-1000.0,-704.58984375,-456.54296875,0.0,0,0
1772203556.4250119,1772203556.3794794,793.9453125,166.9921875,679.6875,150.87890625,0.0,0,0
1772203556.425063,1772203556.3833764,-854.4921875,-763.18359375,-830.56640625,521.484375,0.0,0,0
1772203556.425112,1772203556.3872733,181.640625,229.4921875,166.9921875,123.046875,0.0,0,0
1772203556.425164,1772203556.39117,-1000.0,-995.1171875,-1000.0,-457.51953125,0.0,0,0
1772203556.425211,1772203556.395067,-854.00390625,-1000.0,-943.84765625,-524.90234375,0.0,0,0
1772203556.425259,1772203556.398964,493.65234375,-56.15234375,346.6796875,62.5,0.0,0,0
1772203556.472019,1772203556.402966,-798.828125,-792.96875,-780.76171875,514.16015625,0.0,0,0
1772203556.472165,1772203556.4068627,147.4609375,424.8046875,168.45703125,219.7265625,0.0,0,0
1772203556.472223,1772203556.4107597,-1000.0,-902.83203125,-1000.0,-389.6484375,0.0,0,0
1772203556.472275,1772203556.4146566,-1000.0,-1000.0,-1000.0,-553.22265625,0.0,0,0
1772203556.4723232,1772203556.4185536,145.01953125,-219.23828125,59.5703125,-2.9296875,0.0,0,0
1772203556.4723752,1772203556.4224503,-763.18359375,-883.7890625,-772.94921875,471.6796875,0.0,0,0
1772203556.472426,1772203556.4263473,257.32421875,685.05859375,341.30859375,274.90234375,0.0,0,0
1772203556.472476,1772203556.4302442,-984.375,-702.63671875,-944.82421875,-336.9140625,0.0,0,0
1772203556.472526,1772203556.4341412,-1000.0,-1000.0,-1000.0,-582.51953125,0.0,0,0
1772203556.4725919,1772203556.4380379,-54.6875,-200.1953125,-122.0703125,-76.171875,0.0,0,0
1772203556.472648,1772203556.4419348,-796.875,-950.68359375,-825.68359375,440.91796875,0.0,0,0
1772203556.472707,1772203556.4458318,443.359375,900.87890625,533.69140625,365.72265625,0.0,0,0
1772203556.5156748,1772203556.449823,-889.6484375,-403.80859375,-833.49609375,-265.13671875,0.0,0,0
1772203556.5157719,1772203556.4537199,-1000.0,-1000.0,-1000.0,-595.703125,0.0,0,0
1772203556.5158231,1772203556.4576168,-234.375,-174.31640625,-219.23828125,-140.13671875,0.0,0,0
1772203556.515873,1772203556.4615138,-889.6484375,-997.0703125,-917.96875,398.4375,0.0,0,0
1772203556.515924,1772203556.4654105,686.5234375,-964.84375,789.55078125,436.03515625,0.0,0,0
1772203556.515975,1772203556.4693074,-704.1015625,-94.23828125,-567.3828125,-188.4765625,0.0,0,0
1772203556.516026,1772203556.4732044,-1000.0,-1000.0,-1000.0,-608.88671875,0.0,0,0
1772203556.516074,1772203556.4771013,-197.75390625,-342.28515625,-184.5703125,-208.984375,0.0,0,0
1772203556.516125,1772203556.4809983,-958.49609375,927.24609375,-980.95703125,357.91015625,0.0,0,0
1772203556.516178,1772203556.484895,924.31640625,-908.203125,993.1640625,495.1171875,0.0,0,0
1772203556.5162282,1772203556.488792,-367.67578125,92.28515625,-225.09765625,-80.078125,0.0,0,0
1772203556.516278,1772203556.492689,-1000.0,-1000.0,-1000.0,-561.03515625,0.0,0,0
1772203556.5761359,1772203556.4967487,-173.33984375,-549.31640625,-231.4453125,-259.27734375,0.0,0,0
1772203556.576278,1772203556.5006456,-999.0234375,821.77734375,976.5625,325.68359375,0.0,0,0
1772203556.57632,1772203556.5045426,-961.9140625,-860.83984375,-938.4765625,535.64453125,0.0,0,0
1772203556.5763571,1772203556.5084395,-80.078125,191.89453125,-2.44140625,12.6953125,0.0,0,0
1772203556.576394,1772203556.5123365,-1000.0,-1000.0,-1000.0,-506.8359375,0.0,0,0
