timestamp,lsl_timestamp,TP9,AF7,AF8,TP10,Right AUX,keypress_A,keypress_B
1772204851.578052,1772204851.4850981,281.73828125,-0.9765625,156.25,178.7109375,0.0,0,0
1772204851.57819,1772204851.4889932,-673.828125,-93.75,-203.61328125,-459.47265625,0.0,0,0
1772204851.578239,1772204851.492888,-941.89453125,-96.19140625,-316.89453125,-682.12890625,0.0,0,0
1772204851.5782762,1772204851.496783,-164.0625,4.8828125,-30.2734375,-208.984375,0.0,0,0
1772204851.578309,1772204851.5006778,717.7734375,49.31640625,265.13671875,444.82421875,0.0,0,0
1772204851.57834,1772204851.5045729,430.6640625,-4.8828125,133.7890625,276.3671875,0.0,0,0
1772204851.578374,1772204851.5084677,-527.34375,-83.984375,-215.33203125,-398.92578125,0.0,0,0
1772204851.5784042,1772204851.5123627,-998.046875,-87.890625,-314.94140625,-659.1796875,0.0,0,0
1772204851.578434,1772204851.5162575,-340.8203125,17.578125,41.015625,-214.84375,0.0,0,0
1772204851.578464,1772204851.5201526,662.109375,-65.4296875,395.99609375,390.13671875,0.0,0,0
1772204851.5784938,1772204851.5240474,532.71484375,-163.0859375,330.56640625,323.73046875,0.0,0,0
1772204851.5785239,1772204851.5279424,-406.73828125,-76.66015625,-19.53125,-352.5390625,0.0,0,0
1772204851.6084101,1772204851.532034,-933.59375,-79.1015625,-188.96484375,-690.4296875,0.0,0,0
1772204851.6085088,1772204851.5359287,-375.0,-26.3671875,95.21484375,-262.6953125,0.0,0,0
1772204851.608556,1772204851.5398238,606.93359375,32.71484375,380.37109375,311.03515625,0.0,0,0
1772204851.608593,1772204851.5437188,707.51953125,8.7890625,317.87109375,331.54296875,0.0,0,0
1772204851.608636,1772204851.5476136,-216.30859375,-62.98828125,-44.921875,-247.55859375,0.0,0,0
1772204851.608674,1772204851.5515087,-902.34375,-94.7265625,-291.9921875,-712.890625,0.0,0,0
1772204851.6087139,1772204851.5554035,-437.5,-46.875,-51.7578125,-395.99609375,0.0,0,0
1772204851.60875,1772204851.5592985,495.60546875,36.62109375,349.12109375,267.578125,0.0,0,0
1772204851.6087859,1772204851.5631936,693.359375,11.71875,401.85546875,386.23046875,0.0,0,0
1772204851.608835,1772204851.5670884,-80.078125,-123.046875,-9.765625,-176.7578125,0.0,0,0
1772204851.608874,1772204851.5709834,-856.4453125,-125.48828125,-319.3359375,-697.75390625,0.0,0,0
1772204851.6089149,1772204851.5748782,-573.73046875,-12.20703125,-143.06640625,-452.63671875,0.0,0,0
1772204851.653544,1772204851.5789487,436.03515625,-15.625,200.68359375,186.5234375,0.0,0,0
1772204851.6536698,1772204851.5828438,787.109375,-52.24609375,324.21875,374.0234375,0.0,0,0
1772204851.653729,1772204851.5867388,67.3828125,-56.15234375,12.6953125,-169.43359375,0.0,0,0
1772204851.653783,1772204851.5906336,-767.578125,-87.890625,-295.41015625,-734.375,0.0,0,0
1772204851.653833,1772204851.5945287,-660.64453125,-38.0859375,-153.80859375,-550.78125,0.0,0,0
1772204851.653884,1772204851.5984237,258.30078125,22.94921875,202.1484375,109.86328125,0.0,0,0
1772204851.653934,1772204851.6023188,711.9140625,23.4375,331.54296875,405.2734375,0.0,0,0
1772204851.653984,1772204851.6062138,160.64453125,-12.6953125,15.625,-45.41015625,0.0,0,0
1772204851.6540349,1772204851.6101086,-716.796875,-202.1484375,-335.44921875,-638.671875,0.0,0,0
1772204851.6540852,1772204851.6140037,-747.0703125,-246.09375,-264.6484375,-656.25,0.0,0,0
1772204851.654134,1772204851.6178987,166.9921875,-2.44140625,125.0,-63.96484375,0.0,0,0
1772204851.654183,1772204851.6217937,752.9296875,30.76171875,334.47265625,355.95703125,0.0,0,0
1772204851.700518,1772204851.6258538,210.44921875,-28.3203125,87.40234375,11.71875,0.0,0,0
1772204851.700618,1772204851.6297488,-637.20703125,-88.8671875,-213.8671875,-553.22265625,0.0,0,0
1772204851.7006578,1772204851.6336439,-650.390625,-87.890625,-212.890625,-595.21484375,0.0,0,0
1772204851.7006989,1772204851.6375387,184.5703125,-5.859375,145.99609375,-52.734375,0.0,0,0
1772204851.700748,1772204851.6414337,878.90625,20.99609375,376.46484375,387.6953125,0.0,0,0
1772204851.70081,1772204851.6453288,486.81640625,-33.69140625,110.83984375,102.5390625,0.0,0,0
1772204851.7008471,1772204851.6492238,-465.8203125,-103.515625,-262.6953125,-513.671875,0.0,0,0
1772204851.7008839,1772204851.6531188,-733.3984375,-106.93359375,-351.5625,-694.3359375,0.0,0,0
1772204851.70092,1772204851.657014,-27.83203125,-74.21875,-24.90234375,-180.6640625,0.0,0,0
1772204851.700966,1772204851.660909,817.3828125,-24.4140625,300.78125,358.3984375,0.0,0,0
1772204851.7010071,1772204851.6648037,659.1796875,-12.6953125,131.8359375,169.921875,0.0,0,0
1772204851.701044,1772204851.6686988,-324.21875,-77.63671875,-263.18359375,-458.0078125,0.0,0,0
1772204851.758444,1772204851.672754,-737.79296875,-91.796875,-391.11328125,-693.359375,0.0,0,0
1772204851.758829,1772204851.676649,-59.08203125,-16.6015625,-110.83984375,-243.65234375,0.0,0,0
1772204851.758923,1772204851.6805441,810.05859375,43.9453125,203.125,270.01953125,0.0,0,0
1772204851.7589812,1772204851.6844392,645.99609375,-10.7421875,125.9765625,125.9765625,0.0,0,0
1772204851.7590349,1772204851.6883342,-333.49609375,-102.5390625,-235.83984375,-484.375,0.0,0,0
1772204851.759087,1772204851.6922293,-830.56640625,-114.2578125,-406.25,-804.6875,0.0,0,0
1772204851.759137,1772204851.6961243,-262.20703125,-25.87890625,-129.39453125,-488.76953125,0.0,0,0
1772204851.759187,1772204851.7000194,607.421875,-47.8515625,200.1953125,140.625,0.0,0,0
1772204851.75924,1772204851.7039144,614.2578125,-136.23046875,156.73828125,155.2734375,0.0,0,0
1772204851.759294,1772204851.7078094,-193.84765625,-93.75,-208.0078125,-503.90625,0.0,0,0
1772204851.759348,1772204851.7117045,-819.3359375,-92.7734375,-446.77734375,-894.04296875,0.0,0,0
1772204851.759412,1772204851.7155995,-381.34765625,-41.015625,-222.16796875,-557.6171875,0.0,0,0
1772204851.788996,1772204851.7196426,634.27734375,25.390625,147.4609375,91.30859375,0.0,0,0
1772204851.7891068,1772204851.7235377,780.2734375,6.34765625,128.90625,250.48828125,0.0,0,0
1772204851.789165,1772204851.7274327,-67.87109375,-67.3828125,-252.44140625,-308.10546875,0.0,0,0
1772204851.7892191,1772204851.7313278,-803.22265625,-105.46875,-449.70703125,-841.30859375,0.0,0,0
1772204851.789271,1772204851.7352228,-518.06640625,-53.22265625,-213.8671875,-550.78125,0.0,0,0
1772204851.7893162,1772204851.7391179,414.0625,18.5546875,140.625,129.8828125,0.0,0,0
1772204851.789356,1772204851.743013,711.42578125,6.34765625,175.29296875,305.17578125,0.0,0,0
1772204851.789393,1772204851.746908,-17.578125,-174.31640625,-195.80078125,-212.40234375,0.0,0,0
1772204851.789429,1772204851.750803,-885.7421875,-198.73046875,-481.4453125,-734.375,0.0,0,0
1772204851.7894678,1772204851.7546983,-672.8515625,-60.05859375,-271.484375,-550.78125,0.0,0,0
1772204851.789505,1772204851.7585933,357.421875,-18.5546875,116.69921875,138.18359375,0.0,0,0
1772204851.789541,1772204851.7624884,747.55859375,-14.6484375,216.796875,409.1796875,0.0,0,0
1772204851.862098,1772204851.7666914,57.6171875,-55.17578125,-6.8359375,-2.9296875,0.0,0,0
1772204851.8622122,1772204851.7705865,-852.05078125,-118.1640625,-265.13671875,-541.50390625,0.0,0,0
1772204851.862258,1772204851.7744818,-887.6953125,-88.37890625,-242.1875,-523.4375,0.0,0,0
1772204851.862296,1772204851.7783768,-11.23046875,-3.90625,140.13671875,121.09375,0.0,0,0
1772204851.862337,1772204851.7822719,546.875,11.23046875,348.14453125,500.48828125,0.0,0,0
1772204851.8623738,1772204851.7861671,-77.1484375,-34.66796875,79.58984375,114.2578125,0.0,0,0
1772204851.862415,1772204851.7900622,-885.7421875,-150.390625,-264.16015625,-500.9765625,0.0,0,0
1772204851.8624508,1772204851.7939572,-916.50390625,-171.875,-277.83203125,-559.5703125,0.0,0,0
1772204851.862488,1772204851.7978525,-113.28125,-21.97265625,114.74609375,-8.7890625,0.0,0,0
1772204851.862537,1772204851.8017476,691.40625,17.578125,340.8203125,437.5,0.0,0,0
1772204851.862577,1772204851.8056426,293.45703125,-54.6875,39.55078125,167.96875,0.0,0,0
1772204851.8626208,1772204851.809538,-698.73046875,-115.72265625,-330.56640625,-443.359375,0.0,0,0
1772204851.8774421,1772204851.813549,-897.4609375,-90.33203125,-310.546875,-547.8515625,0.0,0,0
1772204851.877509,1772204851.817444,-110.83984375,-9.27734375,82.03125,1.46484375,0.0,0,0
1772204851.878059,1772204851.8213394,691.89453125,36.62109375,336.9140625,572.265625,0.0,0,0
1772204851.8781052,1772204851.8252344,354.00390625,-16.6015625,125.0,381.8359375,0.0,0,0
1772204851.878145,1772204851.8291295,-662.109375,-99.12109375,-247.0703125,-303.7109375,0.0,0,0
1772204851.878186,1772204851.8330247,-922.8515625,-96.19140625,-354.98046875,-557.6171875,0.0,0,0
1772204851.8782248,1772204851.8369198,-210.44921875,-33.69140625,-60.05859375,-85.44921875,0.0,0,0
1772204851.878262,1772204851.840815,626.46484375,8.7890625,252.9296875,489.2578125,0.0,0,0
1772204851.878298,1772204851.84471,449.21875,-29.78515625,149.4140625,370.1171875,0.0,0,0
1772204851.8783329,1772204851.8486052,-503.41796875,-106.93359375,-199.21875,-249.0234375,0.0,0,0
1772204851.87837,1772204851.8525004,-926.26953125,-116.2109375,-338.8671875,-556.640625,0.0,0,0
1772204851.8784058,1772204851.8563955,-325.1953125,-58.59375,-76.171875,-175.78125,0.0,0,0
1772204851.937293,1772204851.8603895,592.7734375,19.04296875,200.1953125,426.26953125,0.0,0,0
1772204851.93741,1772204851.8642848,538.57421875,-73.73046875,93.26171875,456.54296875,0.0,0,0
1772204851.937452,1772204851.8681798,-393.06640625,-250.9765625,-262.20703125,-92.28515625,0.0,0,0
1772204851.937491,1772204851.872075,-893.5546875,-147.94921875,-452.63671875,-468.75,0.0,0,0
1772204851.93753,1772204851.8759701,-398.4375,-0.9765625,-187.98828125,-149.90234375,0.0,0,0
1772204851.937568,1772204851.8798654,497.55859375,-75.68359375,162.59765625,473.6328125,0.0,0,0
1772204851.9376059,1772204851.8837605,628.90625,-183.59375,158.203125,514.6484375,0.0,0,0
1772204851.937648,1772204851.8876557,-159.66796875,-98.14453125,-179.6875,-93.75,0.0,0,0
1772204851.937685,1772204851.8915508,-898.92578125,-74.70703125,-396.484375,-534.1796875,0.0,0,0
1772204851.937731,1772204851.895446,-568.84765625,-44.921875,-166.50390625,-295.8984375,0.0,0,0
1772204851.937767,1772204851.899341,371.58203125,27.34375,179.6875,306.640625,0.0,0,0
1772204851.937831,1772204851.9032364,637.20703125,32.71484375,229.4921875,483.88671875,0.0,0,0
1772204851.982315,1772204851.907312,-59.08203125,-40.0390625,-103.515625,-25.87890625,0.0,0,0
1772204851.982465,1772204851.911207,-891.11328125,-92.28515625,-378.90625,-579.1015625,0.0,0,0
1772204851.982523,1772204851.9151022,-647.94921875,-54.6875,-230.95703125,-397.94921875,0.0,0,0
1772204851.9825768,1772204851.9189975,303.22265625,18.06640625,107.91015625,299.31640625,0.0,0,0
1772204851.9826298,1772204851.9228926,664.55078125,23.4375,193.359375,598.6328125,0.0,0,0
1772204851.982681,1772204851.9267879,15.13671875,-52.734375,-95.703125,176.26953125,0.0,0,0
1772204851.982732,1772204851.9306831,-870.1171875,-116.2109375,-367.1875,-437.5,0.0,0,0
1772204851.982783,1772204851.9345782,-743.1640625,-68.359375,-282.2265625,-421.38671875,0.0,0,0
1772204851.9828339,1772204851.9384735,229.00390625,-4.8828125,83.49609375,208.984375,0.0,0,0
1772204851.9828851,1772204851.9423685,744.62890625,-70.80078125,221.6796875,542.48046875,0.0,0,0
1772204851.982927,1772204851.9462638,121.58203125,-96.19140625,-78.61328125,134.27734375,0.0,0,0
1772204851.982968,1772204851.950159,-810.546875,-90.8203125,-372.55859375,-482.91015625,0.0,0,0
1772204852.028585,1772204851.9542246,-873.046875,-82.03125,-329.58984375,-502.44140625,0.0,0,0
1772204852.028733,1772204851.9581196,23.92578125,-12.6953125,34.1796875,113.76953125,0.0,0,0
1772204852.028811,1772204851.962015,710.44921875,25.87890625,255.37109375,547.8515625,0.0,0,0
1772204852.028866,1772204851.9659102,315.4296875,-23.92578125,31.73828125,274.4140625,0.0,0,0
1772204852.0289211,1772204851.9698055,-612.79296875,-110.83984375,-316.40625,-325.68359375,0.0,0,0
1772204852.029001,1772204851.9737005,-875.9765625,-109.375,-372.0703125,-497.0703125,0.0,0,0
1772204852.029053,1772204851.9775958,-112.3046875,-20.5078125,-36.62109375,19.53125,0.0,0,0
1772204852.029155,1772204851.981491,588.8671875,29.78515625,189.94140625,529.296875,0.0,0,0
1772204852.029208,1772204851.9853861,307.6171875,-114.2578125,-38.0859375,293.45703125,0.0,0,0
1772204852.029276,1772204851.9892814,-626.953125,-225.5859375,-410.15625,-339.35546875,0.0,0,0
1772204852.029352,1772204851.9931767,-949.70703125,-117.67578125,-470.21484375,-526.85546875,0.0,0,0
1772204852.029404,1772204851.997072,-208.984375,-44.43359375,-131.8359375,-40.0390625,0.0,0,0
1772204852.087492,1772204852.0011265,663.0859375,-7.8125,176.7578125,495.60546875,0.0,0,0
1772204852.087656,1772204852.0050218,467.7734375,-38.0859375,94.7265625,324.21875,0.0,0,0
1772204852.0877151,1772204852.0089169,-500.48828125,-103.515625,-245.60546875,-358.88671875,0.0,0,0
1772204852.087769,1772204852.0128121,-975.09765625,-125.48828125,-374.51171875,-689.453125,0.0,0,0
1772204852.0879,1772204852.0167074,-360.83984375,-64.453125,-71.77734375,-265.13671875,0.0,0,0
1772204852.087968,1772204852.0206027,569.3359375,-1.953125,255.37109375,336.9140625,0.0,0,0
1772204852.0880241,1772204852.024498,539.0625,-31.73828125,195.3125,284.66796875,0.0,0,0
1772204852.088078,1772204852.0283933,-387.6953125,-99.609375,-163.0859375,-364.74609375,0.0,0,0
1772204852.08813,1772204852.0322886,-925.78125,-266.6015625,-314.94140625,-711.42578125,0.0,0,0
1772204852.088182,1772204852.0361836,-397.4609375,-187.98828125,-22.94921875,-326.171875,0.0,0,0
1772204852.088233,1772204852.0400789,528.3203125,18.06640625,301.26953125,259.765625,0.0,0,0
1772204852.088284,1772204852.0439742,621.09375,-21.484375,297.36328125,311.03515625,0.0,0,0
1772204852.1176808,1772204852.0480125,-270.99609375,-93.26171875,-49.31640625,-244.140625,0.0,0,0
1772204852.117842,1772204852.0519078,-956.54296875,-107.421875,-291.9921875,-704.1015625,0.0,0,0
1772204852.117902,1772204852.055803,-560.546875,-62.98828125,-92.7734375,-457.03125,0.0,0,0
1772204852.117953,1772204852.0596983,426.26953125,-14.6484375,246.09375,176.26953125,0.0,0,0
1772204852.118006,1772204852.0635936,546.38671875,-38.0859375,234.375,268.5546875,0.0,0,0
1772204852.1180558,1772204852.067489,-257.8125,-109.86328125,-95.703125,-274.90234375,0.0,0,0
1772204852.1181078,1772204852.0713842,-915.0390625,-130.37109375,-298.828125,-728.02734375,0.0,0,0
1772204852.1181598,1772204852.0752795,-689.453125,-154.296875,-141.11328125,-538.57421875,0.0,0,0
1772204852.118211,1772204852.0791748,289.55078125,-81.0546875,202.1484375,103.02734375,0.0,0,0
1772204852.118261,1772204852.08307,639.16015625,9.27734375,277.83203125,337.890625,0.0,0,0
1772204852.118311,1772204852.0869653,-53.7109375,-68.84765625,-24.4140625,-105.46875,0.0,0,0
1772204852.118361,1772204852.0908606,-885.25390625,-156.73828125,-312.5,-664.0625,0.0,0,0
1772204852.163638,1772204852.0948925,-790.52734375,-121.09375,-203.125,-583.984375,0.0,0,0
1772204852.163737,1772204852.0987878,218.26171875,-6.8359375,132.8125,48.828125,0.0,0,0
1772204852.163811,1772204852.102683,652.34375,-7.8125,208.0078125,380.859375,0.0,0,0
1772204852.163848,1772204852.1065784,41.015625,-77.1484375,-83.49609375,-13.671875,0.0,0,0
1772204852.1638799,1772204852.1104736,-763.18359375,-124.51171875,-394.53125,-620.60546875,0.0,0,0
1772204852.163915,1772204852.114369,-836.9140625,-99.12109375,-386.71875,-637.20703125,0.0,0,0
1772204852.163945,1772204852.1182642,155.76171875,-29.78515625,-49.31640625,-30.2734375,0.0,0,0
1772204852.163977,1772204852.1221595,820.80078125,-31.25,133.7890625,374.0234375,0.0,0,0
1772204852.164006,1772204852.1260548,257.8125,-86.42578125,-97.65625,55.17578125,0.0,0,0
1772204852.1640341,1772204852.12995,-700.1953125,-124.51171875,-416.50390625,-550.29296875,0.0,0,0
1772204852.164063,1772204852.1338453,-887.6953125,-102.05078125,-441.40625,-643.5546875,0.0,0,0
1772204852.164093,1772204852.1377406,-30.2734375,-20.99609375,-95.21484375,-88.37890625,0.0,0,0
1772204852.2090728,1772204852.1417618,772.4609375,19.04296875,183.59375,392.08984375,0.0,0,0
1772204852.2092302,1772204852.145657,398.4375,-38.57421875,3.41796875,158.69140625,0.0,0,0
1772204852.209289,1772204852.1495523,-550.78125,-99.609375,-338.8671875,-447.75390625,0.0,0,0
1772204852.209343,1772204852.1534479,-865.72265625,-87.40234375,-380.859375,-621.09375,0.0,0,0
1772204852.209396,1772204852.1573431,-102.5390625,-24.90234375,-51.26953125,-158.69140625,0.0,0,0
1772204852.209673,1772204852.1612384,768.5546875,49.31640625,223.14453125,406.73828125,0.0,0,0
1772204852.209738,1772204852.1651337,520.99609375,-116.2109375,77.63671875,304.19921875,0.0,0,0
1772204852.209793,1772204852.169029,-462.890625,-273.92578125,-303.7109375,-330.078125,0.0,0,0
1772204852.2098439,1772204852.1729243,-894.04296875,-151.85546875,-468.26171875,-632.8125,0.0,0,0
1772204852.2098958,1772204852.1768196,-226.07421875,-60.546875,-198.73046875,-222.65625,0.0,0,0
1772204852.2099452,1772204852.180715,668.45703125,-5.859375,124.0234375,343.26171875,0.0,0,0
1772204852.209974,1772204852.1846104,568.359375,-28.3203125,47.36328125,286.1328125,0.0,0,0
1772204852.2539678,1772204852.1886253,-428.7109375,-102.5390625,-359.86328125,-310.546875,0.0,0,0
1772204852.254082,1772204852.1925206,-925.78125,-113.28125,-528.80859375,-670.41015625,0.0,0,0
1772204852.254126,1772204852.196416,-297.8515625,-46.38671875,-222.65625,-313.4765625,0.0,0,0
1772204852.254165,1772204852.2003112,626.46484375,6.34765625,111.81640625,278.3203125,0.0,0,0
1772204852.254205,1772204852.2042067,714.84375,-23.92578125,83.49609375,336.9140625,0.0,0,0
1772204852.254242,1772204852.208102,-191.89453125,-91.796875,-260.25390625,-227.05078125,0.0,0,0
1772204852.2542799,1772204852.2119973,-942.3828125,-196.2890625,-490.72265625,-693.84765625,0.0,0,0
1772204852.254317,1772204852.2158926,-458.0078125,-129.8828125,-256.8359375,-410.15625,0.0,0,0
1772204852.254354,1772204852.219788,549.31640625,9.765625,113.28125,244.140625,0.0,0,0
1772204852.25439,1772204852.2236834,738.28125,-11.23046875,142.578125,369.62890625,0.0,0,0
1772204852.254427,1772204852.2275786,-87.890625,-88.8671875,-171.38671875,-134.27734375,0.0,0,0
1772204852.254463,1772204852.231474,-853.515625,-126.953125,-442.87109375,-630.859375,0.0,0,0
1772204852.3138611,1772204852.2354746,-564.453125,-61.03515625,-283.69140625,-448.73046875,0.0,0,0
1772204852.3140638,1772204852.2393699,401.3671875,-5.859375,110.83984375,166.50390625,0.0,0,0
1772204852.314125,1772204852.2432654,725.09765625,-27.83203125,216.796875,377.44140625,0.0,0,0
1772204852.314166,1772204852.2471607,-32.71484375,-90.8203125,-88.37890625,-73.2421875,0.0,0,0
1772204852.3142028,1772204852.251056,-867.1875,-116.2109375,-358.88671875,-625.9765625,0.0,0,0
1772204852.314241,1772204852.2549515,-643.06640625,-140.13671875,-226.07421875,-538.57421875,0.0,0,0
1772204852.31428,1772204852.2588468,371.09375,-133.7890625,117.1875,59.5703125,0.0,0,0
1772204852.314316,1772204852.262742,798.828125,-18.5546875,210.44921875,348.14453125,0.0,0,0
1772204852.314353,1772204852.2666373,114.74609375,-38.57421875,-41.9921875,-22.94921875,0.0,0,0
1772204852.3143911,1772204852.2705328,-789.55078125,-104.4921875,-335.44921875,-608.3984375,0.0,0,0
1772204852.314441,1772204852.2744281,-757.32421875,-78.61328125,-300.78125,-615.234375,0.0,0,0
1772204852.3144782,1772204852.2783234,242.1875,4.8828125,64.453125,-30.76171875,0.0,0,0
1772204852.3583622,1772204852.2824006,854.98046875,41.015625,221.19140625,353.02734375,0.0,0,0
1772204852.3585181,1772204852.2862961,275.87890625,4.8828125,-39.0625,41.015625,0.0,0,0
1772204852.358577,1772204852.2901914,-674.31640625,-47.36328125,-345.703125,-568.84765625,0.0,0,0
1772204852.358616,1772204852.294087,-826.171875,-33.203125,-336.9140625,-680.6640625,0.0,0,0
1772204852.3587132,1772204852.2979822,43.45703125,47.36328125,5.859375,-133.7890625,0.0,0,0
1772204852.358758,1772204852.3018777,747.0703125,62.5,221.19140625,354.98046875,0.0,0,0
1772204852.3587961,1772204852.305773,336.42578125,1.953125,6.8359375,126.46484375,0.0,0,0
1772204852.3588328,1772204852.3096683,-654.296875,-38.0859375,-351.5625,-475.09765625,0.0,0,0
1772204852.35887,1772204852.3135638,-916.015625,-56.15234375,-475.09765625,-658.203125,0.0,0,0
1772204852.358907,1772204852.317459,-107.421875,-77.1484375,-156.25,-170.41015625,0.0,0,0
1772204852.358947,1772204852.3213546,701.171875,21.484375,148.4375,362.3046875,0.0,0,0
1772204852.358984,1772204852.32525,437.01171875,37.109375,-16.11328125,212.40234375,0.0,0,0
1772204852.402266,1772204852.329314,-511.23046875,-70.80078125,-377.9296875,-398.92578125,0.0,0,0
1772204852.4023528,1772204852.3332095,-940.91796875,-84.9609375,-518.06640625,-684.08203125,0.0,0,0
1772204852.402391,1772204852.3371048,-251.953125,1.953125,-227.5390625,-248.046875,0.0,0,0
1772204852.402457,1772204852.3410003,721.6796875,56.640625,98.14453125,340.8203125,0.0,0,0
1772204852.402546,1772204852.3448956,606.93359375,7.32421875,8.7890625,273.92578125,0.0,0,0
1772204852.402585,1772204852.3487911,-392.578125,-69.3359375,-346.19140625,-331.0546875,0.0,0,0
1772204852.4026182,1772204852.3526866,-904.78515625,-90.8203125,-529.296875,-671.38671875,0.0,0,0
1772204852.40265,1772204852.356582,-272.94921875,-5.37109375,-256.8359375,-292.96875,0.0,0,0
1772204852.402682,1772204852.3604774,656.73828125,-70.80078125,86.42578125,306.640625,0.0,0,0
1772204852.402713,1772204852.3643727,642.08984375,-173.828125,43.9453125,312.01171875,0.0,0,0
1772204852.402786,1772204852.3682683,-281.25,-80.56640625,-298.828125,-264.16015625,0.0,0,0
1772204852.402831,1772204852.3721635,-948.73046875,-82.51953125,-507.32421875,-685.05859375,0.0,0,0
1772204852.46206,1772204852.376307,-494.62890625,-32.2265625,-278.80859375,-402.34375,0.0,0,0
1772204852.4621031,1772204852.3802023,433.10546875,38.0859375,48.33984375,188.96484375,0.0,0,0
1772204852.462118,1772204852.3840978,612.3046875,20.99609375,56.15234375,306.640625,0.0,0,0
1772204852.462132,1772204852.3879933,-191.89453125,-50.78125,-270.99609375,-198.2421875,0.0,0,0
1772204852.462145,1772204852.3918886,-957.03125,-92.7734375,-512.6953125,-696.2890625,0.0,0,0
1772204852.462187,1772204852.3957841,-613.28125,-45.8984375,-283.203125,-503.90625,0.0,0,0
1772204852.462204,1772204852.3996797,317.3828125,26.3671875,113.28125,115.234375,0.0,0,0
1772204852.4622169,1772204852.4035752,650.87890625,16.6015625,181.15234375,333.0078125,0.0,0,0
1772204852.46223,1772204852.4074705,-98.6328125,-174.8046875,-101.5625,-145.01953125,0.0,0,0
1772204852.4622421,1772204852.411366,-954.58984375,-190.4296875,-363.76953125,-690.91796875,0.0,0,0
1772204852.4622562,1772204852.4152615,-763.671875,-49.31640625,-283.203125,-581.54296875,0.0,0,0
1772204852.4622688,1772204852.4191568,187.01171875,-5.859375,41.50390625,27.83203125,0.0,0,0
1772204852.4929569,1772204852.4232016,650.87890625,-5.859375,133.30078125,333.49609375,0.0,0,0
1772204852.492983,1772204852.427097,-33.203125,-59.5703125,-170.8984375,-55.6640625,0.0,0,0
1772204852.4929988,1772204852.4309926,-882.32421875,-109.86328125,-482.91015625,-616.69921875,0.0,0,0
1772204852.493014,1772204852.434888,-778.80859375,-84.47265625,-439.453125,-595.21484375,0.0,0,0
1772204852.493029,1772204852.4387834,186.03515625,-7.8125,-80.56640625,-5.859375,0.0,0,0
1772204852.493063,1772204852.442679,750.0,19.53125,137.20703125,367.1875,0.0,0,0
1772204852.493088,1772204852.4465744,117.1875,-58.59375,-94.7265625,28.3203125,0.0,0,0
1772204852.49312,1772204852.45047,-801.7578125,-127.9296875,-413.0859375,-562.5,0.0,0,0
1772204852.4931378,1772204852.4543655,-889.6484375,-109.86328125,-398.4375,-607.91015625,0.0,0,0
1772204852.493153,1772204852.4582608,-21.484375,-36.62109375,-38.57421875,-58.10546875,0.0,0,0
1772204852.4931688,1772204852.4621563,644.53125,14.6484375,182.12890625,357.91015625,0.0,0,0
1772204852.493184,1772204852.4660518,210.44921875,-136.71875,-26.3671875,86.9140625,0.0,0,0
1772204852.537994,1772204852.4700782,-700.1953125,-220.703125,-326.66015625,-504.8828125,0.0,0,0
1772204852.538045,1772204852.4739738,-937.98828125,-91.30859375,-364.2578125,-662.59765625,0.0,0,0
1772204852.5380638,1772204852.4778693,-124.51171875,-16.6015625,-41.9921875,-151.85546875,0.0,0,0
1772204852.5380821,1772204852.4817648,702.1484375,13.671875,213.8671875,347.65625,0.0,0,0
1772204852.538099,1772204852.4856603,388.18359375,-31.73828125,56.640625,144.53125,0.0,0,0
1772204852.538116,1772204852.4895558,-555.17578125,-84.47265625,-275.390625,-457.03125,0.0,0,0
1772204852.538134,1772204852.4934514,-917.96875,-98.14453125,-387.6953125,-670.8984375,0.0,0,0
1772204852.538151,1772204852.4973469,-205.56640625,-144.04296875,-95.703125,-230.95703125,0.0,0,0
1772204852.5382242,1772204852.5012424,648.4375,-52.734375,213.8671875,295.41015625,0.0,0,0
1772204852.538244,1772204852.505138,478.02734375,3.90625,89.35546875,220.703125,0.0,0,0
1772204852.538261,1772204852.5090332,-395.5078125,-79.1015625,-289.55078125,-343.26171875,0.0,0,0
1772204852.5382788,1772204852.5129287,-877.44140625,-84.47265625,-415.52734375,-647.94921875,0.0,0,0
1772204852.58305,1772204852.516944,-288.57421875,-16.11328125,-100.09765625,-302.24609375,0.0,0,0
1772204852.5830882,1772204852.5208395,627.9296875,40.0390625,235.3515625,263.671875,0.0,0,0
1772204852.583101,1772204852.524735,632.32421875,-0.9765625,180.6640625,251.953125,0.0,0,0
1772204852.583113,1772204852.5286305,-255.859375,-81.54296875,-209.9609375,-338.8671875,0.0,0,0
1772204852.583124,1772204852.532526,-867.1875,-98.14453125,-419.43359375,-696.77734375,0.0,0,0
1772204852.583135,1772204852.5364215,-404.296875,-23.92578125,-211.42578125,-392.08984375,0.0,0,0
1772204852.583146,1772204852.540317,556.640625,-17.578125,89.84375,180.6640625,0.0,0,0
1772204852.5831559,1772204852.5442126,676.26953125,-69.3359375,98.6328125,273.92578125,0.0,0,0
1772204852.583167,1772204852.548108,-161.1328125,-64.94140625,-229.4921875,-241.69921875,0.0,0,0
1772204852.5831769,1772204852.5520036,-809.08203125,-87.40234375,-458.49609375,-683.59375,0.0,0,0
1772204852.583188,1772204852.5558991,-413.57421875,-51.26953125,-258.7890625,-445.3125,0.0,0,0
1772204852.583198,1772204852.5597947,513.18359375,23.4375,86.42578125,166.50390625,0.0,0,0
1772204852.6427178,1772204852.563796,768.06640625,39.55078125,150.87890625,356.93359375,0.0,0,0
1772204852.6427488,1772204852.5676916,-1.953125,-37.59765625,-123.53515625,-103.02734375,0.0,0,0
1772204852.642765,1772204852.571587,-804.19921875,-96.19140625,-386.71875,-604.00390625,0.0,0,0
1772204852.6427782,1772204852.5754826,-594.7265625,-54.6875,-222.16796875,-479.98046875,0.0,0,0
1772204852.642792,1772204852.5793781,314.94140625,20.01953125,145.99609375,125.9765625,0.0,0,0
1772204852.642805,1772204852.5832736,733.3984375,35.64453125,199.70703125,388.671875,0.0,0,0
1772204852.642818,1772204852.5871692,56.640625,-232.91015625,-126.953125,-27.34375,0.0,0,0
1772204852.6428318,1772204852.5910647,-752.9296875,-265.13671875,-438.4765625,-563.96484375,0.0,0,0
1772204852.642845,1772204852.5949602,-601.07421875,-40.52734375,-348.6328125,-515.13671875,0.0,0,0
1772204852.642858,1772204852.5988557,270.99609375,0.0,22.94921875,77.1484375,0.0,0,0
1772204852.6428711,1772204852.6027513,720.21484375,10.7421875,169.921875,411.62109375,0.0,0,0
1772204852.64289,1772204852.606647,158.203125,-25.390625,-89.35546875,69.82421875,0.0,0,0
1772204852.6873212,1772204852.6106544,-725.09765625,-65.4296875,-371.09375,-502.9296875,0.0,0,0
1772204852.68737,1772204852.6145499,-813.4765625,-68.359375,-316.89453125,-553.7109375,0.0,0,0
1772204852.687391,1772204852.6184456,129.39453125,-6.8359375,40.0390625,6.8359375,0.0,0,0
1772204852.6874108,1772204852.6223412,765.13671875,40.0390625,251.953125,421.875,0.0,0,0
1772204852.6874292,1772204852.6262367,328.61328125,4.39453125,31.73828125,135.7421875,0.0,0,0
1772204852.687447,1772204852.6301322,-566.40625,-151.85546875,-299.31640625,-462.890625,0.0,0,0
1772204852.687464,1772204852.6340277,-806.15234375,-181.15234375,-333.0078125,-610.3515625,0.0,0,0
1772204852.687482,1772204852.6379232,-33.203125,-12.20703125,4.8828125,-103.02734375,0.0,0,0
1772204852.687499,1772204852.641819,726.07421875,40.52734375,227.5390625,392.578125,0.0,0,0
1772204852.6875148,1772204852.6457145,447.75390625,-92.28515625,-6.8359375,178.22265625,0.0,0,0
1772204852.687532,1772204852.64961,-468.75,-177.24609375,-337.40234375,-414.55078125,0.0,0,0
1772204852.687577,1772204852.6535056,-793.9453125,-95.703125,-414.55078125,-626.46484375,0.0,0,0
1772204852.7622669,1772204852.657753,-111.328125,-17.578125,-122.55859375,-174.31640625,0.0,0,0
1772204852.762319,1772204852.6616485,738.76953125,34.66796875,184.08203125,374.51171875,0.0,0,0
1772204852.762358,1772204852.6655443,568.84765625,-8.7890625,64.94140625,250.48828125,0.0,0,0
1772204852.762389,1772204852.6694398,-387.20703125,-76.171875,-274.4140625,-374.51171875,0.0,0,0
1772204852.762419,1772204852.6733356,-871.09375,-81.0546875,-381.34765625,-662.59765625,0.0,0,0
1772204852.762454,1772204852.677231,-237.79296875,-35.64453125,-96.6796875,-274.4140625,0.0,0,0
1772204852.762484,1772204852.6811266,696.77734375,10.25390625,209.9609375,302.734375,0.0,0,0
1772204852.7625139,1772204852.6850224,613.28125,10.25390625,153.3203125,280.76171875,0.0,0,0
1772204852.7625449,1772204852.6889179,-311.03515625,-86.9140625,-191.40625,-299.31640625,0.0,0,0
1772204852.7625751,1772204852.6928136,-828.61328125,-250.0,-364.74609375,-675.78125,0.0,0,0
1772204852.762605,1772204852.6967092,-327.1484375,-110.3515625,-108.88671875,-370.60546875,0.0,0,0
1772204852.762635,1772204852.7006047,571.77734375,59.5703125,220.703125,236.328125,0.0,0,0
1772204852.7944021,1772204852.7047513,688.96484375,5.37109375,207.03125,324.70703125,0.0,0,0
1772204852.794507,1772204852.7086468,-176.7578125,-75.68359375,-150.87890625,-222.16796875,0.0,0,0
1772204852.794553,1772204852.7125425,-848.14453125,-85.44921875,-389.6484375,-684.08203125,0.0,0,0
1772204852.794602,1772204852.716438,-511.23046875,-21.484375,-189.453125,-444.3359375,0.0,0,0
1772204852.7946408,1772204852.7203338,399.90234375,17.578125,161.62109375,160.64453125,0.0,0,0
1772204852.794682,1772204852.7242296,676.7578125,4.39453125,244.140625,327.1484375,0.0,0,0
1772204852.794719,1772204852.728125,-93.26171875,-52.24609375,-67.3828125,-150.87890625,0.0,0,0
1772204852.7947562,1772204852.7320209,-839.84375,-104.98046875,-358.88671875,-646.484375,0.0,0,0
1772204852.794794,1772204852.7359164,-560.05859375,-55.6640625,-199.21875,-493.1640625,0.0,0,0
1772204852.794831,1772204852.7398121,343.26171875,24.90234375,159.66796875,103.515625,0.0,0,0
1772204852.794867,1772204852.743708,701.66015625,31.73828125,225.5859375,309.08203125,0.0,0,0
1772204852.794904,1772204852.7476034,31.73828125,-42.48046875,-64.94140625,-124.51171875,0.0,0,0
1772204852.824013,1772204852.7516584,-832.51953125,-93.75,-320.80078125,-653.80859375,0.0,0,0
1772204852.8241081,1772204852.7555542,-740.234375,-73.2421875,-221.19140625,-602.5390625,0.0,0,0
1772204852.82415,1772204852.75945,203.125,-1.46484375,124.51171875,-4.8828125,0.0,0,0
1772204852.824189,1772204852.7633457,693.84765625,33.203125,249.51171875,324.70703125,0.0,0,0
1772204852.824227,1772204852.7672412,142.578125,-147.94921875,-26.3671875,-20.5078125,0.0,0,0
1772204852.824264,1772204852.771137,-682.6171875,-206.0546875,-316.40625,-607.91015625,0.0,0,0
1772204852.8243022,1772204852.7750328,-750.9765625,-69.3359375,-285.64453125,-648.92578125,0.0,0,0
1772204852.824341,1772204852.7789283,113.76953125,3.41796875,49.31640625,-67.3828125,0.0,0,0
1772204852.824378,1772204852.782824,716.796875,43.45703125,244.140625,335.9375,0.0,0,0
1772204852.824415,1772204852.7867198,181.15234375,-29.78515625,11.23046875,40.0390625,0.0,0,0
1772204852.8244522,1772204852.7906153,-698.73046875,-89.35546875,-303.7109375,-531.25,0.0,0,0
1772204852.8244889,1772204852.794511,-812.01171875,-104.00390625,-341.796875,-636.23046875,0.0,0,0
1772204852.8683991,1772204852.7985475,20.01953125,-124.51171875,-20.01953125,-126.953125,0.0,0,0
1772204852.868494,1772204852.8024433,756.8359375,-21.484375,252.44140625,354.98046875,0.0,0,0
1772204852.8685381,1772204852.806339,400.390625,-12.20703125,70.80078125,163.0859375,0.0,0,0
1772204852.868577,1772204852.8102348,-514.6484375,-99.609375,-244.62890625,-434.08203125,0.0,0,0
1772204852.8686159,1772204852.8141303,-784.1796875,-91.30859375,-279.78515625,-632.32421875,0.0,0,0
1772204852.868654,1772204852.818026,-73.73046875,-18.5546875,30.2734375,-170.8984375,0.0,0,0
1772204852.868691,1772204852.8219218,666.9921875,44.921875,309.5703125,342.7734375,0.0,0,0
1772204852.868729,1772204852.8258176,402.83203125,-87.890625,195.3125,206.54296875,0.0,0,0
1772204852.868766,1772204852.8297133,-452.63671875,-205.56640625,-147.4609375,-396.484375,0.0,0,0
1772204852.868803,1772204852.8336089,-836.9140625,-101.07421875,-291.015625,-663.57421875,0.0,0,0
1772204852.869045,1772204852.8375046,-185.546875,-19.04296875,-19.04296875,-252.44140625,0.0,0,0
1772204852.869087,1772204852.8414004,667.48046875,36.1328125,291.9921875,308.59375,0.0,0,0
1772204852.912291,1772204852.8454235,581.0546875,14.6484375,229.4921875,254.8828125,0.0,0,0
1772204852.912373,1772204852.8493192,-231.4453125,-57.6171875,-89.84375,-342.28515625,0.0,0,0
1772204852.912415,1772204852.853215,-802.24609375,-78.125,-250.48828125,-681.640625,0.0,0,0
1772204852.912441,1772204852.8571107,-312.98828125,-22.4609375,-18.06640625,-332.51953125,0.0,0,0
1772204852.9124649,1772204852.8610065,535.64453125,36.1328125,293.45703125,254.39453125,0.0,0,0
1772204852.91249,1772204852.8649023,559.08203125,20.99609375,266.11328125,300.78125,0.0,0,0
1772204852.9125152,1772204852.8687978,-180.17578125,-57.6171875,-114.2578125,-266.6015625,0.0,0,0
1772204852.9125388,1772204852.8726935,-851.5625,-177.734375,-341.796875,-684.5703125,0.0,0,0
1772204852.912562,1772204852.8765893,-408.69140625,-103.515625,-132.32421875,-377.9296875,0.0,0,0
1772204852.912587,1772204852.880485,613.28125,39.0625,146.484375,212.890625,0.0,0,0
1772204852.91261,1772204852.8843808,780.76171875,5.859375,158.69140625,341.30859375,0.0,0,0
1772204852.9126332,1772204852.8882766,-24.4140625,-77.1484375,-136.71875,-139.6484375,0.0,0,0
1772204852.9563699,1772204852.8922884,-807.6171875,-112.79296875,-385.25390625,-635.25390625,0.0,0,0
1772204852.956403,1772204852.8961842,-553.22265625,-51.26953125,-249.51171875,-453.125,0.0,0,0
1772204852.956417,1772204852.90008,334.47265625,10.7421875,70.80078125,162.109375,0.0,0,0
1772204852.9564302,1772204852.9039757,632.8125,-2.9296875,150.87890625,372.55859375,0.0,0,0
1772204852.9564989,1772204852.9078712,24.90234375,-65.91796875,-129.8828125,-75.68359375,0.0,0,0
1772204852.9565299,1772204852.911767,-761.23046875,-91.30859375,-382.8125,-582.51953125,0.0,0,0
1772204852.956546,1772204852.9156628,-639.6484375,-152.34375,-291.015625,-466.796875,0.0,0,0
1772204852.95656,1772204852.9195585,338.37890625,-144.53125,16.11328125,113.28125,0.0,0,0
1772204852.9565902,1772204852.9234543,751.46484375,5.859375,132.8125,403.80859375,0.0,0,0
1772204852.956606,1772204852.92735,166.50390625,-20.99609375,-102.05078125,42.48046875,0.0,0,0
1772204852.956619,1772204852.9312458,-719.23828125,-99.609375,-361.328125,-511.23046875,0.0,0,0
1772204852.9566321,1772204852.9351416,-734.86328125,-73.2421875,-293.45703125,-488.76953125,0.0,0,0
1772204853.015483,1772204852.9391372,226.07421875,15.625,90.33203125,104.98046875,0.0,0,0
1772204853.015511,1772204852.943033,714.35546875,38.57421875,273.4375,435.05859375,0.0,0,0
1772204853.01552,1772204852.9469287,242.1875,-24.90234375,24.90234375,97.65625,0.0,0,0
1772204853.015529,1772204852.9508245,-557.6171875,-91.796875,-274.90234375,-457.51953125,0.0,0,0
1772204853.015538,1772204852.9547203,-717.7734375,-81.54296875,-282.2265625,-551.7578125,0.0,0,0
1772204853.015546,1772204852.958616,104.00390625,16.11328125,52.734375,-22.94921875,0.0,0,0
1772204853.0155551,1772204852.9625118,721.6796875,-140.13671875,266.6015625,429.6875,0.0,0,0
1772204853.01559,1772204852.9664075,330.078125,-187.01171875,38.57421875,183.10546875,0.0,0,0
1772204853.015632,1772204852.9703033,-513.18359375,-56.640625,-324.70703125,-414.0625,0.0,0,0
1772204853.015643,1772204852.974199,-807.12890625,-77.1484375,-409.1796875,-586.9140625,0.0,0,0
1772204853.0156531,1772204852.9780948,-53.22265625,-11.23046875,-129.39453125,-113.28125,0.0,0,0
1772204853.0156622,1772204852.9819906,736.328125,42.96875,97.65625,413.0859375,0.0,0,0
1772204853.061567,1772204852.9860616,442.87109375,6.8359375,-4.39453125,274.4140625,0.0,0,0
1772204853.0616,1772204852.9899573,-427.734375,-73.2421875,-300.78125,-340.33203125,0.0,0,0
1772204853.061611,1772204852.993853,-747.0703125,-95.21484375,-387.6953125,-586.42578125,0.0,0,0
1772204853.06162,1772204852.9977489,-114.2578125,-18.06640625,-98.6328125,-166.015625,0.0,0,0
1772204853.0616288,1772204853.0016448,715.8203125,68.84765625,186.03515625,383.7890625,0.0,0,0
1772204853.0616379,1772204853.0055406,587.890625,-70.3125,94.23828125,312.01171875,0.0,0,0
1772204853.061646,1772204853.0094364,-358.88671875,-190.4296875,-259.27734375,-292.48046875,0.0,0,0
1772204853.061655,1772204853.0133321,-844.7265625,-79.58984375,-381.8359375,-626.953125,0.0,0,0
1772204853.061663,1772204853.017228,-233.3984375,7.8125,-80.078125,-285.64453125,0.0,0,0
1772204853.061672,1772204853.0211236,614.74609375,-13.671875,220.21484375,271.484375,0.0,0,0
1772204853.0616908,1772204853.0250196,600.5859375,-45.41015625,169.921875,297.8515625,0.0,0,0
1772204853.061714,1772204853.0289154,-234.375,-30.76171875,-155.76171875,-245.1171875,0.0,0,0
1772204853.1066391,1772204853.032976,-805.17578125,-64.94140625,-338.37890625,-639.16015625,0.0,0,0
1772204853.106673,1772204853.0368717,-391.6015625,-17.08984375,-102.05078125,-330.56640625,0.0,0,0
1772204853.1066859,1772204853.0407674,518.06640625,47.8515625,225.09765625,258.30078125,0.0,0,0
1772204853.1066968,1772204853.0446632,687.5,36.62109375,242.1875,358.3984375,0.0,0,0
1772204853.106708,1772204853.0485592,-92.28515625,-42.48046875,-62.5,-147.4609375,0.0,0,0
1772204853.106718,1772204853.052455,-793.9453125,-80.078125,-310.546875,-635.25390625,0.0,0,0
1772204853.1067278,1772204853.0563507,-540.0390625,-44.921875,-164.0625,-445.3125,0.0,0,0
1772204853.1067379,1772204853.0602465,338.8671875,27.34375,165.0390625,149.4140625,0.0,0,0
1772204853.106747,1772204853.0641425,622.0703125,23.92578125,225.09765625,342.28515625,0.0,0,0
1772204853.1067572,1772204853.0680382,3.90625,-156.25,-73.73046875,-104.00390625,0.0,0,0
1772204853.106766,1772204853.071934,-722.16796875,-172.8515625,-352.05078125,-620.60546875,0.0,0,0
1772204853.106776,1772204853.0758297,-587.40234375,-42.48046875,-226.07421875,-490.234375,0.0,0,0
1772204853.1516721,1772204853.0798776,321.2890625,22.4609375,120.60546875,107.421875,0.0,0,0
1772204853.1516988,1772204853.0837734,736.328125,34.1796875,221.19140625,355.46875,0.0,0,0
1772204853.1517131,1772204853.0876691,70.3125,-17.08984375,-42.96875,-38.0859375,0.0,0,0
1772204853.151726,1772204853.0915651,-813.96484375,-56.15234375,-326.171875,-614.74609375,0.0,0,0
1772204853.1517382,1772204853.095461,-742.1875,-40.0390625,-259.27734375,-616.69921875,0.0,0,0
1772204853.1517498,1772204853.099357,127.44140625,28.3203125,82.03125,-31.73828125,0.0,0,0
1772204853.151762,1772204853.1032526,745.60546875,48.828125,235.83984375,325.1953125,0.0,0,0
1772204853.151774,1772204853.1071484,269.04296875,20.5078125,-15.625,9.765625,0.0,0,0
1772204853.151785,1772204853.1110444,-658.203125,-149.90234375,-347.65625,-549.31640625,0.0,0,0
1772204853.151797,1772204853.1149402,-729.00390625,-209.9609375,-345.21484375,-628.90625,0.0,0,0
1772204853.151808,1772204853.118836,96.19140625,21.484375,20.99609375,-98.14453125,0.0,0,0
1772204853.15182,1772204853.122732,686.5234375,77.1484375,256.8359375,332.51953125,0.0,0,0
1772204853.1971571,1772204853.126775,275.390625,-0.9765625,40.0390625,80.56640625,0.0,0,0
1772204853.1971982,1772204853.1306708,-589.84375,-64.94140625,-282.71484375,-487.79296875,0.0,0,0
1772204853.197213,1772204853.1345668,-812.98828125,-55.6640625,-307.12890625,-616.69921875,0.0,0,0
1772204853.197226,1772204853.1384625,-76.171875,21.97265625,19.04296875,-122.0703125,0.0,0,0
1772204853.197237,1772204853.1423585,657.71484375,64.94140625,271.484375,363.28125,0.0,0,0
1772204853.1972501,1772204853.1462543,420.41015625,14.6484375,91.30859375,172.8515625,0.0,0,0
1772204853.197262,1772204853.15015,-427.24609375,-45.41015625,-239.2578125,-412.109375,0.0,0,0
1772204853.197273,1772204853.154046,-768.5546875,-62.01171875,-307.12890625,-650.390625,0.0,0,0
1772204853.1972852,1772204853.1579418,-145.5078125,-155.2734375,-29.78515625,-246.09375,0.0,0,0
1772204853.1972961,1772204853.1618378,696.77734375,-61.03515625,235.83984375,332.51953125,0.0,0,0
1772204853.1973069,1772204853.1657336,591.796875,46.38671875,104.4921875,269.53125,0.0,0,0
1772204853.1973178,1772204853.1696296,-324.70703125,-51.26953125,-224.609375,-322.265625,0.0,0,0
1772204853.241678,1772204853.1736567,-828.61328125,-70.80078125,-327.1484375,-604.00390625,0.0,0,0
1772204853.2417789,1772204853.1775525,-255.859375,0.0,-88.37890625,-237.3046875,0.0,0,0
1772204853.241796,1772204853.1814485,571.2890625,59.5703125,185.546875,313.4765625,0.0,0,0
1772204853.241811,1772204853.1853442,593.75,19.53125,140.13671875,344.7265625,0.0,0,0
1772204853.241825,1772204853.1892402,-174.31640625,-60.546875,-214.35546875,-214.35546875,0.0,0,0
1772204853.241838,1772204853.1931362,-744.62890625,-73.2421875,-417.48046875,-609.375,0.0,0,0
1772204853.2418509,1772204853.197032,-334.47265625,-3.41796875,-188.96484375,-309.08203125,0.0,0,0
1772204853.241864,1772204853.200928,514.16015625,-28.3203125,91.796875,267.578125,0.0,0,0
1772204853.241877,1772204853.2048237,708.0078125,-80.078125,79.58984375,363.28125,0.0,0,0
1772204853.24189,1772204853.2087197,-60.05859375,-49.8046875,-235.3515625,-135.25390625,0.0,0,0
1772204853.241903,1772204853.2126155,-797.8515625,-83.984375,-455.56640625,-593.26171875,0.0,0,0
1772204853.241916,1772204853.2165115,-437.98828125,-30.76171875,-254.39453125,-382.8125,0.0,0,0
1772204853.287112,1772204853.2205348,466.796875,44.43359375,59.5703125,196.2890625,0.0,0,0
1772204853.287152,1772204853.2244308,687.5,32.71484375,122.55859375,348.6328125,0.0,0,0
1772204853.287172,1772204853.2283266,17.08984375,-46.38671875,-174.8046875,-114.74609375,0.0,0,0
1772204853.2871912,1772204853.2322226,-729.98046875,-95.703125,-426.26953125,-621.58203125,0.0,0,0
1772204853.28721,1772204853.2361186,-566.40625,-48.33984375,-281.25,-473.6328125,0.0,0,0
1772204853.287227,1772204853.2400143,333.49609375,36.1328125,50.78125,150.390625,0.0,0,0
1772204853.287245,1772204853.2439103,727.5390625,45.8984375,170.8984375,396.97265625,0.0,0,0
1772204853.287262,1772204853.2478063,118.1640625,-132.32421875,-30.2734375,-30.2734375,0.0,0,0
1772204853.28728,1772204853.251702,-678.22265625,-174.31640625,-268.06640625,-591.30859375,0.0,0,0
1772204853.287297,1772204853.255598,-644.04296875,-45.41015625,-219.7265625,-571.77734375,0.0,0,0
1772204853.287314,1772204853.259494,197.75390625,15.625,123.53515625,-9.27734375,0.0,0,0
1772204853.287331,1772204853.2633898,727.5390625,31.73828125,299.31640625,337.890625,0.0,0,0
1772204853.3630059,1772204853.267565,245.60546875,-18.5546875,58.10546875,0.0,0.0,0,0
1772204853.36305,1772204853.271461,-595.703125,-81.0546875,-237.3046875,-559.5703125,0.0,0,0
1772204853.363081,1772204853.275357,-672.8515625,-73.2421875,-221.19140625,-592.7734375,0.0,0,0
1772204853.363112,1772204853.279253,140.13671875,0.0,91.796875,-72.75390625,0.0,0,0
1772204853.36319,1772204853.2831488,736.81640625,30.76171875,270.5078125,328.125,0.0,0,0
1772204853.3632388,1772204853.2870448,351.5625,2.44140625,30.76171875,68.359375,0.0,0,0
1772204853.363271,1772204853.2909408,-518.5546875,-133.30078125,-277.34375,-523.4375,0.0,0,0
1772204853.363302,1772204853.2948368,-758.30078125,-196.2890625,-320.80078125,-662.109375,0.0,0,0
1772204853.3633332,1772204853.2987328,4.39453125,-20.01953125,-33.203125,-140.13671875,0.0,0,0
1772204853.363363,1772204853.3026288,729.4921875,50.29296875,206.54296875,334.47265625,0.0,0,0
1772204853.363395,1772204853.3065245,419.43359375,-23.92578125,55.6640625,138.18359375,0.0,0,0
1772204853.363424,1772204853.3104205,-438.4765625,-93.75,-222.16796875,-435.546875,0.0,0,0
1772204853.3768032,1772204853.31442,-726.5625,-87.40234375,-278.3203125,-649.4140625,0.0,0,0
1772204853.376874,1772204853.318316,-80.56640625,-21.97265625,2.9296875,-211.9140625,0.0,0,0
1772204853.376914,1772204853.322212,689.94140625,28.80859375,262.20703125,337.890625,0.0,0,0
1772204853.3769448,1772204853.326108,531.25,-17.08984375,120.1171875,228.515625,0.0,0,0
1772204853.376975,1772204853.3300037,-350.5859375,-95.21484375,-229.4921875,-359.86328125,0.0,0,0
1772204853.377006,1772204853.3338997,-782.71484375,-103.515625,-368.1640625,-627.44140625,0.0,0,0
1772204853.377077,1772204853.3377957,-197.265625,-40.0390625,-123.53515625,-240.72265625,0.0,0,0
1772204853.377116,1772204853.3416917,647.4609375,17.08984375,175.29296875,323.2421875,0.0,0,0
1772204853.377148,1772204853.3455877,556.640625,-12.20703125,106.4453125,303.22265625,0.0,0,0
1772204853.377179,1772204853.3494837,-365.72265625,-88.37890625,-232.91015625,-273.4375,0.0,0,0
1772204853.377213,1772204853.3533797,-826.66015625,-116.2109375,-410.15625,-659.1796875,0.0,0,0
1772204853.377244,1772204853.3572757,-281.25,-54.19921875,-190.4296875,-349.609375,0.0,0,0
1772204853.438144,1772204853.3612642,562.98828125,35.64453125,94.7265625,245.60546875,0.0,0,0
1772204853.438285,1772204853.3651602,662.109375,-15.13671875,50.29296875,318.359375,0.0,0,0
1772204853.438439,1772204853.3690562,-145.99609375,-151.3671875,-297.36328125,-208.49609375,0.0,0,0
1772204853.438505,1772204853.3729522,-801.26953125,-138.18359375,-487.3046875,-638.671875,0.0,0,0
1772204853.438565,1772204853.3768482,-438.96484375,-26.85546875,-255.37109375,-427.734375,0.0,0,0
1772204853.438617,1772204853.3807442,446.2890625,-30.2734375,79.58984375,140.625,0.0,0,0
1772204853.4386702,1772204853.3846402,649.90234375,-103.515625,111.81640625,309.08203125,0.0,0,0
1772204853.438733,1772204853.3885362,-97.65625,-89.84375,-202.1484375,-165.52734375,0.0,0,0
1772204853.438784,1772204853.3924322,-775.390625,-106.4453125,-431.15234375,-649.90234375,0.0,0,0
1772204853.438835,1772204853.3963282,-490.234375,-72.265625,-290.52734375,-481.4453125,0.0,0,0
1772204853.4388852,1772204853.4002242,357.91015625,-6.8359375,15.625,87.890625,0.0,0,0
1772204853.438935,1772204853.4041202,688.4765625,-11.71875,142.08984375,316.89453125,0.0,0,0
1772204853.482943,1772204853.4081845,92.7734375,-82.51953125,-90.8203125,-91.30859375,0.0,0,0
1772204853.483042,1772204853.4120805,-743.65234375,-131.8359375,-391.11328125,-624.51171875,0.0,0,0
1772204853.483084,1772204853.4159765,-628.41796875,-100.5859375,-326.66015625,-540.0390625,0.0,0,0
1772204853.483125,1772204853.4198725,279.296875,-24.90234375,46.875,52.734375,0.0,0,0
1772204853.483165,1772204853.4237685,678.7109375,-19.53125,152.34375,354.00390625,0.0,0,0
1772204853.483202,1772204853.4276648,132.32421875,-122.55859375,-139.6484375,-10.25390625,0.0,0,0
1772204853.4832408,1772204853.4315608,-676.26953125,-180.6640625,-362.3046875,-566.40625,0.0,0,0
1772204853.483279,1772204853.4354568,-711.42578125,-123.046875,-275.390625,-578.125,0.0,0,0
1772204853.483317,1772204853.4393528,100.09765625,-55.17578125,57.12890625,-26.3671875,0.0,0,0
1772204853.483358,1772204853.4432487,657.71484375,-92.7734375,268.5546875,351.07421875,0.0,0,0
1772204853.483395,1772204853.4471447,292.48046875,-115.72265625,54.6875,67.87109375,0.0,0,0
1772204853.483434,1772204853.4510407,-551.7578125,-119.62890625,-252.9296875,-507.32421875,0.0,0,0
1772204853.5273228,1772204853.4550936,-799.31640625,-126.953125,-240.234375,-653.3203125,0.0,0,0
1772204853.5273962,1772204853.4589896,-48.33984375,-63.96484375,94.23828125,-149.4140625,0.0,0,0
1772204853.527431,1772204853.4628856,704.1015625,-14.16015625,309.08203125,330.56640625,0.0,0,0
1772204853.527466,1772204853.4667816,367.67578125,-60.05859375,121.09375,108.88671875,0.0,0,0
1772204853.527497,1772204853.4706776,-541.015625,-135.7421875,-204.1015625,-491.69921875,0.0,0,0
1772204853.527528,1772204853.4745739,-770.01953125,-131.8359375,-282.2265625,-676.7578125,0.0,0,0
1772204853.52756,1772204853.4784698,-145.5078125,-71.2890625,-27.34375,-217.7734375,0.0,0,0
1772204853.527589,1772204853.4823658,630.859375,17.08984375,208.984375,322.265625,0.0,0,0
1772204853.5276191,1772204853.4862618,515.13671875,-159.1796875,87.40234375,204.58984375,0.0,0,0
1772204853.527649,1772204853.4901578,-396.484375,-317.87109375,-218.26171875,-374.0234375,0.0,0,0
1772204853.5276952,1772204853.494054,-824.21875,-126.953125,-317.87109375,-634.765625,0.0,0,0
1772204853.527728,1772204853.49795,-258.7890625,-33.69140625,-86.42578125,-256.8359375,0.0,0,0
1772204853.573907,1772204853.5019896,588.37890625,4.8828125,175.78125,294.43359375,0.0,0,0
1772204853.573997,1772204853.5058856,528.3203125,-20.5078125,102.5390625,270.01953125,0.0,0,0
1772204853.574029,1772204853.5097818,-363.76953125,-78.125,-212.40234375,-289.0625,0.0,0,0
1772204853.574062,1772204853.5136778,-840.33203125,-102.5390625,-334.9609375,-641.6015625,0.0,0,0
1772204853.574267,1772204853.5175738,-308.10546875,-69.3359375,-91.30859375,-326.66015625,0.0,0,0
1772204853.574304,1772204853.52147,516.6015625,-8.30078125,190.4296875,261.71875,0.0,0,0
1772204853.574334,1772204853.525366,599.12109375,-6.8359375,148.4375,326.66015625,0.0,0,0
1772204853.574365,1772204853.529262,-239.74609375,-75.68359375,-183.59375,-223.6328125,0.0,0,0
1772204853.5743942,1772204853.533158,-864.74609375,-277.34375,-382.32421875,-616.2109375,0.0,0,0
1772204853.574423,1772204853.5370543,-423.828125,-179.19921875,-166.9921875,-319.82421875,0.0,0,0
1772204853.574452,1772204853.5409503,413.57421875,46.875,140.13671875,246.58203125,0.0,0,0
1772204853.574481,1772204853.5448463,603.515625,6.34765625,190.91796875,365.234375,0.0,0,0
1772204853.661193,1772204853.5488756,-103.02734375,-75.68359375,-85.9375,-108.3984375,0.0,0,0
1772204853.661299,1772204853.5527716,-838.8671875,-100.09765625,-348.6328125,-604.4921875,0.0,0,0
1772204853.6613388,1772204853.5566678,-636.23046875,-50.29296875,-216.30859375,-446.77734375,0.0,0,0
1772204853.661381,1772204853.5605638,303.22265625,9.27734375,114.74609375,153.3203125,0.0,0,0
1772204853.661419,1772204853.5644598,595.21484375,14.16015625,184.5703125,341.30859375,0.0,0,0
1772204853.661495,1772204853.568356,-78.61328125,-51.7578125,-86.42578125,-94.23828125,0.0,0,0
1772204853.6615622,1772204853.572252,-762.6953125,-74.70703125,-319.3359375,-577.63671875,0.0,0,0
1772204853.6616051,1772204853.576148,-664.55078125,-129.8828125,-211.9140625,-493.65234375,0.0,0,0
1772204853.661644,1772204853.5800443,194.3359375,-115.234375,101.07421875,85.9375,0.0,0,0
1772204853.661682,1772204853.5839403,617.67578125,26.3671875,227.5390625,381.8359375,0.0,0,0
1772204853.66172,1772204853.5878365,71.77734375,-19.04296875,-28.80859375,-1.953125,0.0,0,0
1772204853.6617558,1772204853.5917325,-759.765625,-94.23828125,-333.49609375,-578.125,0.0,0,0
1772204853.663705,1772204853.5957592,-851.07421875,-66.89453125,-250.9765625,-586.42578125,0.0,0,0
1772204853.6637802,1772204853.5996552,53.22265625,12.20703125,83.49609375,-7.8125,0.0,0,0
1772204853.6638231,1772204853.6035514,663.57421875,20.01953125,237.3046875,361.328125,0.0,0,0
1772204853.663868,1772204853.6074474,187.01171875,-42.96875,27.34375,46.38671875,0.0,0,0
1772204853.663907,1772204853.6113436,-621.09375,-98.6328125,-250.0,-525.87890625,0.0,0,0
1772204853.663945,1772204853.6152396,-771.484375,-72.265625,-189.94140625,-643.06640625,0.0,0,0
1772204853.6639822,1772204853.6191359,18.5546875,6.34765625,174.31640625,-127.44140625,0.0,0,0
1772204853.664021,1772204853.6230319,672.8515625,-21.484375,354.98046875,331.54296875,0.0,0,0
1772204853.664059,1772204853.6269279,281.73828125,-55.17578125,115.234375,104.00390625,0.0,0,0
1772204853.664095,1772204853.630824,-605.95703125,-76.66015625,-205.078125,-463.8671875,0.0,0,0
1772204853.664133,1772204853.63472,-783.69140625,-88.8671875,-258.7890625,-637.20703125,0.0,0,0
1772204853.664181,1772204853.6386163,-83.0078125,-10.7421875,26.3671875,-191.40625,0.0,0,0
1772204853.707947,1772204853.64262,622.0703125,43.45703125,286.62109375,315.4296875,0.0,0,0
1772204853.708082,1772204853.646516,452.63671875,-6.8359375,134.765625,178.22265625,0.0,0,0
1772204853.708135,1772204853.6504123,-387.6953125,-74.70703125,-193.84765625,-400.390625,0.0,0,0
1772204853.708193,1772204853.6543083,-766.6015625,-80.56640625,-287.59765625,-625.9765625,0.0,0,0
1772204853.708245,1772204853.6582046,-271.484375,-42.96875,-61.03515625,-227.5390625,0.0,0,0
1772204853.7082958,1772204853.6621006,546.38671875,34.1796875,201.66015625,315.91796875,0.0,0,0
1772204853.7083478,1772204853.6659968,490.72265625,-61.5234375,130.859375,287.109375,0.0,0,0
1772204853.708405,1772204853.6698928,-375.9765625,-245.60546875,-213.8671875,-294.43359375,0.0,0,0
1772204853.7084658,1772204853.673789,-787.59765625,-155.2734375,-388.671875,-631.8359375,0.0,0,0
1772204853.708527,1772204853.677685,-278.3203125,-22.4609375,-192.87109375,-321.2890625,0.0,0,0
1772204853.708575,1772204853.6815813,534.1796875,9.765625,90.8203125,206.0546875,0.0,0,0
1772204853.708618,1772204853.6854775,595.21484375,3.41796875,88.37890625,269.04296875,0.0,0,0
1772204853.7532248,1772204853.689471,-192.87109375,-55.17578125,-209.47265625,-240.72265625,0.0,0,0
1772204853.7533371,1772204853.6933672,-797.36328125,-87.890625,-373.046875,-652.34375,0.0,0,0
1772204853.753394,1772204853.6972635,-431.640625,-32.71484375,-172.36328125,-381.34765625,0.0,0,0
1772204853.7534468,1772204853.7011595,368.65234375,13.18359375,119.62890625,195.3125,0.0,0,0
1772204853.7534988,1772204853.7050557,559.08203125,9.27734375,168.45703125,315.4296875,0.0,0,0
1772204853.75355,1772204853.7089517,-128.90625,-36.62109375,-130.37109375,-189.453125,0.0,0,0
1772204853.7536,1772204853.712848,-812.01171875,-246.09375,-378.90625,-686.5234375,0.0,0,0
1772204853.753651,1772204853.7167442,-538.57421875,-189.453125,-178.22265625,-479.98046875,0.0,0,0
1772204853.753702,1772204853.7206402,339.84375,52.24609375,160.15625,132.8125,0.0,0,0
1772204853.7537751,1772204853.7245364,625.0,30.76171875,185.05859375,323.73046875,0.0,0,0
1772204853.753827,1772204853.7284324,-12.20703125,-41.9921875,-106.93359375,-94.23828125,0.0,0,0
1772204853.753877,1772204853.7323287,-805.6640625,-84.9609375,-357.91015625,-604.98046875,0.0,0,0
1772204853.813993,1772204853.7363122,-695.80078125,-50.29296875,-240.234375,-542.96875,0.0,0,0
1772204853.8141382,1772204853.7402084,221.6796875,9.765625,83.984375,41.9921875,0.0,0,0
1772204853.8141818,1772204853.7441046,668.45703125,21.97265625,194.82421875,317.3828125,0.0,0,0
1772204853.814223,1772204853.7480006,124.0234375,-39.0625,-77.1484375,-71.77734375,0.0,0,0
1772204853.814261,1772204853.7518969,-698.73046875,-60.05859375,-368.65234375,-637.20703125,0.0,0,0
1772204853.8142998,1772204853.755793,-734.86328125,-134.765625,-273.4375,-629.39453125,0.0,0,0
1772204853.814343,1772204853.759689,104.98046875,-181.640625,93.26171875,-50.29296875,0.0,0,0
1772204853.814379,1772204853.7635853,633.30078125,-8.7890625,260.25390625,285.15625,0.0,0,0
1772204853.814416,1772204853.7674813,207.03125,-9.27734375,26.85546875,-21.97265625,0.0,0,0
1772204853.814452,1772204853.7713776,-650.390625,-85.44921875,-292.48046875,-575.1953125,0.0,0,0
1772204853.8144891,1772204853.7752738,-801.7578125,-58.59375,-306.640625,-638.671875,0.0,0,0
1772204853.814525,1772204853.7791698,40.0390625,29.296875,19.04296875,-104.00390625,0.0,0,0
1772204853.8731909,1772204853.7833164,663.57421875,61.03515625,237.3046875,312.98828125,0.0,0,0
1772204853.873325,1772204853.7872126,319.82421875,-4.8828125,68.359375,65.4296875,0.0,0,0
1772204853.8733811,1772204853.7911088,-513.18359375,-78.61328125,-221.19140625,-507.8125,0.0,0,0
1772204853.873421,1772204853.795005,-774.90234375,-75.68359375,-273.4375,-625.9765625,0.0,0,0
1772204853.8734589,1772204853.798901,-81.54296875,-2.44140625,3.41796875,-98.6328125,0.0,0,0
1772204853.873496,1772204853.8027973,645.5078125,27.83203125,247.0703125,412.109375,0.0,0,0
1772204853.873534,1772204853.8066936,417.96875,-16.11328125,87.40234375,242.1875,0.0,0,0
1772204853.8735712,1772204853.8105898,-463.37890625,-83.49609375,-253.90625,-350.09765625,0.0,0,0
1772204853.873611,1772204853.814486,-769.53125,-97.65625,-354.00390625,-569.82421875,0.0,0,0
1772204853.873661,1772204853.818382,-169.43359375,-72.75390625,-116.2109375,-145.5078125,0.0,0,0
1772204853.873698,1772204853.8222783,566.89453125,9.765625,121.58203125,396.484375,0.0,0,0
1772204853.8737438,1772204853.8261745,437.01171875,25.87890625,14.16015625,321.2890625,0.0,0,0
1772204853.9027221,1772204853.8302238,-456.54296875,-65.91796875,-311.03515625,-273.92578125,0.0,0,0
1772204853.9028292,1772204853.83412,-840.33203125,-83.984375,-417.48046875,-575.68359375,0.0,0,0
1772204853.902875,1772204853.8380163,-255.37109375,-7.32421875,-143.5546875,-210.9375,0.0,0,0
1772204853.90292,1772204853.8419125,557.12890625,56.640625,157.2265625,354.4921875,0.0,0,0
1772204853.9029582,1772204853.8458087,567.3828125,17.578125,125.0,346.19140625,0.0,0,0
1772204853.902997,1772204853.849705,-240.72265625,-68.359375,-185.05859375,-232.421875,0.0,0,0
1772204853.903035,1772204853.8536012,-809.08203125,-94.7265625,-367.1875,-602.05078125,0.0,0,0
1772204853.903305,1772204853.8574975,-409.66796875,-34.1796875,-167.96875,-312.01171875,0.0,0,0
1772204853.903347,1772204853.8613937,513.18359375,34.1796875,163.0859375,283.203125,0.0,0,0
1772204853.903386,1772204853.86529,623.046875,17.08984375,182.12890625,396.97265625,0.0,0,0
1772204853.903423,1772204853.8691862,-193.84765625,-70.80078125,-114.74609375,-121.09375,0.0,0,0
1772204853.90346,1772204853.8730824,-731.4453125,-95.21484375,-301.7578125,-575.1953125,0.0,0,0
1772204853.9644108,1772204853.8772063,-424.31640625,-84.47265625,-111.328125,-370.1171875,0.0,0,0
1772204853.9645581,1772204853.8811028,344.7265625,-34.66796875,179.19921875,191.89453125,0.0,0,0
1772204853.964621,1772204853.884999,656.73828125,31.73828125,169.921875,347.65625,0.0,0,0
1772204853.964677,1772204853.8888953,27.34375,-39.55078125,-158.69140625,-111.81640625,0.0,0,0
1772204853.964731,1772204853.8927915,-776.85546875,-104.4921875,-426.7578125,-642.08984375,0.0,0,0
1772204853.9647849,1772204853.8966877,-637.20703125,-51.7578125,-282.2265625,-515.625,0.0,0,0
1772204853.9648361,1772204853.900584,217.7734375,32.71484375,57.6171875,89.84375,0.0,0,0
1772204853.964886,1772204853.9044802,556.640625,38.57421875,138.18359375,342.28515625,0.0,0,0
1772204853.964937,1772204853.9083765,-13.671875,-74.70703125,-104.00390625,-48.828125,0.0,0,0
1772204853.9649868,1772204853.9122727,-773.92578125,-122.55859375,-344.7265625,-567.87109375,0.0,0,0
1772204853.965037,1772204853.916169,-703.61328125,-49.31640625,-270.5078125,-537.109375,0.0,0,0
1772204853.965086,1772204853.9200652,176.7578125,23.4375,76.66015625,24.4140625,0.0,0,0
1772204853.994189,1772204853.9241016,676.26953125,44.921875,208.49609375,350.09765625,0.0,0,0
1772204853.994289,1772204853.9279978,198.73046875,-11.23046875,-47.36328125,-0.48828125,0.0,0,0
1772204853.994344,1772204853.931894,-623.046875,-71.77734375,-328.125,-585.9375,0.0,0,0
1772204853.9943948,1772204853.9357903,-793.9453125,-68.359375,-295.8984375,-639.6484375,0.0,0,0
1772204853.994446,1772204853.9396865,-36.1328125,6.34765625,31.25,-78.61328125,0.0,0,0
1772204853.994495,1772204853.9435828,624.0234375,50.78125,234.86328125,336.9140625,0.0,0,0
1772204853.994545,1772204853.9474792,267.08984375,-7.8125,25.87890625,59.5703125,0.0,0,0
1772204853.994596,1772204853.9513755,-529.78515625,-81.0546875,-286.1328125,-542.96875,0.0,0,0
1772204853.9946492,1772204853.9552717,-732.91015625,-65.91796875,-279.296875,-683.10546875,0.0,0,0
1772204853.994711,1772204853.959168,-64.94140625,22.4609375,65.4296875,-155.2734375,0.0,0,0
1772204853.9947689,1772204853.9630642,555.6640625,62.98828125,316.40625,334.47265625,0.0,0,0
1772204853.994828,1772204853.9669604,232.91015625,-31.25,158.203125,136.23046875,0.0,0,0
1772204854.0372748,1772204853.9709733,-522.4609375,-112.3046875,-152.83203125,-433.59375,0.0,0,0
1772204854.037397,1772204853.9748695,-748.53515625,-82.51953125,-234.375,-645.5078125,0.0,0,0
1772204854.03745,1772204853.978766,-116.69921875,8.30078125,30.76171875,-192.3828125,0.0,0,0
1772204854.037502,1772204853.9826622,609.375,52.24609375,268.06640625,348.14453125,0.0,0,0
1772204854.0375628,1772204853.9865584,416.015625,-5.37109375,141.11328125,231.4453125,0.0,0,0
1772204854.0376132,1772204853.9904547,-372.55859375,-61.5234375,-173.33984375,-362.79296875,0.0,0,0
1772204854.037652,1772204853.9943511,-776.85546875,-76.171875,-299.8046875,-654.78515625,0.0,0,0
1772204854.0376902,1772204853.9982474,-299.31640625,-66.40625,-20.5078125,-273.4375,0.0,0,0
1772204854.0377269,1772204854.0021436,498.046875,0.9765625,285.64453125,272.4609375,0.0,0,0
1772204854.03777,1772204854.0060399,519.53125,14.6484375,192.3828125,244.62890625,0.0,0,0
1772204854.037817,1772204854.0099363,-294.921875,-67.3828125,-144.04296875,-311.03515625,0.0,0,0
1772204854.037855,1772204854.0138326,-799.31640625,-85.44921875,-304.19921875,-688.96484375,0.0,0,0
1772204854.082284,1772204854.0178335,-404.296875,-18.06640625,-69.3359375,-391.11328125,0.0,0,0
1772204854.0824142,1772204854.0217297,406.25,37.59765625,238.28125,194.3359375,0.0,0,0
1772204854.082473,1772204854.0256262,495.60546875,8.30078125,227.05078125,276.85546875,0.0,0,0
1772204854.082529,1772204854.0295224,-235.3515625,-76.171875,-76.171875,-256.8359375,0.0,0,0
1772204854.082582,1772204854.0334187,-781.73828125,-104.98046875,-278.80859375,-691.89453125,0.0,0,0
1772204854.082636,1772204854.0373151,-452.63671875,-34.66796875,-95.703125,-425.78125,0.0,0,0
1772204854.082687,1772204854.0412114,376.953125,16.11328125,197.265625,163.0859375,0.0,0,0
1772204854.082738,1772204854.0451076,580.56640625,-9.27734375,216.30859375,309.5703125,0.0,0,0
1772204854.08279,1772204854.049004,-74.70703125,-51.7578125,-59.08203125,-164.0625,0.0,0,0
1772204854.08284,1772204854.0529003,-748.046875,-89.84375,-300.78125,-672.36328125,0.0,0,0
1772204854.082887,1772204854.0567966,-612.79296875,-51.26953125,-156.73828125,-523.4375,0.0,0,0
1772204854.0829241,1772204854.060693,192.87109375,34.66796875,182.6171875,96.6796875,0.0,0,0
1772204854.127606,1772204854.0646832,594.7265625,33.69140625,265.13671875,347.65625,0.0,0,0
1772204854.1276858,1772204854.0685794,16.11328125,-49.8046875,-14.16015625,-68.84765625,0.0,0,0
1772204854.1277592,1772204854.0724757,-727.5390625,-95.703125,-287.109375,-600.09765625,0.0,0,0
1772204854.1278021,1772204854.0763721,-687.5,-59.08203125,-213.37890625,-548.33984375,0.0,0,0
1772204854.127869,1772204854.0802684,142.08984375,20.99609375,107.421875,25.87890625,0.0,0,0
1772204854.1279218,1772204854.0841646,617.1875,50.29296875,255.859375,341.30859375,0.0,0,0
1772204854.1279612,1772204854.088061,66.89453125,-74.21875,16.6015625,-8.7890625,0.0,0,0
1772204854.1279979,1772204854.0919573,-710.9375,-141.6015625,-276.85546875,-564.94140625,0.0,0,0
1772204854.128035,1772204854.0958538,-780.76171875,-69.82421875,-260.25390625,-593.75,0.0,0,0
1772204854.1280708,1772204854.09975,-2.44140625,-11.71875,77.63671875,-43.45703125,0.0,0,0
1772204854.128108,1772204854.1036463,578.61328125,11.23046875,276.85546875,361.328125,0.0,0,0
1772204854.128145,1772204854.1075428,192.3828125,-29.78515625,56.15234375,67.87109375,0.0,0,0
1772204854.18717,1772204854.111524,-568.84765625,-83.49609375,-235.3515625,-507.32421875,0.0,0,0
1772204854.187284,1772204854.1154206,-832.03125,-86.42578125,-255.859375,-620.60546875,0.0,0,0
1772204854.187317,1772204854.1193168,-120.1171875,-8.7890625,60.546875,-95.21484375,0.0,0,0
1772204854.187349,1772204854.1232133,596.6796875,46.38671875,289.55078125,386.71875,0.0,0,0
1772204854.187379,1772204854.1271095,290.0390625,4.8828125,110.83984375,158.69140625,0.0,0,0
1772204854.187409,1772204854.131006,-536.1328125,-105.95703125,-209.9609375,-450.1953125,0.0,0,0
1772204854.1874402,1772204854.1349022,-804.6875,-143.5546875,-275.87890625,-655.76171875,0.0,0,0
1772204854.187469,1772204854.1387987,-122.55859375,-16.11328125,34.1796875,-193.359375,0.0,0,0
1772204854.187498,1772204854.142695,560.546875,55.17578125,303.22265625,347.65625,0.0,0,0
1772204854.187535,1772204854.1465912,355.46875,1.953125,177.734375,212.40234375,0.0,0,0
1772204854.1875641,1772204854.1504877,-403.3203125,-70.80078125,-161.62109375,-399.4140625,0.0,0,0
1772204854.187594,1772204854.154384,-758.7890625,-74.70703125,-283.69140625,-665.0390625,0.0,0,0
1772204854.2621179,1772204854.158604,-227.5390625,-9.765625,-15.625,-264.6484375,0.0,0,0
1772204854.262233,1772204854.1625004,527.34375,46.38671875,270.01953125,298.828125,0.0,0,0
1772204854.2622771,1772204854.1663966,406.25,15.13671875,218.75,280.76171875,0.0,0,0
1772204854.262316,1772204854.170293,-366.2109375,-68.84765625,-104.98046875,-306.15234375,0.0,0,0
1772204854.262354,1772204854.1741896,-762.6953125,-87.890625,-286.62109375,-660.64453125,0.0,0,0
1772204854.262391,1772204854.1780858,-328.61328125,-28.80859375,-84.9609375,-332.03125,0.0,0,0
1772204854.2624278,1772204854.1819823,473.6328125,23.4375,175.78125,250.9765625,0.0,0,0
1772204854.262465,1772204854.1858785,500.9765625,2.44140625,151.85546875,319.82421875,0.0,0,0
1772204854.262501,1772204854.189775,-271.97265625,-85.44921875,-152.34375,-223.14453125,0.0,0,0
1772204854.262537,1772204854.1936715,-819.3359375,-114.74609375,-350.09765625,-656.25,0.0,0,0
1772204854.262739,1772204854.1975677,-456.54296875,-56.15234375,-149.90234375,-407.71484375,0.0,0,0
1772204854.262781,1772204854.2014642,344.23828125,27.34375,169.43359375,187.5,0.0,0,0
1772204854.277838,1772204854.205511,562.5,46.38671875,208.49609375,324.21875,0.0,0,0
1772204854.277944,1772204854.2094076,-87.40234375,-25.390625,-73.73046875,-164.55078125,0.0,0,0
1772204854.278003,1772204854.213304,-814.453125,-74.21875,-325.68359375,-665.52734375,0.0,0,0
1772204854.2780569,1772204854.2172003,-606.4453125,-35.15625,-195.80078125,-520.01953125,0.0,0,0
1772204854.27811,1772204854.2210968,248.046875,45.41015625,138.18359375,91.30859375,0.0,0,0
1772204854.278162,1772204854.2249932,558.59375,62.98828125,211.42578125,327.63671875,0.0,0,0
1772204854.278212,1772204854.2288897,-26.85546875,-12.6953125,-79.1015625,-108.3984375,0.0,0,0
1772204854.278263,1772204854.232786,-728.02734375,-73.2421875,-328.125,-627.44140625,0.0,0,0
1772204854.2783139,1772204854.2366824,-593.26171875,-27.34375,-227.05078125,-534.66796875,0.0,0,0
1772204854.278365,1772204854.240579,207.03125,47.8515625,87.890625,32.71484375,0.0,0,0
1772204854.278414,1772204854.2444754,578.125,60.546875,210.9375,315.4296875,0.0,0,0
1772204854.278463,1772204854.2483716,47.36328125,-10.7421875,-36.1328125,-48.828125,0.0,0,0
1772204854.3222458,1772204854.2524028,-699.70703125,-72.75390625,-320.80078125,-599.609375,0.0,0,0
1772204854.32235,1772204854.256299,-722.65625,-56.15234375,-274.4140625,-597.16796875,0.0,0,0
1772204854.3223948,1772204854.2601955,94.23828125,19.04296875,78.125,-15.13671875,0.0,0,0
1772204854.3224351,1772204854.264092,636.23046875,63.4765625,284.1796875,373.046875,0.0,0,0
1772204854.322473,1772204854.2679884,182.12890625,-60.546875,71.2890625,63.4765625,0.0,0,0
1772204854.3225112,1772204854.271885,-604.00390625,-125.48828125,-236.81640625,-519.53125,0.0,0,0
1772204854.322549,1772204854.2757814,-752.9296875,-50.29296875,-259.27734375,-622.55859375,0.0,0,0
1772204854.322586,1772204854.2796776,-49.8046875,19.04296875,39.55078125,-108.88671875,0.0,0,0
1772204854.322624,1772204854.283574,562.98828125,5.37109375,256.34765625,342.7734375,0.0,0,0
1772204854.322664,1772204854.2874706,267.08984375,-41.9921875,53.7109375,113.28125,0.0,0,0
1772204854.3227022,1772204854.291367,-478.515625,-59.5703125,-291.015625,-460.44921875,0.0,0,0
1772204854.322767,1772204854.2952635,-784.66796875,-71.77734375,-352.5390625,-625.9765625,0.0,0,0
1772204854.3677518,1772204854.2992847,-186.03515625,-4.39453125,-46.875,-163.57421875,0.0,0,0
1772204854.367903,1772204854.3031812,519.04296875,53.7109375,204.58984375,345.21484375,0.0,0,0
1772204854.3679628,1772204854.3070776,316.40625,2.9296875,55.17578125,194.82421875,0.0,0,0
1772204854.3680158,1772204854.3109741,-442.87109375,-90.8203125,-260.7421875,-405.2734375,0.0,0,0
1772204854.3680692,1772204854.3148706,-772.94921875,-97.65625,-344.7265625,-665.52734375,0.0,0,0
1772204854.3681211,1772204854.318767,-223.14453125,-20.5078125,-79.1015625,-259.27734375,0.0,0,0
1772204854.368172,1772204854.3226635,492.1875,20.5078125,180.6640625,287.109375,0.0,0,0
1772204854.368223,1772204854.32656,343.75,-25.87890625,109.375,209.47265625,0.0,0,0
1772204854.368276,1772204854.3304565,-464.35546875,-109.86328125,-213.8671875,-388.18359375,0.0,0,0
1772204854.368327,1772204854.334353,-869.140625,-114.2578125,-391.6015625,-708.49609375,0.0,0,0
1772204854.368377,1772204854.3382494,-399.4140625,-48.828125,-157.71484375,-367.1875,0.0,0,0
1772204854.368427,1772204854.342146,386.23046875,13.18359375,117.1875,209.9609375,0.0,0,0
1772204854.413001,1772204854.3461607,470.21484375,5.859375,103.02734375,275.87890625,0.0,0,0
1772204854.41311,1772204854.3500571,-270.01953125,-75.1953125,-179.19921875,-270.01953125,0.0,0,0
1772204854.413153,1772204854.3539536,-794.43359375,-111.328125,-374.51171875,-680.6640625,0.0,0,0
1772204854.413193,1772204854.35785,-432.6171875,-52.734375,-152.34375,-415.52734375,0.0,0,0
1772204854.4132311,1772204854.3617465,306.640625,10.7421875,172.36328125,184.08203125,0.0,0,0
1772204854.413269,1772204854.365643,480.95703125,7.8125,183.10546875,328.125,0.0,0,0
1772204854.413306,1772204854.3695395,-169.43359375,-58.10546875,-121.09375,-166.9921875,0.0,0,0
1772204854.413343,1772204854.373436,-882.8125,-220.703125,-343.26171875,-636.71875,0.0,0,0
1772204854.4133801,1772204854.3773324,-651.3671875,-156.73828125,-172.36328125,-435.05859375,0.0,0,0
1772204854.4134169,1772204854.381229,262.20703125,22.94921875,150.87890625,172.8515625,0.0,0,0
1772204854.413455,1772204854.3851254,542.48046875,8.7890625,227.05078125,377.44140625,0.0,0,0
1772204854.413493,1772204854.3890219,-84.47265625,-56.640625,-30.2734375,-46.875,0.0,0,0
1772204854.45905,1772204854.3930273,-804.6875,-96.6796875,-280.76171875,-562.01171875,0.0,0,0
1772204854.4592059,1772204854.3969238,-644.04296875,-59.5703125,-169.43359375,-468.26171875,0.0,0,0
1772204854.459266,1772204854.4008203,161.1328125,-7.32421875,171.38671875,109.375,0.0,0,0
1772204854.459321,1772204854.4047167,525.390625,4.8828125,306.640625,368.65234375,0.0,0,0
1772204854.4593742,1772204854.4086132,44.43359375,-57.6171875,67.3828125,-33.69140625,0.0,0,0
1772204854.4594262,1772204854.41251,-690.91796875,-99.12109375,-196.77734375,-613.76953125,0.0,0,0
1772204854.459478,1772204854.4164064,-779.78515625,-141.6015625,-141.6015625,-628.90625,0.0,0,0
1772204854.459531,1772204854.4203029,-7.32421875,-114.2578125,152.83203125,-60.546875,0.0,0,0
1772204854.459581,1772204854.4241993,549.31640625,2.9296875,279.296875,324.21875,0.0,0,0
1772204854.4596322,1772204854.4280958,141.11328125,-35.15625,33.203125,27.34375,0.0,0,0
1772204854.459682,1772204854.4319923,-582.03125,-108.88671875,-290.0390625,-554.19921875,0.0,0,0
1772204854.459733,1772204854.4358888,-758.30078125,-102.05078125,-338.37890625,-650.390625,0.0,0,0
1772204854.5190551,1772204854.439882,-51.7578125,-21.484375,-37.59765625,-99.609375,0.0,0,0
1772204854.519168,1772204854.4437785,587.890625,6.8359375,159.1796875,341.796875,0.0,0,0
1772204854.519211,1772204854.447675,284.66796875,-52.24609375,-5.37109375,97.65625,0.0,0,0
1772204854.51925,1772204854.4515715,-540.0390625,-111.81640625,-246.58203125,-472.65625,0.0,0,0
1772204854.519288,1772204854.4554682,-773.4375,-95.21484375,-271.97265625,-626.46484375,0.0,0,0
1772204854.519325,1772204854.4593647,-78.61328125,-19.53125,53.22265625,-136.71875,0.0,0,0
1772204854.519361,1772204854.4632611,602.5390625,-52.734375,317.87109375,352.5390625,0.0,0,0
1772204854.519398,1772204854.4671576,380.859375,-103.515625,142.578125,188.96484375,0.0,0,0
1772204854.5194361,1772204854.471054,-426.26953125,-103.02734375,-204.1015625,-395.99609375,0.0,0,0
1772204854.5194721,1772204854.4749506,-747.55859375,-113.76953125,-309.08203125,-633.7890625,0.0,0,0
1772204854.51951,1772204854.478847,-186.03515625,-48.828125,-29.78515625,-194.82421875,0.0,0,0
1772204854.519547,1772204854.4827437,514.16015625,13.18359375,234.375,363.76953125,0.0,0,0
1772204854.579146,1772204854.486812,455.078125,-13.18359375,146.97265625,303.7109375,0.0,0,0
1772204854.579307,1772204854.4907086,-264.16015625,-93.75,-184.08203125,-306.15234375,0.0,0,0
1772204854.579366,1772204854.494605,-755.37109375,-114.74609375,-372.55859375,-625.9765625,0.0,0,0
1772204854.579423,1772204854.4985018,-336.9140625,-49.31640625,-150.87890625,-276.3671875,0.0,0,0
1772204854.579477,1772204854.5023983,517.578125,16.6015625,133.30078125,295.41015625,0.0,0,0
1772204854.579529,1772204854.5062947,616.2109375,-7.32421875,104.4921875,307.12890625,0.0,0,0
1772204854.5795798,1772204854.5101912,-226.5625,-89.35546875,-179.6875,-278.3203125,0.0,0,0
1772204854.5796301,1772204854.5140877,-752.44140625,-118.65234375,-345.21484375,-673.33984375,0.0,0,0
1772204854.579682,1772204854.5179844,-331.54296875,-62.5,-126.46484375,-363.76953125,0.0,0,0
1772204854.579731,1772204854.5218809,458.984375,-10.7421875,178.22265625,250.9765625,0.0,0,0
1772204854.579781,1772204854.5257773,550.29296875,-30.76171875,176.26953125,334.9609375,0.0,0,0
1772204854.5798311,1772204854.5296738,-145.99609375,-91.30859375,-85.44921875,-192.3828125,0.0,0,0
1772204854.6095529,1772204854.5337358,-682.6171875,-119.62890625,-285.15625,-645.5078125,0.0,0,0
1772204854.6098611,1772204854.5376322,-379.8828125,-67.3828125,-142.578125,-426.7578125,0.0,0,0
1772204854.609909,1772204854.541529,427.24609375,-5.37109375,160.15625,185.546875,0.0,0,0
1772204854.609955,1772204854.5454254,636.71875,-10.25390625,206.54296875,392.578125,0.0,0,0
1772204854.6099951,1772204854.549322,2.9296875,-68.359375,-54.6875,-64.94140625,0.0,0,0
1772204854.610032,1772204854.5532186,-698.73046875,-110.3515625,-274.4140625,-572.265625,0.0,0,0
1772204854.610069,1772204854.557115,-520.99609375,-95.703125,-169.921875,-441.40625,0.0,0,0
1772204854.6101062,1772204854.5610118,335.9375,-12.20703125,147.4609375,132.8125,0.0,0,0
1772204854.610142,1772204854.5649083,649.90234375,-2.9296875,266.11328125,375.9765625,0.0,0,0
1772204854.6101792,1772204854.5688047,81.54296875,-139.6484375,10.25390625,-25.390625,0.0,0,0
1772204854.610216,1772204854.5727015,-655.2734375,-151.3671875,-284.66796875,-566.89453125,0.0,0,0
1772204854.610253,1772204854.576598,-629.8828125,-66.40625,-231.4453125,-538.57421875,0.0,0,0
1772204854.6531892,1772204854.5806427,198.73046875,-19.53125,86.42578125,28.80859375,0.0,0,0
1772204854.653316,1772204854.5845392,705.56640625,-17.578125,232.91015625,373.046875,0.0,0,0
1772204854.653358,1772204854.588436,235.3515625,-59.5703125,10.25390625,44.921875,0.0,0,0
1772204854.653399,1772204854.5923324,-593.75,-108.88671875,-297.8515625,-559.5703125,0.0,0,0
1772204854.6534379,1772204854.596229,-594.7265625,-92.7734375,-242.1875,-560.05859375,0.0,0,0
1772204854.653476,1772204854.6001256,145.99609375,-29.296875,101.07421875,12.20703125,0.0,0,0
1772204854.653517,1772204854.604022,600.5859375,-13.18359375,251.46484375,326.66015625,0.0,0,0
1772204854.653555,1772204854.6079187,227.5390625,-37.109375,67.3828125,44.921875,0.0,0,0
1772204854.653601,1772204854.6118152,-530.2734375,-186.5234375,-232.91015625,-522.94921875,0.0,0,0
1772204854.653641,1772204854.615712,-631.34765625,-232.91015625,-254.39453125,-629.8828125,0.0,0,0
1772204854.6536791,1772204854.6196084,24.90234375,-39.55078125,50.29296875,-150.87890625,0.0,0,0
1772204854.653725,1772204854.623505,643.06640625,11.23046875,273.4375,282.2265625,0.0,0,0
1772204854.698177,1772204854.6275413,439.94140625,-42.48046875,120.1171875,124.51171875,0.0,0,0
1772204854.698271,1772204854.6314378,-386.71875,-104.4921875,-183.59375,-467.28515625,0.0,0,0
1772204854.698315,1772204854.6353345,-746.58203125,-113.76953125,-270.5078125,-716.30859375,0.0,0,0
1772204854.698356,1772204854.639231,-87.40234375,-52.24609375,-23.4375,-260.25390625,0.0,0,0
1772204854.6983948,1772204854.6431277,680.17578125,-8.7890625,222.65625,317.87109375,0.0,0,0
1772204854.698434,1772204854.6470242,462.890625,-26.85546875,108.88671875,224.12109375,0.0,0,0
1772204854.698474,1772204854.6509209,-305.17578125,-90.33203125,-196.2890625,-417.96875,0.0,0,0
1772204854.6985118,1772204854.6548173,-689.453125,-105.46875,-277.83203125,-744.62890625,0.0,0,0
1772204854.698549,1772204854.658714,-237.3046875,-124.51171875,-0.48828125,-359.86328125,0.0,0,0
1772204854.6985888,1772204854.6626105,495.1171875,-42.96875,270.01953125,193.359375,0.0,0,0
1772204854.698627,1772204854.6665072,502.44140625,27.83203125,229.00390625,166.50390625,0.0,0,0
1772204854.698664,1772204854.6704037,-142.08984375,-65.91796875,-87.890625,-388.671875,0.0,0,0
1772204854.744148,1772204854.6744275,-674.31640625,-102.5390625,-277.34375,-770.01953125,0.0,0,0
1772204854.74427,1772204854.6783242,-314.94140625,-17.578125,-39.0625,-481.93359375,0.0,0,0
1772204854.7443242,1772204854.6822207,495.60546875,45.8984375,266.6015625,100.09765625,0.0,0,0
1772204854.7443771,1772204854.6861174,552.24609375,3.41796875,261.23046875,193.359375,0.0,0,0
1772204854.744429,1772204854.690014,-212.890625,-71.2890625,-25.390625,-302.734375,0.0,0,0
1772204854.7444851,1772204854.6939106,-724.609375,-91.30859375,-208.49609375,-721.19140625,0.0,0,0
1772204854.74454,1772204854.6978073,-423.33984375,-51.7578125,-24.90234375,-493.65234375,0.0,0,0
1772204854.744592,1772204854.7017038,366.2109375,-39.55078125,250.48828125,100.09765625,0.0,0,0
1772204854.744643,1772204854.7056005,639.16015625,-59.5703125,290.0390625,285.15625,0.0,0,0
1772204854.744694,1772204854.7094972,-78.125,-72.75390625,36.62109375,-168.9453125,0.0,0,0
1772204854.744745,1772204854.7133937,-742.1875,-107.421875,-196.2890625,-671.38671875,0.0,0,0
1772204854.7447941,1772204854.7172904,-497.0703125,-70.80078125,-83.984375,-513.18359375,0.0,0,0
1772204854.788112,1772204854.7213037,292.48046875,-9.27734375,186.5234375,102.05078125,0.0,0,0
1772204854.788239,1772204854.7252004,702.1484375,-6.34765625,233.88671875,340.8203125,0.0,0,0
1772204854.7882812,1772204854.7290971,149.90234375,-63.96484375,-43.9453125,-50.78125,0.0,0,0
1772204854.78832,1772204854.7329936,-619.62890625,-114.2578125,-343.26171875,-557.12890625,0.0,0,0
1772204854.788358,1772204854.7368903,-573.2421875,-83.49609375,-284.1796875,-513.18359375,0.0,0,0
1772204854.7883961,1772204854.740787,161.1328125,-12.6953125,66.40625,46.38671875,0.0,0,0
1772204854.788437,1772204854.7446835,563.4765625,13.18359375,223.6328125,354.98046875,0.0,0,0
1772204854.788474,1772204854.7485802,145.01953125,-179.6875,-16.11328125,-43.9453125,0.0,0,0
1772204854.788512,1772204854.752477,-544.921875,-233.88671875,-331.0546875,-689.453125,0.0,0,0
1772204854.78855,1772204854.7563734,-645.01953125,-82.03125,-330.078125,-752.9296875,0.0,0,0
1772204854.788587,1772204854.76027,65.4296875,-21.97265625,9.765625,-147.4609375,0.0,0,0
1772204854.788633,1772204854.7641668,611.81640625,0.9765625,182.12890625,291.50390625,0.0,0,0
1772204854.863796,1772204854.7683353,234.86328125,-42.48046875,-27.83203125,33.203125,0.0,0,0
1772204854.863921,1772204854.772232,-586.42578125,-104.00390625,-316.89453125,-490.72265625,0.0,0,0
1772204854.863965,1772204854.7761285,-756.34765625,-110.3515625,-367.67578125,-585.9375,0.0,0,0
1772204854.8640041,1772204854.7800252,18.5546875,-37.109375,-79.58984375,-86.42578125,0.0,0,0
1772204854.864042,1772204854.783922,642.578125,5.859375,159.66796875,390.13671875,0.0,0,0
1772204854.86408,1772204854.7878187,390.625,-21.97265625,20.01953125,198.73046875,0.0,0,0
1772204854.864119,1772204854.7917154,-420.41015625,-199.21875,-274.90234375,-391.11328125,0.0,0,0
1772204854.864156,1772204854.795612,-760.25390625,-288.0859375,-322.265625,-612.79296875,0.0,0,0
1772204854.864193,1772204854.7995088,-154.296875,-73.2421875,-45.41015625,-226.07421875,0.0,0,0
1772204854.86423,1772204854.8034055,534.1796875,2.44140625,195.80078125,294.43359375,0.0,0,0
1772204854.864275,1772204854.807302,411.1328125,-59.08203125,100.5859375,226.07421875,0.0,0,0
1772204854.8643148,1772204854.8111987,-342.28515625,-119.62890625,-190.91796875,-354.4921875,0.0,0,0
1772204854.8917062,1772204854.8151898,-684.5703125,-113.76953125,-297.36328125,-655.2734375,0.0,0,0
1772204854.8918378,1772204854.8190866,-144.53125,-55.17578125,-47.8515625,-307.12890625,0.0,0,0
1772204854.891896,1772204854.8229833,581.54296875,-17.578125,228.515625,239.2578125,0.0,0,0
1772204854.892032,1772204854.82688,472.16796875,-38.57421875,192.3828125,226.5625,0.0,0,0
1772204854.8921149,1772204854.8307767,-308.10546875,-106.4453125,-102.05078125,-326.171875,0.0,0,0
1772204854.892174,1772204854.8346734,-677.24609375,-125.0,-288.0859375,-669.921875,0.0,0,0
1772204854.892232,1772204854.83857,-307.12890625,-67.3828125,-97.65625,-389.6484375,0.0,0,0
1772204854.892283,1772204854.8424668,512.6953125,-28.80859375,181.640625,178.22265625,0.0,0,0
1772204854.892334,1772204854.8463635,672.36328125,-56.15234375,174.8046875,268.5546875,0.0,0,0
1772204854.892384,1772204854.85026,-90.8203125,-126.953125,-140.13671875,-276.3671875,0.0,0,0
1772204854.892441,1772204854.8541567,-761.71875,-158.203125,-327.63671875,-704.58984375,0.0,0,0
1772204854.892493,1772204854.8580534,-411.1328125,-127.44140625,-126.46484375,-470.703125,0.0,0,0
1772204854.9365,1772204854.862029,479.98046875,-44.921875,190.91796875,108.88671875,0.0,0,0
1772204854.936606,1772204854.8659258,648.4375,-96.6796875,254.39453125,257.8125,0.0,0,0
1772204854.93666,1772204854.8698225,-10.25390625,-265.625,-27.34375,-239.2578125,0.0,0,0
1772204854.9368992,1772204854.8737192,-687.5,-214.35546875,-249.51171875,-724.12109375,0.0,0,0
1772204854.936957,1772204854.877616,-432.12890625,-105.95703125,-142.08984375,-560.546875,0.0,0,0
1772204854.9370098,1772204854.8815126,311.03515625,-116.2109375,132.8125,44.921875,0.0,0,0
1772204854.9370618,1772204854.8854094,594.7265625,-133.30078125,217.28515625,286.62109375,0.0,0,0
1772204854.937113,1772204854.889306,108.88671875,-113.76953125,-41.50390625,-116.69921875,0.0,0,0
1772204854.937163,1772204854.8932028,-620.60546875,-145.99609375,-283.69140625,-608.88671875,0.0,0,0
1772204854.937214,1772204854.8970995,-553.22265625,-178.22265625,-204.1015625,-549.31640625,0.0,0,0
1772204854.937265,1772204854.9009962,189.453125,-120.60546875,66.89453125,14.16015625,0.0,0,0
1772204854.937315,1772204854.904893,595.21484375,-31.25,208.0078125,339.35546875,0.0,0,0
1772204854.982752,1772204854.9089386,154.78515625,-97.65625,26.85546875,-21.484375,0.0,0,0
1772204854.982879,1772204854.9128354,-592.28515625,-154.296875,-219.7265625,-606.93359375,0.0,0,0
1772204854.982937,1772204854.916732,-625.48828125,-125.48828125,-206.54296875,-616.2109375,0.0,0,0
1772204854.9829912,1772204854.9206288,126.953125,-40.52734375,73.2421875,-33.203125,0.0,0,0
1772204854.9830441,1772204854.9245255,730.46875,-0.9765625,232.421875,349.609375,0.0,0,0
1772204854.983098,1772204854.9284222,396.97265625,-129.39453125,13.671875,38.0859375,0.0,0,0
1772204854.983149,1772204854.932319,-406.73828125,-200.68359375,-258.7890625,-557.6171875,0.0,0,0
1772204854.9832058,1772204854.9362156,-605.95703125,-134.27734375,-243.65234375,-629.8828125,0.0,0,0
1772204854.983253,1772204854.9401126,108.88671875,-67.87109375,68.84765625,-89.35546875,0.0,0,0
1772204854.9832902,1772204854.9440093,768.06640625,-69.82421875,282.71484375,334.47265625,0.0,0,0
1772204854.983328,1772204854.947906,421.38671875,-102.5390625,118.65234375,91.796875,0.0,0,0
1772204854.983364,1772204854.9518027,-326.171875,-137.20703125,-185.05859375,-478.02734375,0.0,0,0
1772204855.027071,1772204854.9558387,-588.37890625,-152.34375,-221.19140625,-627.9296875,0.0,0,0
1772204855.027159,1772204854.9597354,-32.71484375,-77.1484375,73.2421875,-159.1796875,0.0,0,0
1772204855.027201,1772204854.963632,647.94921875,-5.859375,314.453125,360.3515625,0.0,0,0
1772204855.0272388,1772204854.967529,506.8359375,-41.015625,173.33984375,223.14453125,0.0,0,0
1772204855.0272782,1772204854.9714258,-235.3515625,-129.8828125,-134.27734375,-358.3984375,0.0,0,0
1772204855.0273159,1772204854.9753225,-587.890625,-149.90234375,-184.5703125,-605.46875,0.0,0,0
1772204855.027353,1772204854.9792192,-29.296875,-71.77734375,45.8984375,-216.796875,0.0,0,0
1772204855.02739,1772204854.983116,761.71875,11.23046875,271.484375,348.6328125,0.0,0,0
1772204855.027426,1772204854.9870126,716.796875,-120.60546875,202.63671875,313.96484375,0.0,0,0
1772204855.027463,1772204854.9909096,-76.171875,-261.23046875,-126.953125,-285.64453125,0.0,0,0
1772204855.027499,1772204854.9948063,-560.05859375,-161.1328125,-265.13671875,-627.44140625,0.0,0,0
1772204855.027536,1772204854.998703,-38.0859375,-71.77734375,6.34765625,-307.6171875,0.0,0,0
1772204855.07219,1772204855.002728,733.3984375,-24.90234375,335.9375,279.78515625,0.0,0,0
1772204855.072287,1772204855.006625,849.609375,-55.17578125,349.12109375,355.95703125,0.0,0,0
1772204855.0723698,1772204855.0105217,291.50390625,-142.08984375,53.22265625,-198.2421875,0.0,0,0
1772204855.07241,1772204855.0144184,-334.47265625,-172.8515625,-117.67578125,-594.7265625,0.0,0,0
1772204855.072448,1772204855.018315,164.0625,-118.65234375,72.75390625,-311.5234375,0.0,0,0
1772204855.0724921,1772204855.022212,930.17578125,-50.78125,331.54296875,283.203125,0.0,0,0
1772204855.0725288,1772204855.0261087,961.42578125,-49.31640625,333.0078125,410.15625,0.0,0,0
1772204855.072567,1772204855.0300055,346.6796875,-113.28125,29.296875,-110.83984375,0.0,0,0
1772204855.072635,1772204855.0339022,-390.13671875,-272.4609375,-184.08203125,-602.05078125,0.0,0,0
1772204855.072673,1772204855.0377991,-101.07421875,-210.44921875,-7.8125,-397.4609375,0.0,0,0
1772204855.072719,1772204855.0416958,716.30859375,-24.4140625,268.06640625,207.03125,0.0,0,0
1772204855.072757,1772204855.0455925,989.74609375,-32.2265625,295.8984375,392.578125,0.0,0,0
1772204855.1177459,1772204855.0496073,448.2421875,-93.26171875,66.40625,-66.89453125,0.0,0,0
1772204855.1178591,1772204855.053504,-374.51171875,-122.55859375,-172.8515625,-620.1171875,0.0,0,0
1772204855.117919,1772204855.057401,-364.2578125,-85.9375,-101.5625,-531.73828125,0.0,0,0
1772204855.117973,1772204855.0612977,557.6171875,-24.4140625,225.5859375,44.43359375,0.0,0,0
1772204855.1180239,1772204855.0651944,-967.28515625,-21.484375,354.98046875,335.44921875,0.0,0,0
1772204855.118075,1772204855.0690913,500.9765625,-80.078125,122.0703125,-31.73828125,0.0,0,0
1772204855.118135,1772204855.072988,-357.91015625,-122.0703125,-163.57421875,-612.3046875,0.0,0,0
1772204855.118186,1772204855.0768847,-414.0625,-137.6953125,-151.3671875,-615.72265625,0.0,0,0
1772204855.11824,1772204855.0807815,475.09765625,-83.984375,137.20703125,-23.92578125,0.0,0,0
1772204855.11829,1772204855.0846784,991.69921875,-10.25390625,289.0625,346.19140625,0.0,0,0
1772204855.1183412,1772204855.0885751,462.40234375,-61.5234375,42.48046875,35.15625,0.0,0,0
1772204855.1183941,1772204855.0924718,-429.6875,-140.625,-273.92578125,-526.3671875,0.0,0,0
1772204855.163401,1772204855.0964768,-676.7578125,-143.5546875,-273.92578125,-569.82421875,0.0,0,0
1772204855.163549,1772204855.1003735,219.7265625,-51.26953125,-26.85546875,-63.96484375,0.0,0,0
1772204855.163605,1772204855.1042705,-958.49609375,-5.859375,95.703125,461.9140625,0.0,0,0
1772204855.163657,1772204855.1081672,609.86328125,-73.2421875,-83.0078125,597.65625,0.0,0,0
1772204855.163709,1772204855.1120641,-377.9296875,-152.34375,-355.46875,187.5,0.0,0,0
1772204855.1637602,1772204855.1159608,-569.3359375,-151.85546875,-396.484375,41.015625,0.0,0,0
1772204855.16381,1772204855.1198575,60.05859375,-75.68359375,-103.02734375,500.9765625,0.0,0,0
1772204855.163859,1772204855.1237545,816.40625,-47.36328125,103.515625,939.94140625,0.0,0,0
1772204855.1639092,1772204855.1276512,769.04296875,-74.21875,-39.0625,751.953125,0.0,0,0
1772204855.164045,1772204855.1315482,-149.90234375,-136.71875,-325.1953125,92.7734375,0.0,0,0
1772204855.164104,1772204855.1354449,-619.140625,-146.484375,-400.87890625,-188.4765625,0.0,0,0
1772204855.164145,1772204855.1393416,67.3828125,-61.03515625,-143.5546875,157.2265625,0.0,0,0
1772204855.207217,1772204855.1433363,810.05859375,-5.859375,123.046875,681.15234375,0.0,0,0
1772204855.20731,1772204855.147233,709.47265625,-54.19921875,107.91015625,650.390625,0.0,0,0
1772204855.207336,1772204855.15113,-169.43359375,-135.25390625,-133.30078125,-7.32421875,0.0,0,0
1772204855.207362,1772204855.1550267,-716.30859375,-152.34375,-220.703125,-340.8203125,0.0,0,0
1772204855.207388,1772204855.1589236,-120.1171875,-89.35546875,6.34765625,10.25390625,0.0,0,0
1772204855.207412,1772204855.1628203,772.4609375,11.71875,261.71875,578.125,0.0,0,0
1772204855.2074409,1772204855.1667173,856.93359375,-58.10546875,216.30859375,628.41796875,0.0,0,0
1772204855.207465,1772204855.170614,-29.296875,-184.5703125,-90.33203125,64.453125,0.0,0,0
1772204855.207493,1772204855.1745107,-723.14453125,-152.83203125,-281.73828125,-365.72265625,0.0,0,0
1772204855.2075179,1772204855.1784077,-210.44921875,-119.62890625,-75.1953125,-117.67578125,0.0,0,0
1772204855.207542,1772204855.1823044,612.79296875,-91.30859375,283.69140625,431.15234375,0.0,0,0
1772204855.207566,1772204855.1862013,713.8671875,-85.9375,322.265625,560.05859375,0.0,0,0
1772204855.2526531,1772204855.1901872,-68.84765625,-164.0625,44.921875,25.390625,0.0,0,0
1772204855.252775,1772204855.194084,-854.00390625,-208.984375,-190.91796875,-631.8359375,0.0,0,0
1772204855.252815,1772204855.1979809,-420.8984375,-79.58984375,-127.44140625,-471.19140625,0.0,0,0
1772204855.252853,1772204855.2018776,578.61328125,28.3203125,145.99609375,139.6484375,0.0,0,0
1772204855.2528992,1772204855.2057745,960.9375,-17.08984375,235.3515625,294.921875,0.0,0,0
1772204855.2531,1772204855.2096713,207.51953125,-132.32421875,1.46484375,-62.5,0.0,0,0
1772204855.253139,1772204855.2135682,-693.84765625,-236.328125,-244.62890625,-617.1875,0.0,0,0
1772204855.253176,1772204855.2174652,-384.765625,-178.7109375,-135.7421875,-584.47265625,0.0,0,0
1772204855.253224,1772204855.2213619,572.265625,-62.01171875,197.265625,60.05859375,0.0,0,0
1772204855.2532601,1772204855.2252588,-963.37890625,-62.01171875,256.8359375,399.90234375,0.0,0,0
1772204855.2532969,1772204855.2291555,538.0859375,-117.1875,-84.47265625,-18.5546875,0.0,0,0
1772204855.253333,1772204855.2330525,-501.953125,-186.5234375,-372.0703125,-653.3203125,0.0,0,0
1772204855.312598,1772204855.237028,-368.1640625,-161.1328125,-328.125,-593.75,0.0,0,0
1772204855.312747,1772204855.2409248,700.68359375,-77.1484375,-69.3359375,66.89453125,0.0,0,0
1772204855.312809,1772204855.2448218,933.10546875,-82.51953125,55.6640625,373.046875,0.0,0,0
1772204855.3128629,1772204855.2487185,358.88671875,-153.80859375,-180.17578125,9.27734375,0.0,0,0
1772204855.312917,1772204855.2526155,-400.390625,-209.47265625,-429.6875,-611.81640625,0.0,0,0
1772204855.312968,1772204855.2565122,-573.2421875,-175.29296875,-380.859375,-710.9375,0.0,0,0
1772204855.313021,1772204855.260409,302.734375,-102.05078125,-38.0859375,-129.39453125,0.0,0,0
1772204855.3130722,1772204855.2643058,-964.35546875,-61.5234375,185.546875,343.75,0.0,0,0
1772204855.313123,1772204855.2682028,629.8828125,-94.7265625,27.34375,250.48828125,0.0,0,0
1772204855.313174,1772204855.2720995,-340.8203125,-179.6875,-163.57421875,-249.51171875,0.0,0,0
1772204855.3132448,1772204855.2759964,-572.265625,-171.38671875,-158.69140625,-465.33203125,0.0,0,0
1772204855.3132968,1772204855.2798934,361.328125,-62.01171875,77.1484375,42.96875,0.0,0,0
1772204855.357855,1772204855.2839382,-932.6171875,-8.30078125,354.4921875,634.27734375,0.0,0,0
1772204855.358044,1772204855.287835,646.484375,-64.453125,354.98046875,433.10546875,0.0,0,0
1772204855.35815,1772204855.2917318,-410.15625,-150.87890625,138.671875,-293.45703125,0.0,0,0
1772204855.358204,1772204855.2956288,-604.00390625,-147.4609375,125.9765625,-566.40625,0.0,0,0
1772204855.358256,1772204855.2995255,302.24609375,-27.83203125,373.046875,-34.66796875,0.0,0,0
1772204855.358306,1772204855.3034225,979.00390625,47.36328125,574.70703125,622.0703125,0.0,0,0
1772204855.358358,1772204855.3073192,878.90625,-12.6953125,462.890625,549.31640625,0.0,0,0
1772204855.358409,1772204855.311216,-77.1484375,-106.4453125,121.09375,-97.65625,0.0,0,0
1772204855.358457,1772204855.315113,-757.8125,-110.3515625,-53.7109375,-453.61328125,0.0,0,0
1772204855.358506,1772204855.3190098,109.375,-21.484375,112.79296875,-155.76171875,0.0,0,0
1772204855.3585558,1772204855.3229067,988.76953125,53.7109375,341.30859375,442.87109375,0.0,0,0
1772204855.358606,1772204855.3268037,886.23046875,9.765625,266.11328125,473.6328125,0.0,0,0
1772204855.402896,1772204855.3308384,44.921875,-88.8671875,-9.27734375,-228.02734375,0.0,0,0
1772204855.403038,1772204855.3347354,-749.51171875,-120.60546875,-142.08984375,-663.57421875,0.0,0,0
1772204855.4030988,1772204855.3386323,-175.78125,-65.4296875,21.97265625,-330.56640625,0.0,0,0
1772204855.403153,1772204855.342529,821.2890625,17.08984375,292.48046875,320.80078125,0.0,0,0
1772204855.4032059,1772204855.346426,802.24609375,18.5546875,311.03515625,460.9375,0.0,0,0
1772204855.4032588,1772204855.350323,-177.734375,-78.61328125,-0.9765625,-83.984375,0.0,0,0
1772204855.403323,1772204855.35422,-950.1953125,-109.375,-268.5546875,-612.3046875,0.0,0,0
1772204855.4033751,1772204855.3581166,-464.35546875,-40.52734375,-148.92578125,-372.55859375,0.0,0,0
1772204855.403426,1772204855.3620136,669.43359375,81.54296875,145.01953125,360.3515625,0.0,0,0
1772204855.40348,1772204855.3659105,927.734375,136.71875,215.8203125,636.23046875,0.0,0,0
1772204855.403563,1772204855.3698075,100.5859375,-30.2734375,12.20703125,114.74609375,0.0,0,0
1772204855.403626,1772204855.3737042,-852.05078125,-126.46484375,-216.796875,-491.2109375,0.0,0,0
1772204855.462404,1772204855.3778079,-655.76171875,-65.4296875,-224.12109375,-323.73046875,0.0,0,0
1772204855.462529,1772204855.3817048,419.43359375,37.109375,10.25390625,397.94921875,0.0,0,0
1772204855.462582,1772204855.3856018,946.77734375,62.98828125,173.33984375,748.53515625,0.0,0,0
1772204855.462636,1772204855.3894987,254.8828125,-13.671875,-17.08984375,254.8828125,0.0,0,0
1772204855.462687,1772204855.3933954,-824.70703125,-73.2421875,-289.55078125,-422.8515625,0.0,0,0
1772204855.4627368,1772204855.3972924,-758.30078125,-23.92578125,-245.1171875,-378.90625,0.0,0,0
1772204855.462788,1772204855.4011893,388.671875,65.91796875,69.3359375,278.3203125,0.0,0,0
1772204855.4628391,1772204855.4050863,-972.16796875,65.4296875,195.80078125,733.88671875,0.0,0,0
1772204855.462909,1772204855.4089832,386.71875,1.46484375,-23.92578125,361.328125,0.0,0,0
1772204855.462958,1772204855.4128802,-765.625,-58.10546875,-316.89453125,-367.1875,0.0,0,0
1772204855.463008,1772204855.4167771,-710.44921875,-49.8046875,-310.546875,-379.39453125,0.0,0,0
1772204855.463059,1772204855.4206738,350.09765625,48.33984375,17.578125,275.87890625,0.0,0,0
1772204855.5084229,1772204855.4246871,963.37890625,145.5078125,208.984375,833.984375,0.0,0,0
1772204855.50862,1772204855.428584,809.08203125,129.8828125,71.77734375,603.02734375,0.0,0,0
1772204855.5086799,1772204855.4324808,-242.67578125,38.57421875,-187.98828125,-186.5234375,0.0,0,0
1772204855.508733,1772204855.4363778,-539.55078125,38.0859375,-233.88671875,-382.8125,0.0,0,0
1772204855.508787,1772204855.4402747,471.6796875,127.9296875,57.6171875,188.4765625,0.0,0,0
1772204855.508839,1772204855.4441717,-949.70703125,153.3203125,330.078125,729.4921875,0.0,0,0
1772204855.5088902,1772204855.4480686,641.6015625,91.30859375,223.14453125,582.03125,0.0,0,0
1772204855.5089412,1772204855.4519656,-255.859375,11.71875,-105.95703125,-153.80859375,0.0,0,0
1772204855.508991,1772204855.4558625,-628.41796875,7.8125,-179.19921875,-507.32421875,0.0,0,0
1772204855.509045,1772204855.4597595,192.87109375,71.77734375,82.51953125,25.390625,0.0,0,0
1772204855.509099,1772204855.4636564,-989.2578125,109.375,306.15234375,703.125,0.0,0,0
1772204855.5091531,1772204855.4675534,771.97265625,131.8359375,212.890625,638.671875,0.0,0,0
1772204855.539068,1772204855.4715688,-164.0625,81.54296875,-54.6875,-4.39453125,0.0,0,0
1772204855.5391612,1772204855.4754658,-718.26171875,-27.83203125,-159.1796875,-356.4453125,0.0,0,0
1772204855.539219,1772204855.4793627,72.75390625,40.0390625,47.8515625,69.3359375,0.0,0,0
1772204855.5392718,1772204855.4832597,954.58984375,118.1640625,308.10546875,751.953125,0.0,0,0
1772204855.539315,1772204855.4871566,768.5546875,64.94140625,277.83203125,803.7109375,0.0,0,0
1772204855.5393531,1772204855.4910536,-138.18359375,-15.625,12.20703125,289.0625,0.0,0,0
1772204855.5393898,1772204855.4949505,-698.2421875,-42.96875,-160.64453125,-207.51953125,0.0,0,0
1772204855.539428,1772204855.4988475,-98.6328125,34.1796875,-23.92578125,145.01953125,0.0,0,0
1772204855.539466,1772204855.5027444,839.35546875,88.37890625,249.51171875,868.65234375,0.0,0,0
1772204855.539503,1772204855.5066414,878.90625,24.90234375,284.66796875,993.1640625,0.0,0,0
1772204855.539542,1772204855.5105383,96.6796875,-63.4765625,52.734375,588.37890625,0.0,0,0
1772204855.5395799,1772204855.5144353,-830.078125,-105.46875,-104.00390625,6.8359375,0.0,0,0
1772204855.58398,1772204855.5184338,-453.61328125,-30.2734375,23.92578125,215.8203125,0.0,0,0
1772204855.584131,1772204855.5223308,688.4765625,44.43359375,233.88671875,837.40234375,0.0,0,0
1772204855.584191,1772204855.5262277,810.05859375,27.83203125,230.46875,980.95703125,0.0,0,0
1772204855.584244,1772204855.530125,-60.05859375,-42.96875,14.16015625,602.05078125,0.0,0,0
1772204855.5842948,1772204855.5340219,-905.76171875,-116.2109375,-157.2265625,-8.7890625,0.0,0,0
1772204855.5843468,1772204855.5379188,-780.76171875,-65.91796875,-20.99609375,127.44140625,0.0,0,0
1772204855.584399,1772204855.5418158,302.734375,55.17578125,261.23046875,779.296875,0.0,0,0
1772204855.58445,1772204855.5457127,967.28515625,87.40234375,451.171875,-985.3515625,0.0,0,0
1772204855.584687,1772204855.5496097,166.015625,-45.8984375,523.92578125,678.22265625,0.0,0,0
1772204855.5847418,1772204855.5535066,-904.296875,-119.140625,409.1796875,-11.23046875,0.0,0,0
1772204855.584793,1772204855.5574036,-742.1875,-67.87109375,506.34765625,-53.7109375,0.0,0,0
1772204855.584845,1772204855.5613005,312.01171875,-4.8828125,842.7734375,585.9375,0.0,0,0
1772204855.64291,1772204855.5652869,800.29296875,40.0390625,996.09375,997.55859375,0.0,0,0
1772204855.6430368,1772204855.5691838,233.3984375,-27.83203125,900.87890625,596.6796875,0.0,0,0
1772204855.6430972,1772204855.573081,-675.29296875,-102.05078125,675.29296875,-218.75,0.0,0,0
1772204855.64315,1772204855.576978,-864.74609375,-70.80078125,647.94921875,-329.58984375,0.0,0,0
1772204855.643202,1772204855.580875,117.1875,10.7421875,861.81640625,360.3515625,0.0,0,0
1772204855.643253,1772204855.5847719,813.4765625,36.1328125,999.51171875,865.234375,0.0,0,0
1772204855.643303,1772204855.5886688,152.83203125,24.4140625,825.1953125,492.1875,0.0,0,0
1772204855.643353,1772204855.5925658,-798.828125,-58.10546875,514.6484375,-265.13671875,0.0,0,0
1772204855.643404,1772204855.5964627,-986.81640625,-98.6328125,460.9375,-378.41796875,0.0,0,0
1772204855.643455,1772204855.6003597,-233.88671875,27.34375,693.359375,240.234375,0.0,0,0
1772204855.6435049,1772204855.6042569,836.42578125,85.9375,871.58203125,755.37109375,0.0,0,0
1772204855.6435552,1772204855.6081538,636.71875,43.45703125,705.078125,611.328125,0.0,0,0
1772204855.6888041,1772204855.6121442,-569.82421875,-9.765625,371.58203125,-43.45703125,0.0,0,0
1772204855.688915,1772204855.6160412,-974.12109375,28.3203125,216.30859375,-254.39453125,0.0,0,0
1772204855.688973,1772204855.6199381,-37.109375,139.6484375,401.85546875,293.9453125,0.0,0,0
1772204855.689025,1772204855.623835,972.65625,203.125,636.71875,872.55859375,0.0,0,0
1772204855.689076,1772204855.627732,700.68359375,138.671875,593.75,850.09765625,0.0,0,0
1772204855.6891258,1772204855.6316292,-485.83984375,113.28125,337.40234375,200.1953125,0.0,0,0
1772204855.68917,1772204855.6355262,-1000.0,147.4609375,202.63671875,-197.265625,0.0,0,0
1772204855.689209,1772204855.6394231,-184.08203125,154.296875,420.41015625,302.734375,0.0,0,0
1772204855.689246,1772204855.64332,895.01953125,207.51953125,715.33203125,919.43359375,0.0,0,0
1772204855.689294,1772204855.647217,779.296875,252.44140625,767.578125,935.05859375,0.0,0,0
1772204855.6893299,1772204855.6511142,-321.2890625,191.89453125,565.4296875,412.59765625,0.0,0,0
1772204855.689392,1772204855.6550112,-816.89453125,95.703125,412.109375,-49.8046875,0.0,0,0
1772204855.7622669,1772204855.659214,-270.01953125,142.578125,581.0546875,331.0546875,0.0,0,0
1772204855.7623522,1772204855.6631112,606.93359375,216.30859375,841.796875,906.25,0.0,0,0
1772204855.762379,1772204855.6670082,994.62890625,212.40234375,840.33203125,994.140625,0.0,0,0
1772204855.7624042,1772204855.670905,21.97265625,121.58203125,555.6640625,724.12109375,0.0,0,0
1772204855.762429,1772204855.6748023,-1000.0,67.3828125,339.84375,380.37109375,0.0,0,0
1772204855.762455,1772204855.6786993,-270.01953125,157.71484375,436.03515625,666.50390625,0.0,0,0
1772204855.762479,1772204855.6825964,774.4140625,223.6328125,719.7265625,979.4921875,0.0,0,0
1772204855.762509,1772204855.6864934,952.1484375,186.5234375,775.87890625,997.55859375,0.0,0,0
1772204855.762534,1772204855.6903903,261.23046875,127.44140625,443.359375,785.15625,0.0,0,0
1772204855.762557,1772204855.6942875,-827.1484375,140.625,164.0625,228.02734375,0.0,0,0
1772204855.7625852,1772204855.6981845,-566.40625,164.0625,282.2265625,413.57421875,0.0,0,0
1772204855.762609,1772204855.7020817,674.8046875,187.01171875,570.3125,922.8515625,0.0,0,0
1772204855.778353,1772204855.7061212,947.75390625,175.29296875,619.140625,-994.140625,0.0,0,0
1772204855.778462,1772204855.7100184,179.6875,99.609375,337.890625,779.78515625,0.0,0,0
1772204855.778508,1772204855.7139153,-774.90234375,31.73828125,86.42578125,122.55859375,0.0,0,0
1772204855.778548,1772204855.7178125,-607.91015625,78.61328125,187.98828125,117.67578125,0.0,0,0
1772204855.7785852,1772204855.7217095,494.62890625,167.96875,490.72265625,770.5078125,0.0,0,0
1772204855.7786229,1772204855.7256067,952.63671875,168.9453125,579.1015625,-985.83984375,0.0,0,0
1772204855.7786932,1772204855.7295036,377.44140625,116.69921875,361.328125,751.46484375,0.0,0,0
1772204855.778749,1772204855.7334008,-702.1484375,45.41015625,58.10546875,67.3828125,0.0,0,0
1772204855.778791,1772204855.7372978,-854.4921875,61.03515625,-36.62109375,-125.0,0.0,0,0
1772204855.77883,1772204855.741195,312.98828125,158.203125,215.8203125,545.41015625,0.0,0,0
1772204855.778867,1772204855.745092,-963.8671875,192.3828125,439.453125,987.79296875,0.0,0,0
1772204855.778934,1772204855.7489889,441.89453125,111.328125,276.3671875,552.734375,0.0,0,0
1772204855.823074,1772204855.7530117,-613.76953125,35.64453125,-27.34375,-373.046875,0.0,0,0
1772204855.823207,1772204855.756909,-887.6953125,86.9140625,-108.88671875,-694.82421875,0.0,0,0
1772204855.823241,1772204855.760806,161.1328125,187.98828125,156.25,-77.1484375,0.0,0,0
1772204855.823273,1772204855.764703,-963.37890625,201.171875,466.796875,460.44921875,0.0,0,0
1772204855.823304,1772204855.7686002,488.28125,207.03125,445.80078125,135.25390625,0.0,0,0
1772204855.823333,1772204855.7724972,-581.54296875,144.53125,238.76953125,-625.48828125,0.0,0,0
1772204855.823362,1772204855.7763944,-811.03515625,38.57421875,158.69140625,-786.1328125,0.0,0,0
1772204855.823391,1772204855.7802913,-11.23046875,101.5625,365.234375,-138.18359375,0.0,0,0
1772204855.8234198,1772204855.7841885,911.1328125,243.65234375,580.078125,585.44921875,0.0,0,0
1772204855.8234491,1772204855.7880855,636.71875,174.31640625,413.0859375,478.02734375,0.0,0,0
1772204855.823477,1772204855.7919827,-511.71875,-26.85546875,71.77734375,-187.5,0.0,0,0
1772204855.8235059,1772204855.7958798,-918.9453125,-43.9453125,3.90625,-374.0234375,0.0,0,0
1772204855.8680818,1772204855.7998934,-125.0,77.1484375,199.21875,30.76171875,0.0,0,0
1772204855.868223,1772204855.8037903,863.28125,135.7421875,390.13671875,702.63671875,0.0,0,0
1772204855.868267,1772204855.8076875,797.8515625,70.80078125,325.68359375,711.9140625,0.0,0,0
1772204855.8683069,1772204855.8115847,-158.203125,-7.8125,40.52734375,-94.23828125,0.0,0,0
1772204855.8683462,1772204855.8154817,-868.65234375,-29.296875,-96.6796875,-212.890625,0.0,0,0
1772204855.8683882,1772204855.8193789,-349.12109375,58.10546875,107.91015625,562.98828125,0.0,0,0
1772204855.868425,1772204855.8232758,670.8984375,113.28125,385.25390625,980.95703125,0.0,0,0
1772204855.868462,1772204855.827173,835.9375,243.1640625,407.2265625,994.140625,0.0,0,0
1772204855.8685172,1772204855.8310702,-21.484375,242.67578125,140.625,803.22265625,0.0,0,0
1772204855.8685539,1772204855.8349671,-893.5546875,-14.6484375,-105.46875,398.4375,0.0,0,0
1772204855.8685892,1772204855.8388643,-547.36328125,0.48828125,48.33984375,713.37890625,0.0,0,0
1772204855.868639,1772204855.8427615,543.45703125,100.09765625,326.66015625,993.65234375,0.0,0,0
1772204855.912462,1772204855.846763,954.58984375,97.65625,339.84375,983.3984375,0.0,0,0
1772204855.912606,1772204855.85066,77.63671875,5.37109375,104.98046875,850.09765625,0.0,0,0
1772204855.9126651,1772204855.854557,-932.6171875,-61.03515625,-134.27734375,262.20703125,0.0,0,0
1772204855.912718,1772204855.8584542,-565.91796875,-3.90625,-39.55078125,469.7265625,0.0,0,0
1772204855.91277,1772204855.8623514,630.37109375,82.03125,253.90625,987.3046875,0.0,0,0
1772204855.912822,1772204855.8662484,812.98828125,53.7109375,316.40625,994.140625,0.0,0,0
1772204855.912873,1772204855.8701456,19.04296875,-43.9453125,39.55078125,808.10546875,0.0,0,0
1772204855.9129229,1772204855.8740427,-741.69921875,-40.52734375,-222.16796875,178.7109375,0.0,0,0
1772204855.912972,1772204855.8779397,-838.37890625,1.953125,-93.26171875,307.12890625,0.0,0,0
1772204855.913009,1772204855.881837,229.98046875,23.92578125,262.6953125,920.41015625,0.0,0,0
1772204855.9130461,1772204855.885734,997.55859375,37.109375,371.09375,-997.55859375,0.0,0,0
1772204855.9130828,1772204855.889631,360.3515625,-31.73828125,106.93359375,815.4296875,0.0,0,0
1772204855.9578712,1772204855.893622,-716.796875,-101.5625,-181.15234375,122.0703125,0.0,0,0
1772204855.957979,1772204855.8975189,-814.94140625,-71.2890625,-181.15234375,84.47265625,0.0,0,0
1772204855.958039,1772204855.901416,189.453125,4.8828125,103.02734375,815.4296875,0.0,0,0
1772204855.9580941,1772204855.9053133,910.64453125,31.73828125,313.96484375,-986.81640625,0.0,0,0
1772204855.958147,1772204855.9092104,343.26171875,-16.6015625,105.46875,849.12109375,0.0,0,0
1772204855.9581969,1772204855.9131074,-734.86328125,-104.4921875,-307.6171875,178.22265625,0.0,0,0
1772204855.95825,1772204855.9170046,-864.74609375,-84.9609375,-414.0625,-39.0625,0.0,0,0
1772204855.958299,1772204855.9209018,130.859375,53.22265625,-120.1171875,667.48046875,0.0,0,0
1772204855.9583502,1772204855.924799,948.73046875,80.078125,71.2890625,-973.14453125,0.0,0,0
1772204855.958401,1772204855.928696,518.06640625,-33.69140625,-33.203125,812.5,0.0,0,0
1772204855.9584582,1772204855.932593,-588.37890625,-123.046875,-253.90625,64.453125,0.0,0,0
1772204855.958509,1772204855.9364903,-893.5546875,-103.515625,-297.8515625,-312.01171875,0.0,0,0
1772204856.032607,1772204855.9406276,23.4375,-12.6953125,-40.52734375,320.80078125,0.0,0,0
1772204856.032768,1772204855.9445248,931.640625,38.57421875,122.0703125,946.2890625,0.0,0,0
1772204856.0328279,1772204855.948422,642.578125,-23.4375,-26.85546875,820.80078125,0.0,0,0
1772204856.0328808,1772204855.9523191,-531.25,-107.421875,-294.921875,57.12890625,0.0,0,0
1772204856.032921,1772204855.9562163,-990.234375,-113.28125,-346.19140625,-372.55859375,0.0,0,0
1772204856.03296,1772204855.9601135,-87.890625,-32.2265625,-126.953125,182.12890625,0.0,0,0
1772204856.0329978,1772204855.9640107,947.75390625,42.48046875,38.0859375,901.85546875,0.0,0,0
1772204856.033035,1772204855.9679077,623.046875,-11.71875,-64.453125,780.76171875,0.0,0,0
1772204856.0330722,1772204855.9718049,-534.1796875,-118.65234375,-311.03515625,-54.19921875,0.0,0,0
1772204856.03311,1772204855.975702,-895.99609375,-107.91015625,-429.19921875,-483.88671875,0.0,0,0
1772204856.0331469,1772204855.9795992,-218.75,-28.80859375,-222.65625,-14.6484375,0.0,0,0
1772204856.0331829,1772204855.9834964,728.515625,29.296875,62.01171875,743.1640625,0.0,0,0
1772204856.0621529,1772204855.9874713,861.81640625,11.71875,36.62109375,808.10546875,0.0,0,0
1772204856.062281,1772204855.9913685,-159.66796875,-73.73046875,-221.6796875,90.8203125,0.0,0,0
1772204856.0623412,1772204855.9952655,-1000.0,-115.234375,-333.984375,-480.95703125,0.0,0,0
1772204856.0623949,1772204855.9991627,-539.55078125,-25.87890625,-114.2578125,-153.80859375,0.0,0,0
1772204856.062449,1772204856.0030599,599.609375,62.98828125,211.42578125,703.125,0.0,0,0
1772204856.0625012,1772204856.006957,936.03515625,28.3203125,269.04296875,830.078125,0.0,0,0
1772204856.0625532,1772204856.0108542,51.7578125,-83.0078125,23.92578125,92.7734375,0.0,0,0
1772204856.0626051,1772204856.0147514,-933.10546875,-118.65234375,-182.12890625,-534.1796875,0.0,0,0
1772204856.062657,1772204856.0186486,-617.67578125,-37.59765625,-85.9375,-283.203125,0.0,0,0
1772204856.0627358,1772204856.0225458,483.88671875,52.24609375,171.38671875,536.1328125,0.0,0,0
1772204856.062796,1772204856.026443,970.703125,52.734375,219.23828125,784.66796875,0.0,0,0
1772204856.0628731,1772204856.0303402,104.00390625,-28.80859375,-3.41796875,195.3125,0.0,0,0
1772204856.108192,1772204856.034378,-1000.0,-118.65234375,-195.3125,-531.73828125,0.0,0,0
1772204856.1082869,1772204856.0382752,-661.62109375,-49.8046875,-88.37890625,-433.59375,0.0,0,0
1772204856.108332,1772204856.0421724,539.0625,67.87109375,218.75,355.46875,0.0,0,0
1772204856.108371,1772204856.0460696,-993.1640625,20.99609375,299.8046875,690.91796875,0.0,0,0
1772204856.1084092,1772204856.0499668,179.19921875,-71.2890625,34.1796875,222.16796875,0.0,0,0
1772204856.10845,1772204856.053864,-871.58203125,-101.5625,-184.08203125,-485.83984375,0.0,0,0
1772204856.1084878,1772204856.0577612,-849.12109375,-31.73828125,-132.8125,-503.90625,0.0,0,0
1772204856.1085272,1772204856.0616584,281.73828125,69.3359375,62.98828125,288.57421875,0.0,0,0
1772204856.108585,1772204856.0655556,982.421875,114.74609375,138.671875,792.48046875,0.0,0,0
1772204856.108626,1772204856.0694528,340.8203125,93.75,-57.6171875,388.18359375,0.0,0,0
1772204856.108663,1772204856.07335,-704.1015625,22.94921875,-306.15234375,-401.3671875,0.0,0,0
1772204856.108701,1772204856.0772471,-815.4296875,40.0390625,-334.47265625,-537.109375,0.0,0,0
1772204856.154058,1772204856.0812817,196.77734375,152.83203125,-34.66796875,207.51953125,0.0,0,0
1772204856.1542048,1772204856.0851789,815.91796875,171.38671875,187.5,813.96484375,0.0,0,0
1772204856.154263,1772204856.089076,428.22265625,93.26171875,-27.83203125,480.95703125,0.0,0,0
1772204856.154318,1772204856.0929732,-514.16015625,19.53125,-337.40234375,-345.21484375,0.0,0,0
1772204856.15437,1772204856.0968704,-866.69921875,24.4140625,-390.13671875,-577.63671875,0.0,0,0
1772204856.154423,1772204856.1007676,-22.4609375,91.796875,-120.1171875,98.14453125,0.0,0,0
1772204856.154475,1772204856.104665,812.98828125,155.76171875,103.515625,808.10546875,0.0,0,0
1772204856.154526,1772204856.1085622,520.99609375,70.3125,-44.43359375,577.63671875,0.0,0,0
1772204856.1545768,1772204856.1124594,-519.04296875,33.69140625,-354.98046875,-261.71875,0.0,0,0
1772204856.154628,1772204856.1163566,-945.80078125,105.95703125,-474.609375,-616.69921875,0.0,0,0
1772204856.154679,1772204856.1202538,-173.828125,94.23828125,-254.39453125,-59.5703125,0.0,0,0
1772204856.154729,1772204856.124151,828.125,108.88671875,46.38671875,729.00390625,0.0,0,0
1772204856.197854,1772204856.1281705,731.93359375,71.2890625,35.64453125,635.7421875,0.0,0,0
1772204856.197998,1772204856.132068,-250.0,-4.39453125,-280.76171875,-197.75390625,0.0,0,0
1772204856.198047,1772204856.135965,-1000.0,-36.62109375,-433.59375,-619.62890625,0.0,0,0
1772204856.198084,1772204856.1398623,-450.1953125,13.671875,-242.67578125,-69.3359375,0.0,0,0
1772204856.198122,1772204856.1437595,793.45703125,74.21875,25.87890625,773.4375,0.0,0,0
1772204856.19816,1772204856.1476567,815.91796875,50.29296875,110.3515625,806.15234375,0.0,0,0
1772204856.198198,1772204856.1515539,-235.83984375,-42.48046875,-65.4296875,11.71875,0.0,0,0
1772204856.1982348,1772204856.1554513,-1000.0,-80.078125,-199.21875,-488.28125,0.0,0,0
1772204856.1982698,1772204856.1593485,-531.73828125,59.5703125,5.859375,-92.28515625,0.0,0,0
1772204856.198308,1772204856.1632457,647.94921875,124.51171875,261.23046875,693.84765625,0.0,0,0
1772204856.198345,1772204856.1671429,872.55859375,29.296875,244.140625,872.55859375,0.0,0,0
1772204856.1983821,1772204856.17104,-115.234375,-37.109375,16.6015625,160.15625,0.0,0,0
1772204856.243428,1772204856.175055,-981.4453125,-68.84765625,-187.5,-499.0234375,0.0,0,0
1772204856.243565,1772204856.1789525,-710.44921875,-21.484375,-77.1484375,-215.33203125,0.0,0,0
1772204856.243608,1772204856.1828496,445.80078125,61.5234375,192.87109375,608.3984375,0.0,0,0
1772204856.2436469,1772204856.1867468,989.2578125,66.89453125,255.37109375,878.90625,0.0,0,0
1772204856.243685,1772204856.190644,38.57421875,-31.25,52.734375,231.4453125,0.0,0,0
1772204856.243725,1772204856.1945415,-980.46875,-81.0546875,-149.4140625,-510.7421875,0.0,0,0
1772204856.243763,1772204856.1984386,-696.2890625,-48.828125,-49.8046875,-352.05078125,0.0,0,0
1772204856.243801,1772204856.2023358,362.79296875,121.58203125,167.96875,432.12890625,0.0,0,0
1772204856.24385,1772204856.206233,875.9765625,189.94140625,215.8203125,791.9921875,0.0,0,0
1772204856.243904,1772204856.2101305,36.1328125,-24.4140625,14.16015625,269.04296875,0.0,0,0
1772204856.2439501,1772204856.2140276,-902.34375,-107.91015625,-223.6328125,-515.13671875,0.0,0,0
1772204856.243986,1772204856.2179248,-817.87109375,-69.82421875,-150.87890625,-492.1875,0.0,0,0
1772204856.289922,1772204856.2219305,214.35546875,10.7421875,159.1796875,250.0,0.0,0,0
1772204856.290047,1772204856.2258277,801.26953125,19.04296875,318.84765625,766.6015625,0.0,0,0
1772204856.2900858,1772204856.2297251,69.82421875,-67.87109375,124.51171875,399.4140625,0.0,0,0
1772204856.290277,1772204856.2336223,-828.125,-113.76953125,-187.98828125,-458.984375,0.0,0,0
1772204856.290318,1772204856.2375195,-837.40234375,-69.3359375,-255.859375,-592.28515625,0.0,0,0
1772204856.290355,1772204856.241417,64.94140625,3.41796875,22.4609375,224.609375,0.0,0,0
1772204856.2903922,1772204856.2453141,802.24609375,9.27734375,188.4765625,833.0078125,0.0,0,0
1772204856.2904289,1772204856.2492113,358.88671875,43.45703125,7.32421875,495.60546875,0.0,0,0
1772204856.290465,1772204856.2531087,-711.42578125,-27.34375,-288.0859375,-350.5859375,0.0,0,0
1772204856.2905018,1772204856.257006,-997.0703125,-106.93359375,-396.484375,-553.22265625,0.0,0,0
1772204856.290539,1772204856.2609031,-23.92578125,-10.7421875,-166.9921875,119.140625,0.0,0,0
1772204856.290575,1772204856.2648003,957.03125,24.90234375,51.26953125,729.4921875,0.0,0,0
1772204856.3337522,1772204856.2687962,513.18359375,-41.9921875,-77.1484375,541.50390625,0.0,0,0
1772204856.333892,1772204856.2726936,-562.98828125,-126.953125,-374.51171875,-193.84765625,0.0,0,0
1772204856.333932,1772204856.2765908,-1000.0,-112.3046875,-432.6171875,-467.28515625,0.0,0,0
1772204856.333976,1772204856.2804883,-356.4453125,-31.73828125,-140.13671875,104.4921875,0.0,0,0
1772204856.334014,1772204856.2843854,768.06640625,0.0,118.65234375,748.53515625,0.0,0,0
1772204856.33405,1772204856.2882826,699.70703125,-66.89453125,49.31640625,616.69921875,0.0,0,0
1772204856.3340878,1772204856.29218,-436.5234375,-52.24609375,-244.62890625,-155.2734375,0.0,0,0
1772204856.334125,1772204856.2960773,-1000.0,22.4609375,-372.0703125,-553.22265625,0.0,0,0
1772204856.3341901,1772204856.2999744,-421.38671875,-68.84765625,-118.65234375,-80.56640625,0.0,0,0
1772204856.334228,1772204856.3038719,748.53515625,-49.8046875,136.71875,666.9921875,0.0,0,0
1772204856.334291,1772204856.307769,762.20703125,-71.77734375,105.46875,695.80078125,0.0,0,0
1772204856.3343282,1772204856.3116665,-413.0859375,-190.4296875,-138.671875,-94.23828125,0.0,0,0
1772204856.3788779,1772204856.3156517,-1000.0,-223.6328125,-266.11328125,-635.7421875,0.0,0,0
1772204856.379036,1772204856.319549,-263.671875,-139.6484375,-72.265625,-243.1640625,0.0,0,0
1772204856.379095,1772204856.3234463,769.04296875,-78.125,197.265625,534.66796875,0.0,0,0
1772204856.3791502,1772204856.3273435,893.5546875,-86.42578125,202.1484375,618.1640625,0.0,0,0
1772204856.3792052,1772204856.331241,-101.07421875,-146.484375,-86.42578125,-58.10546875,0.0,0,0
1772204856.3792582,1772204856.335138,-980.46875,-206.54296875,-289.0625,-647.94921875,0.0,0,0
1772204856.379311,1772204856.3390355,-501.953125,2.9296875,-152.83203125,-400.390625,0.0,0,0
1772204856.379362,1772204856.3429327,597.16796875,100.09765625,104.98046875,426.7578125,0.0,0,0
1772204856.379414,1772204856.3468301,859.375,-71.77734375,168.45703125,623.046875,0.0,0,0
1772204856.3794649,1772204856.3507273,-104.00390625,-164.55078125,-52.24609375,-52.24609375,0.0,0,0
1772204856.3795168,1772204856.3546247,-851.5625,-187.01171875,-259.27734375,-678.22265625,0.0,0,0
1772204856.379568,1772204856.358522,-458.984375,-114.74609375,-151.3671875,-474.609375,0.0,0,0
1772204856.437712,1772204856.3624926,460.9375,-46.875,159.66796875,277.83203125,0.0,0,0
1772204856.437888,1772204856.3663898,906.73828125,-33.203125,266.6015625,598.6328125,0.0,0,0
1772204856.4379468,1772204856.370287,239.2578125,-114.2578125,39.0625,88.37890625,0.0,0,0
1772204856.437999,1772204856.3741844,-845.21484375,-189.453125,-164.55078125,-649.90234375,0.0,0,0
1772204856.4380531,1772204856.3780816,-692.3828125,-160.15625,-61.03515625,-579.58984375,0.0,0,0
1772204856.438116,1772204856.381979,451.171875,16.11328125,227.05078125,191.89453125,0.0,0,0
1772204856.438167,1772204856.3858762,921.875,135.7421875,338.8671875,640.625,0.0,0,0
1772204856.4382432,1772204856.3897736,205.078125,-58.10546875,141.6015625,162.59765625,0.0,0,0
1772204856.4383302,1772204856.3936708,-765.13671875,-176.26953125,-116.2109375,-603.02734375,0.0,0,0
1772204856.4383821,1772204856.3975682,-817.3828125,-127.44140625,-142.08984375,-608.88671875,0.0,0,0
1772204856.4384341,1772204856.4014654,85.9375,-57.6171875,77.1484375,135.7421875,0.0,0,0
1772204856.438493,1772204856.4053628,894.53125,-33.69140625,193.359375,675.29296875,0.0,0,0
1772204856.482307,1772204856.4093997,562.01171875,-95.21484375,15.625,268.06640625,0.0,0,0
1772204856.482423,1772204856.413297,-533.203125,-174.8046875,-255.859375,-554.6875,0.0,0,0
1772204856.48248,1772204856.4171944,-848.6328125,-147.94921875,-310.05859375,-687.01171875,0.0,0,0
