timestamp,lsl_timestamp,TP9,AF7,AF8,TP10,Right AUX,keypress_A,keypress_B
1772276886.178869,1772276886.1144593,273.4375,109.375,77.1484375,470.21484375,0.0,0,0
1772276886.179052,1772276886.1183538,-734.86328125,-68.84765625,-13.18359375,47.36328125,0.0,0,0
1772276886.179063,1772276886.1222484,-952.1484375,-163.0859375,-106.4453125,-424.31640625,0.0,0,0
1772276886.179072,1772276886.1261432,24.4140625,-84.9609375,-89.84375,-331.54296875,0.0,0,0
1772276886.179081,1772276886.1300378,-911.62109375,59.08203125,7.8125,242.1875,0.0,0,0
1772276886.1790888,1772276886.1339324,346.6796875,64.453125,41.9921875,425.78125,0.0,0,0
1772276886.1790972,1772276886.1378272,-609.86328125,-29.78515625,-15.13671875,98.14453125,0.0,0,0
1772276886.179106,1772276886.1417217,-966.796875,-129.8828125,-100.5859375,-442.3828125,0.0,0,0
1772276886.1791139,1772276886.1456163,-161.62109375,-80.56640625,-93.26171875,-458.49609375,0.0,0,0
1772276886.179123,1772276886.149511,-924.8046875,82.03125,16.11328125,185.05859375,0.0,0,0
1772276886.1791308,1772276886.1534057,513.18359375,68.84765625,73.2421875,454.58984375,0.0,0,0
1772276886.17914,1772276886.1573002,-392.08984375,-41.9921875,8.7890625,207.51953125,0.0,0,0
1772276886.2394822,1772276886.161296,-906.73828125,-117.67578125,-114.2578125,-366.69921875,0.0,0,0
1772276886.2396271,1772276886.1651907,-250.48828125,-53.22265625,-123.53515625,-504.8828125,0.0,0,0
1772276886.2396622,1772276886.1690853,-944.82421875,94.7265625,-9.765625,71.77734375,0.0,0,0
1772276886.2396932,1772276886.17298,712.890625,73.73046875,52.24609375,394.04296875,0.0,0,0
1772276886.239725,1772276886.1768746,-63.4765625,-36.1328125,23.92578125,218.26171875,0.0,0,0
1772276886.239754,1772276886.1807692,-797.36328125,-166.015625,-84.47265625,-388.671875,0.0,0,0
1772276886.239784,1772276886.184664,-298.33984375,-152.34375,-113.28125,-551.26953125,0.0,0,0
1772276886.239813,1772276886.1885586,-982.421875,90.8203125,-14.16015625,-17.08984375,0.0,0,0
1772276886.2398431,1772276886.1924534,827.63671875,211.9140625,53.7109375,345.703125,0.0,0,0
1772276886.239873,1772276886.196348,104.00390625,131.8359375,42.48046875,257.32421875,0.0,0,0
1772276886.239902,1772276886.2002425,-741.69921875,-58.59375,-87.40234375,-374.51171875,0.0,0,0
1772276886.2399309,1772276886.2041373,-361.81640625,-84.9609375,-145.99609375,-649.90234375,0.0,0,0
1772276886.2838242,1772276886.2081208,889.16015625,100.09765625,-41.9921875,-209.9609375,0.0,0,0
1772276886.2839491,1772276886.2120156,930.17578125,203.125,51.7578125,266.6015625,0.0,0,0
1772276886.283982,1772276886.2159102,291.015625,125.48828125,50.29296875,266.6015625,0.0,0,0
1772276886.284009,1772276886.219805,-709.47265625,-59.5703125,-86.42578125,-385.25390625,0.0,0,0
1772276886.284034,1772276886.2236996,-439.453125,-64.453125,-149.90234375,-673.33984375,0.0,0,0
1772276886.2840588,1772276886.2275944,828.125,93.26171875,-35.64453125,-278.80859375,0.0,0,0
1772276886.284083,1772276886.231489,992.67578125,150.390625,44.43359375,239.2578125,0.0,0,0
1772276886.284107,1772276886.2353837,380.859375,110.3515625,38.57421875,311.5234375,0.0,0,0
1772276886.284131,1772276886.2392783,-666.50390625,-58.10546875,-83.49609375,-298.33984375,0.0,0,0
1772276886.284155,1772276886.2431731,-603.02734375,-71.77734375,-165.52734375,-623.53515625,0.0,0,0
1772276886.284179,1772276886.2470677,633.30078125,62.98828125,-86.9140625,-319.82421875,0.0,0,0
1772276886.284203,1772276886.2509625,-969.7265625,89.84375,7.32421875,240.234375,0.0,0,0
1772276886.3445828,1772276886.2551095,317.87109375,69.3359375,52.734375,400.390625,0.0,0,0
1772276886.344714,1772276886.259004,-757.32421875,-49.8046875,-25.390625,-151.85546875,0.0,0,0
1772276886.344758,1772276886.262899,-818.359375,-60.05859375,-155.76171875,-619.140625,0.0,0,0
1772276886.3447978,1772276886.2667937,215.33203125,20.99609375,-153.80859375,-422.36328125,0.0,0,0
1772276886.344885,1772276886.2706883,975.09765625,89.84375,-18.5546875,210.44921875,0.0,0,0
1772276886.344927,1772276886.274583,248.53515625,92.7734375,22.94921875,392.578125,0.0,0,0
1772276886.344993,1772276886.278478,-864.74609375,-36.62109375,-84.9609375,-75.68359375,0.0,0,0
1772276886.3450649,1772276886.2823725,-940.91796875,-119.140625,-162.59765625,-543.9453125,0.0,0,0
1772276886.345104,1772276886.2862673,-54.19921875,-52.734375,-138.671875,-464.35546875,0.0,0,0
1772276886.345141,1772276886.290162,915.52734375,62.5,-14.6484375,187.5,0.0,0,0
1772276886.3451772,1772276886.2940567,348.14453125,71.77734375,23.92578125,479.98046875,0.0,0,0
1772276886.34523,1772276886.2979515,-541.50390625,-29.296875,-86.42578125,109.375,0.0,0,0
1772276886.374002,1772276886.3019986,-916.015625,-144.53125,-201.171875,-436.03515625,0.0,0,0
1772276886.374146,1772276886.3058934,-48.828125,-95.703125,-201.66015625,-479.4921875,0.0,0,0
1772276886.374233,1772276886.3097882,-917.48046875,37.109375,-76.66015625,112.79296875,0.0,0,0
1772276886.374295,1772276886.313683,531.73828125,9.765625,-12.6953125,404.296875,0.0,0,0
1772276886.374337,1772276886.3175776,-186.5234375,-96.19140625,-44.921875,164.55078125,0.0,0,0
1772276886.3743758,1772276886.3214724,-850.5859375,-187.01171875,-152.34375,-433.59375,0.0,0,0
1772276886.374414,1772276886.3253672,-256.34765625,-118.1640625,-183.59375,-529.296875,0.0,0,0
1772276886.37445,1772276886.329262,-894.53125,32.2265625,-73.73046875,103.02734375,0.0,0,0
1772276886.374487,1772276886.3331566,549.31640625,15.13671875,-10.25390625,423.33984375,0.0,0,0
1772276886.3745239,1772276886.3370514,-212.890625,-84.47265625,-63.4765625,198.2421875,0.0,0,0
1772276886.374561,1772276886.3409462,-751.953125,-145.01953125,-196.2890625,-453.61328125,0.0,0,0
1772276886.3745978,1772276886.344841,-257.32421875,-77.63671875,-220.21484375,-609.375,0.0,0,0
1772276886.4488142,1772276886.3490481,-903.80859375,99.609375,-118.65234375,-16.6015625,0.0,0,0
1772276886.448904,1772276886.352943,810.546875,131.8359375,-55.17578125,398.92578125,0.0,0,0
1772276886.448931,1772276886.3568377,306.15234375,82.03125,-62.01171875,298.828125,0.0,0,0
1772276886.448956,1772276886.3607326,-565.4296875,-18.06640625,-165.0390625,-346.6796875,0.0,0,0
1772276886.448982,1772276886.3646274,-309.08203125,-43.45703125,-216.30859375,-592.7734375,0.0,0,0
1772276886.449009,1772276886.3685222,-940.91796875,131.8359375,-136.71875,-76.171875,0.0,0,0
1772276886.449033,1772276886.372417,908.203125,195.80078125,-57.12890625,418.9453125,0.0,0,0
1772276886.449057,1772276886.3763118,389.6484375,76.66015625,-80.56640625,387.6953125,0.0,0,0
1772276886.4490821,1772276886.3802066,-538.0859375,-91.30859375,-187.01171875,-244.140625,0.0,0,0
1772276886.449106,1772276886.3841014,-365.72265625,-83.0078125,-204.1015625,-506.8359375,0.0,0,0
1772276886.4491289,1772276886.3879962,956.0546875,41.9921875,-141.11328125,-131.8359375,0.0,0,0
1772276886.4491541,1772276886.391891,988.76953125,71.77734375,-60.05859375,376.46484375,0.0,0,0
1772276886.464044,1772276886.395922,415.0390625,31.73828125,-39.0625,463.8671875,0.0,0,0
1772276886.464162,1772276886.3998168,-592.28515625,-98.6328125,-166.50390625,-127.44140625,0.0,0,0
1772276886.464206,1772276886.4037116,-545.41015625,-95.703125,-237.79296875,-442.87109375,0.0,0,0
1772276886.464233,1772276886.4076064,695.80078125,38.0859375,-164.0625,-117.1875,0.0,0,0
1772276886.46426,1772276886.4115012,-978.515625,127.9296875,-63.4765625,430.17578125,0.0,0,0
1772276886.464284,1772276886.4153962,321.77734375,120.1171875,-62.5,512.6953125,0.0,0,0
1772276886.464308,1772276886.419291,-741.2109375,-44.43359375,-168.45703125,-77.63671875,0.0,0,0
1772276886.464332,1772276886.4231858,-785.15625,-131.8359375,-225.5859375,-463.37890625,0.0,0,0
1772276886.4643562,1772276886.4270806,1.953125,-84.9609375,-177.734375,-277.83203125,0.0,0,0
1772276886.4643798,1772276886.4309754,800.78125,45.8984375,-67.3828125,298.828125,0.0,0,0
1772276886.464403,1772276886.4348702,301.26953125,120.60546875,-22.94921875,509.765625,0.0,0,0
1772276886.464427,1772276886.438765,-926.26953125,19.53125,-113.76953125,-2.44140625,0.0,0,0
1772276886.5227678,1772276886.4427829,-859.375,-37.109375,-200.1953125,-501.953125,0.0,0,0
1772276886.5228631,1772276886.4466777,199.21875,15.13671875,-170.8984375,-381.8359375,0.0,0,0
1772276886.523369,1772276886.4505725,977.05078125,53.7109375,-53.7109375,222.65625,0.0,0,0
1772276886.523403,1772276886.4544675,242.1875,53.22265625,-4.39453125,458.984375,0.0,0,0
1772276886.523427,1772276886.4583623,-822.75390625,-15.625,-79.58984375,55.17578125,0.0,0,0
1772276886.5234518,1772276886.4622571,-961.9140625,-44.43359375,-167.96875,-459.9609375,0.0,0,0
1772276886.523476,1772276886.466152,-174.8046875,27.34375,-153.80859375,-409.66796875,0.0,0,0
1772276886.523499,1772276886.4700468,884.27734375,109.86328125,-34.1796875,198.2421875,0.0,0,0
1772276886.523523,1772276886.4739416,366.69921875,69.3359375,9.27734375,451.66015625,0.0,0,0
1772276886.523547,1772276886.4778366,-677.734375,-35.64453125,-48.33984375,169.43359375,0.0,0,0
1772276886.5235698,1772276886.4817314,-1000.0,-83.0078125,-148.4375,-381.34765625,0.0,0,0
1772276886.523593,1772276886.4856262,-225.5859375,-33.69140625,-178.7109375,-456.0546875,0.0,0,0
1772276886.5538628,1772276886.4896262,-986.81640625,74.21875,-50.29296875,149.4140625,0.0,0,0
1772276886.553951,1772276886.493521,517.08984375,61.5234375,-3.90625,445.3125,0.0,0,0
1772276886.5539892,1772276886.4974158,-495.1171875,-36.62109375,-62.5,227.05078125,0.0,0,0
1772276886.5540879,1772276886.5013108,-939.453125,-121.09375,-143.5546875,-353.515625,0.0,0,0
1772276886.5541189,1772276886.5052056,-295.8984375,-58.10546875,-141.6015625,-477.05078125,0.0,0,0
1772276886.554144,1772276886.5091004,938.96484375,100.5859375,-23.4375,95.703125,0.0,0,0
1772276886.5541692,1772276886.5129952,701.66015625,47.36328125,30.2734375,439.453125,0.0,0,0
1772276886.5541928,1772276886.51689,-419.921875,-74.70703125,0.9765625,301.7578125,0.0,0,0
1772276886.5542169,1772276886.520785,-1000.0,-165.0390625,-113.76953125,-327.63671875,0.0,0,0
1772276886.554241,1772276886.52468,-288.0859375,-128.41796875,-160.15625,-541.015625,0.0,0,0
1772276886.554265,1772276886.5285747,952.1484375,-16.11328125,-56.640625,0.0,0.0,0,0
1772276886.5542881,1772276886.5324695,869.140625,-33.203125,8.30078125,419.921875,0.0,0,0
1772276886.612587,1772276886.5364587,-68.359375,-68.84765625,-2.9296875,337.890625,0.0,0,0
1772276886.612679,1772276886.5403538,-934.08203125,-153.3203125,-98.14453125,-304.19921875,0.0,0,0
1772276886.6127071,1772276886.5442486,-422.36328125,-136.71875,-138.671875,-576.66015625,0.0,0,0
1772276886.612733,1772276886.5481434,692.87109375,6.34765625,-37.59765625,-119.62890625,0.0,0,0
1772276886.612757,1772276886.5520382,925.29296875,77.63671875,60.05859375,363.76953125,0.0,0,0
1772276886.612781,1772276886.5559332,200.68359375,13.671875,44.43359375,338.8671875,0.0,0,0
1772276886.612857,1772276886.559828,-839.84375,-182.6171875,-65.4296875,-282.2265625,0.0,0,0
1772276886.612902,1772276886.5637228,-485.3515625,-165.52734375,-125.0,-618.1640625,0.0,0,0
1772276886.6129448,1772276886.567618,752.44140625,12.20703125,-74.70703125,-314.453125,0.0,0,0
1772276886.61303,1772276886.5715127,-1000.0,91.796875,31.73828125,245.1171875,0.0,0,0
1772276886.613086,1772276886.5754075,327.1484375,80.56640625,53.22265625,366.69921875,0.0,0,0
1772276886.613137,1772276886.5793023,-729.4921875,-65.4296875,-61.03515625,-265.625,0.0,0,0
1772276886.6592362,1772276886.5832803,-658.203125,-92.28515625,-120.60546875,-644.04296875,0.0,0,0
1772276886.659349,1772276886.5871751,544.43359375,-11.23046875,-68.359375,-381.8359375,0.0,0,0
1772276886.659391,1772276886.5910702,-975.5859375,45.8984375,27.83203125,187.98828125,0.0,0,0
1772276886.659416,1772276886.594965,307.6171875,19.04296875,49.8046875,372.55859375,0.0,0,0
1772276886.65944,1772276886.5988598,-766.6015625,-160.64453125,-57.6171875,-161.1328125,0.0,0,0
1772276886.659464,1772276886.6027548,-835.9375,-198.73046875,-122.0703125,-558.10546875,0.0,0,0
1772276886.659488,1772276886.6066496,147.4609375,-79.1015625,-83.0078125,-355.95703125,0.0,0,0
1772276886.659512,1772276886.6105444,952.1484375,42.96875,6.8359375,225.09765625,0.0,0,0
1772276886.659536,1772276886.6144395,273.92578125,47.36328125,31.25,424.8046875,0.0,0,0
1772276886.65956,1772276886.6183343,-786.62109375,-88.8671875,-58.59375,-19.53125,0.0,0,0
1772276886.659583,1772276886.622229,-919.921875,-115.72265625,-137.6953125,-508.7890625,0.0,0,0
1772276886.659607,1772276886.6261241,127.44140625,-33.69140625,-115.234375,-417.48046875,0.0,0,0
1772276886.704593,1772276886.6301782,-912.59765625,49.8046875,-21.97265625,173.33984375,0.0,0,0
1772276886.704777,1772276886.634073,342.7734375,14.6484375,23.92578125,405.76171875,0.0,0,0
1772276886.7048352,1772276886.637968,-657.2265625,-107.91015625,-11.23046875,88.37890625,0.0,0,0
1772276886.704888,1772276886.6418629,-960.9375,-138.18359375,-117.67578125,-474.609375,0.0,0,0
1772276886.70494,1772276886.645758,-328.125,-40.52734375,-137.20703125,-520.99609375,0.0,0,0
1772276886.704992,1772276886.6496527,821.77734375,81.0546875,-10.25390625,97.65625,0.0,0,0
1772276886.7050428,1772276886.6535478,452.1484375,44.921875,55.6640625,374.51171875,0.0,0,0
1772276886.7050948,1772276886.6574426,-745.60546875,-57.12890625,-0.9765625,113.76953125,0.0,0,0
1772276886.705131,1772276886.6613376,-1000.0,-158.203125,-124.0234375,-462.890625,0.0,0,0
1772276886.7051609,1772276886.6652324,-252.9296875,-123.046875,-132.32421875,-562.01171875,0.0,0,0
1772276886.70519,1772276886.6691275,-996.58203125,80.078125,3.90625,80.078125,0.0,0,0
1772276886.705219,1772276886.6730223,577.1484375,105.46875,63.96484375,416.015625,0.0,0,0
1772276886.749511,1772276886.677069,-416.50390625,6.8359375,11.71875,229.98046875,0.0,0,0
1772276886.74969,1772276886.6809638,-938.4765625,-76.66015625,-91.796875,-354.00390625,0.0,0,0
1772276886.749749,1772276886.6848588,-274.90234375,-30.76171875,-100.5859375,-534.1796875,0.0,0,0
1772276886.749804,1772276886.6887538,-926.7578125,112.3046875,14.16015625,9.765625,0.0,0,0
1772276886.749856,1772276886.6926486,814.94140625,113.76953125,69.82421875,396.484375,0.0,0,0
1772276886.749908,1772276886.6965437,-92.7734375,27.83203125,39.55078125,305.6640625,0.0,0,0
1772276886.7499578,1772276886.7004385,-898.4375,-100.09765625,-74.21875,-309.08203125,0.0,0,0
1772276886.750012,1772276886.7043335,-335.9375,-89.35546875,-117.67578125,-550.78125,0.0,0,0
1772276886.7500641,1772276886.7082283,880.37109375,31.25,-30.76171875,-74.21875,0.0,0,0
1772276886.750114,1772276886.7121234,885.7421875,60.05859375,52.734375,400.390625,0.0,0,0
1772276886.7501628,1772276886.7160182,167.96875,25.87890625,36.62109375,378.90625,0.0,0,0
1772276886.7502122,1772276886.7199132,-792.96875,-118.65234375,-89.35546875,-258.7890625,0.0,0,0
1772276886.794389,1772276886.723949,-444.3359375,-151.3671875,-113.76953125,-519.53125,0.0,0,0
1772276886.794542,1772276886.727844,746.58203125,-34.66796875,-29.296875,-111.328125,0.0,0,0
1772276886.794585,1772276886.731739,958.0078125,32.2265625,55.17578125,386.71875,0.0,0,0
1772276886.794624,1772276886.7356339,392.08984375,8.30078125,71.77734375,459.47265625,0.0,0,0
1772276886.794661,1772276886.739529,-661.62109375,-153.80859375,-32.71484375,-148.4375,0.0,0,0
1772276886.794699,1772276886.743424,-624.51171875,-187.01171875,-82.03125,-494.140625,0.0,0,0
1772276886.7947352,1772276886.7473187,566.40625,-78.125,-18.06640625,-200.68359375,0.0,0,0
1772276886.794776,1772276886.7512138,-991.69921875,-11.71875,94.23828125,345.21484375,0.0,0,0
1772276886.794812,1772276886.7551088,362.79296875,-62.01171875,134.27734375,501.953125,0.0,0,0
1772276886.794849,1772276886.7590036,-742.1875,-215.33203125,23.92578125,-80.078125,0.0,0,0
1772276886.7948852,1772276886.7628987,-711.42578125,-198.73046875,-61.03515625,-491.69921875,0.0,0,0
1772276886.7949219,1772276886.7667937,421.38671875,-64.94140625,-32.2265625,-276.85546875,0.0,0,0
1772276886.839017,1772276886.7708147,972.65625,50.78125,74.21875,279.296875,0.0,0,0
1772276886.839107,1772276886.7747097,315.4296875,53.7109375,109.86328125,442.3828125,0.0,0,0
1772276886.8391411,1772276886.7786047,-738.76953125,-118.1640625,12.6953125,-54.19921875,0.0,0,0
1772276886.839212,1772276886.7824996,-876.46484375,-192.3828125,-70.80078125,-496.09375,0.0,0,0
1772276886.839287,1772276886.7863946,342.28515625,-122.55859375,-30.76171875,-343.75,0.0,0,0
1772276886.839472,1772276886.7902896,-787.59765625,-6.8359375,78.125,280.76171875,0.0,0,0
1772276886.839509,1772276886.7941844,232.91015625,20.99609375,82.51953125,496.09375,0.0,0,0
1772276886.83954,1772276886.7980795,-836.9140625,-77.1484375,-0.9765625,78.61328125,0.0,0,0
1772276886.8395698,1772276886.8019745,-952.1484375,-126.953125,-88.37890625,-451.66015625,0.0,0,0
1772276886.8395991,1772276886.8058696,-181.640625,-62.5,-75.1953125,-405.2734375,0.0,0,0
1772276886.839628,1772276886.8097644,854.4921875,52.734375,33.203125,232.421875,0.0,0,0
1772276886.8396559,1772276886.8136594,335.9375,30.2734375,67.3828125,478.515625,0.0,0,0
1772276886.899053,1772276886.8176744,-697.265625,-100.5859375,32.71484375,186.03515625,0.0,0,0
1772276886.8991811,1772276886.8215694,-996.58203125,-181.640625,-79.58984375,-365.234375,0.0,0,0
1772276886.899241,1772276886.8254642,-249.51171875,-110.3515625,-91.30859375,-406.25,0.0,0,0
1772276886.899294,1772276886.8293593,999.51171875,32.71484375,43.45703125,187.98828125,0.0,0,0
1772276886.8993459,1772276886.8332543,524.4140625,23.4375,76.171875,484.86328125,0.0,0,0
1772276886.8993971,1772276886.8371494,-516.6015625,-37.59765625,25.390625,278.3203125,0.0,0,0
1772276886.899447,1772276886.8410444,-984.86328125,-103.02734375,-66.89453125,-334.47265625,0.0,0,0
1772276886.899499,1772276886.8449395,-267.08984375,-69.82421875,-99.609375,-497.55859375,0.0,0,0
1772276886.89955,1772276886.8488343,-989.2578125,109.86328125,7.32421875,68.84765625,0.0,0,0
1772276886.8995998,1772276886.8527293,714.84375,143.5546875,76.171875,448.73046875,0.0,0,0
1772276886.89965,1772276886.8566244,-38.57421875,46.38671875,45.8984375,327.1484375,0.0,0,0
1772276886.8997,1772276886.8605194,-742.1875,-88.8671875,-58.59375,-305.17578125,0.0,0,0
1772276886.928755,1772276886.8645215,-373.53515625,-78.61328125,-99.12109375,-534.1796875,0.0,0,0
1772276886.928868,1772276886.8684163,854.98046875,62.01171875,-16.11328125,-20.99609375,0.0,0,0
1772276886.928916,1772276886.8723114,875.9765625,62.01171875,69.3359375,431.15234375,0.0,0,0
1772276886.9289641,1772276886.8762064,177.734375,-11.71875,60.546875,427.24609375,0.0,0,0
1772276886.9289951,1772276886.8801014,-779.78515625,-114.74609375,-78.61328125,-186.03515625,0.0,0,0
1772276886.929041,1772276886.8839965,-348.6328125,-81.54296875,-116.2109375,-479.98046875,0.0,0,0
1772276886.9291039,1772276886.8878915,917.96875,69.3359375,-26.3671875,-111.328125,0.0,0,0
1772276886.9291341,1772276886.8917866,945.3125,104.4921875,63.96484375,341.30859375,0.0,0,0
1772276886.929184,1772276886.8956816,344.23828125,35.15625,66.40625,370.60546875,0.0,0,0
1772276886.929237,1772276886.8995767,-647.4609375,-113.28125,-43.9453125,-202.1484375,0.0,0,0
1772276886.929281,1772276886.9034717,-505.859375,-129.39453125,-101.07421875,-470.703125,0.0,0,0
1772276886.9293308,1772276886.9073665,631.34765625,-8.30078125,-24.4140625,-109.375,0.0,0,0
1772276886.973658,1772276886.9113548,960.9375,72.265625,89.84375,417.48046875,0.0,0,0
1772276886.97371,1772276886.9152498,255.37109375,47.8515625,64.94140625,474.609375,0.0,0,0
1772276886.9737291,1772276886.9191449,-894.53125,-103.02734375,-59.08203125,-157.71484375,0.0,0,0
1772276886.9737449,1772276886.92304,-643.5546875,-113.76953125,-101.07421875,-559.5703125,0.0,0,0
1772276886.97376,1772276886.926935,463.37890625,20.01953125,-71.2890625,-324.21875,0.0,0,0
1772276886.9737751,1772276886.93083,925.78125,121.09375,29.78515625,241.69921875,0.0,0,0
1772276886.973789,1772276886.934725,340.8203125,65.91796875,74.70703125,415.52734375,0.0,0,0
1772276886.973804,1772276886.93862,-743.65234375,-113.76953125,-20.99609375,-109.86328125,0.0,0,0
1772276886.9738188,1772276886.9425151,-808.59375,-147.4609375,-88.8671875,-540.0390625,0.0,0,0
1772276886.973834,1772276886.9464102,299.31640625,-45.8984375,-48.828125,-364.74609375,0.0,0,0
1772276886.97387,1772276886.9503052,-965.8203125,71.2890625,58.59375,226.5625,0.0,0,0
1772276886.97391,1772276886.9542003,262.6953125,51.26953125,79.1015625,421.38671875,0.0,0,0
1772276887.033244,1772276886.9581792,-798.828125,-100.09765625,-22.4609375,-27.83203125,0.0,0,0
1772276887.033289,1772276886.9620743,-968.26171875,-162.109375,-130.859375,-533.69140625,0.0,0,0
1772276887.0333061,1772276886.9659693,140.13671875,-106.4453125,-118.65234375,-461.42578125,0.0,0,0
1772276887.03332,1772276886.9698644,-815.4296875,20.5078125,25.390625,177.24609375,0.0,0,0
1772276887.033333,1772276886.9737594,323.2421875,30.76171875,83.0078125,411.62109375,0.0,0,0
1772276887.0333471,1772276886.9776545,-666.50390625,-60.05859375,0.9765625,51.26953125,0.0,0,0
1772276887.033361,1772276886.9815495,-982.91015625,-125.0,-108.3984375,-493.1640625,0.0,0,0
1772276887.033375,1772276886.9854445,-126.46484375,-62.5,-102.05078125,-508.7890625,0.0,0,0
1772276887.0333881,1772276886.9893396,-913.0859375,112.79296875,30.76171875,151.85546875,0.0,0,0
1772276887.033401,1772276886.9932346,406.73828125,98.6328125,77.1484375,435.05859375,0.0,0,0
1772276887.033414,1772276886.9971297,-621.09375,-34.66796875,22.94921875,173.33984375,0.0,0,0
1772276887.033427,1772276887.0010247,-944.82421875,-119.140625,-93.26171875,-379.8828125,0.0,0,0
1772276887.092313,1772276887.0050771,-345.21484375,-60.546875,-108.3984375,-471.6796875,0.0,0,0
1772276887.092382,1772276887.0089722,873.53515625,114.2578125,11.71875,135.25390625,0.0,0,0
1772276887.0924082,1772276887.0128672,617.1875,124.0234375,62.5,464.84375,0.0,0,0
1772276887.09243,1772276887.0167623,-330.56640625,1.953125,28.80859375,269.53125,0.0,0,0
1772276887.0924869,1772276887.0206573,-837.40234375,-84.9609375,-86.42578125,-344.7265625,0.0,0,0
1772276887.0925329,1772276887.0245523,-508.30078125,-46.875,-115.72265625,-497.55859375,0.0,0,0
1772276887.092584,1772276887.0284474,669.43359375,82.51953125,3.90625,79.58984375,0.0,0,0
1772276887.092603,1772276887.0323424,749.51171875,82.03125,64.453125,460.9375,0.0,0,0
1772276887.0926201,1772276887.0362377,-222.65625,-3.90625,25.390625,348.6328125,0.0,0,0
1772276887.0926368,1772276887.0401328,-941.40625,-123.046875,-91.796875,-277.34375,0.0,0,0
1772276887.092654,1772276887.0440278,-299.31640625,-125.48828125,-125.9765625,-524.4140625,0.0,0,0
1772276887.092671,1772276887.0479228,933.59375,49.8046875,-15.13671875,-56.640625,0.0,0,0
1772276887.1233401,1772276887.0519643,914.55078125,92.28515625,75.68359375,405.76171875,0.0,0,0
1772276887.1233962,1772276887.0558596,308.10546875,10.7421875,55.6640625,390.13671875,0.0,0,0
1772276887.123416,1772276887.0597546,-683.59375,-136.71875,-83.49609375,-238.76953125,0.0,0,0
1772276887.123434,1772276887.0636497,-440.91796875,-128.41796875,-130.859375,-514.16015625,0.0,0,0
1772276887.123478,1772276887.0675447,762.20703125,29.296875,-47.36328125,-133.30078125,0.0,0,0
1772276887.123508,1772276887.0714397,967.28515625,99.12109375,29.78515625,358.3984375,0.0,0,0
1772276887.123529,1772276887.075335,304.19921875,49.8046875,19.04296875,427.734375,0.0,0,0
1772276887.1235461,1772276887.07923,-767.578125,-119.62890625,-95.703125,-151.85546875,0.0,0,0
1772276887.123563,1772276887.083125,-620.1171875,-114.74609375,-133.30078125,-465.33203125,0.0,0,0
1772276887.12358,1772276887.0870202,569.3359375,6.34765625,-58.59375,-166.50390625,0.0,0,0
1772276887.123598,1772276887.0909152,-988.28125,62.98828125,43.45703125,368.1640625,0.0,0,0
1772276887.123616,1772276887.0948105,314.453125,20.5078125,58.59375,466.796875,0.0,0,0
1772276887.168283,1772276887.09884,-799.31640625,-142.578125,-43.9453125,-104.4921875,0.0,0,0
1772276887.168333,1772276887.1027353,-721.6796875,-134.27734375,-127.9296875,-487.3046875,0.0,0,0
1772276887.16835,1772276887.1066303,381.8359375,-0.48828125,-106.93359375,-288.57421875,0.0,0,0
1772276887.1683662,1772276887.1105254,958.0078125,94.23828125,32.71484375,283.203125,0.0,0,0
1772276887.168381,1772276887.1144207,275.87890625,49.8046875,81.54296875,473.6328125,0.0,0,0
1772276887.168396,1772276887.1183157,-818.359375,-133.30078125,-19.53125,-0.48828125,0.0,0,0
1772276887.16841,1772276887.1222107,-909.66796875,-174.31640625,-93.26171875,-450.68359375,0.0,0,0
1772276887.1684248,1772276887.126106,229.4921875,-87.40234375,-52.734375,-332.03125,0.0,0,0
1772276887.16851,1772276887.130001,-888.671875,-1.46484375,55.17578125,253.41796875,0.0,0,0
1772276887.1685271,1772276887.133896,270.01953125,-23.92578125,78.125,448.2421875,0.0,0,0
1772276887.1685429,1772276887.1377912,-705.078125,-129.8828125,-8.7890625,59.08203125,0.0,0,0
1772276887.1685581,1772276887.1416864,-957.03125,-154.296875,-116.69921875,-432.6171875,0.0,0,0
1772276887.2134411,1772276887.1457057,-35.64453125,-54.6875,-106.4453125,-411.62109375,0.0,0,0
1772276887.21348,1772276887.1496007,-921.38671875,78.125,15.625,172.36328125,0.0,0,0
1772276887.213495,1772276887.153496,408.69140625,66.40625,54.6875,414.55078125,0.0,0,0
1772276887.2135072,1772276887.157391,-643.06640625,-58.10546875,-3.90625,144.53125,0.0,0,0
1772276887.213519,1772276887.161286,-1000.0,-157.71484375,-104.4921875,-407.71484375,0.0,0,0
1772276887.2135308,1772276887.1651814,-203.61328125,-66.89453125,-115.234375,-467.7734375,0.0,0,0
1772276887.213542,1772276887.1690764,-938.96484375,133.30078125,-7.8125,128.41796875,0.0,0,0
1772276887.213554,1772276887.1729717,588.37890625,109.86328125,33.69140625,422.36328125,0.0,0,0
1772276887.213566,1772276887.1768668,-386.23046875,-8.7890625,-16.11328125,225.5859375,0.0,0,0
1772276887.213577,1772276887.1807618,-946.77734375,-100.09765625,-100.09765625,-357.91015625,0.0,0,0
1772276887.213589,1772276887.184657,-246.58203125,-81.0546875,-104.98046875,-490.72265625,0.0,0,0
1772276887.2136,1772276887.1885521,-950.1953125,66.89453125,-5.859375,62.98828125,0.0,0,0
1772276887.272429,1772276887.1925628,734.86328125,82.51953125,55.17578125,412.109375,0.0,0,0
1772276887.272465,1772276887.1964579,-119.140625,0.48828125,19.04296875,314.453125,0.0,0,0
1772276887.272484,1772276887.2003531,-843.75,-119.140625,-100.09765625,-282.2265625,0.0,0,0
1772276887.2725,1772276887.2042482,-299.8046875,-104.98046875,-123.53515625,-498.53515625,0.0,0,0
1772276887.272515,1772276887.2081435,999.51171875,36.1328125,-15.13671875,6.8359375,0.0,0,0
1772276887.2725298,1772276887.2120385,859.375,41.015625,60.546875,437.98828125,0.0,0,0
1772276887.272546,1772276887.2159338,224.609375,-41.015625,36.62109375,376.953125,0.0,0,0
1772276887.2725601,1772276887.2198288,-664.55078125,-173.828125,-97.16796875,-272.4609375,0.0,0,0
1772276887.272575,1772276887.2237241,-383.30078125,-158.203125,-129.39453125,-560.05859375,0.0,0,0
1772276887.2725928,1772276887.2276192,907.2265625,-12.6953125,-55.17578125,-151.85546875,0.0,0,0
1772276887.272608,1772276887.2315145,966.30859375,39.0625,17.08984375,351.07421875,0.0,0,0
1772276887.2726321,1772276887.2354095,359.375,-22.4609375,24.4140625,383.30078125,0.0,0,0
1772276887.3031318,1772276887.2394123,-662.109375,-167.96875,-72.265625,-266.6015625,0.0,0,0
1772276887.303164,1772276887.2433074,-426.7578125,-176.7578125,-100.09765625,-593.75,0.0,0,0
1772276887.303185,1772276887.2472026,772.4609375,-73.2421875,-60.546875,-286.62109375,0.0,0,0
1772276887.303205,1772276887.2510977,963.37890625,17.578125,23.92578125,246.58203125,0.0,0,0
1772276887.303227,1772276887.254993,381.8359375,13.671875,57.6171875,367.1875,0.0,0,0
1772276887.303259,1772276887.2588882,-712.890625,-125.48828125,-43.9453125,-223.6328125,0.0,0,0
1772276887.30328,1772276887.2627833,-663.57421875,-132.32421875,-114.2578125,-575.68359375,0.0,0,0
1772276887.303329,1772276887.2666786,566.89453125,-26.3671875,-76.171875,-340.8203125,0.0,0,0
1772276887.303404,1772276887.2705736,-971.6796875,53.22265625,23.4375,202.63671875,0.0,0,0
1772276887.303426,1772276887.274469,327.1484375,25.390625,58.10546875,398.92578125,0.0,0,0
1772276887.303446,1772276887.278364,-697.265625,-139.6484375,-33.69140625,-73.73046875,0.0,0,0
1772276887.303466,1772276887.2822592,-845.21484375,-149.90234375,-118.65234375,-519.04296875,0.0,0,0
1772276887.3482912,1772276887.2862468,244.62890625,-34.66796875,-93.26171875,-392.578125,0.0,0,0
1772276887.3483598,1772276887.290142,-935.05859375,68.359375,23.4375,188.96484375,0.0,0,0
1772276887.3483891,1772276887.294037,252.44140625,36.1328125,66.89453125,378.90625,0.0,0,0
1772276887.348416,1772276887.2979324,-804.19921875,-127.44140625,-16.11328125,-66.40625,0.0,0,0
1772276887.348442,1772276887.3018277,-959.9609375,-170.41015625,-124.51171875,-565.91796875,0.0,0,0
1772276887.348468,1772276887.3057227,6.34765625,-78.125,-105.46875,-463.37890625,0.0,0,0
1772276887.348494,1772276887.309618,-958.984375,14.16015625,10.25390625,161.1328125,0.0,0,0
1772276887.3485188,1772276887.313513,353.515625,-5.859375,14.6484375,366.69921875,0.0,0,0
1772276887.348543,1772276887.3174083,-668.45703125,-99.12109375,-46.38671875,58.59375,0.0,0,0
1772276887.348567,1772276887.3213036,-1000.0,-166.50390625,-120.60546875,-458.49609375,0.0,0,0
1772276887.3485901,1772276887.3251987,-149.4140625,-94.7265625,-109.375,-494.62890625,0.0,0,0
1772276887.348614,1772276887.329094,-934.08203125,61.03515625,-0.48828125,122.0703125,0.0,0,0
1772276887.409787,1772276887.3330748,458.0078125,74.70703125,33.69140625,370.1171875,0.0,0,0
1772276887.409913,1772276887.3369699,-521.97265625,-36.1328125,-10.25390625,131.8359375,0.0,0,0
1772276887.409947,1772276887.3408651,-944.82421875,-140.13671875,-116.2109375,-431.15234375,0.0,0,0
1772276887.4099782,1772276887.3447604,-272.4609375,-82.51953125,-143.5546875,-550.78125,0.0,0,0
1772276887.4100091,1772276887.3486555,-992.1875,83.0078125,-28.80859375,58.10546875,0.0,0,0
1772276887.410038,1772276887.3525507,630.37109375,76.171875,36.1328125,413.57421875,0.0,0,0
1772276887.410068,1772276887.356446,-195.3125,-28.3203125,0.48828125,255.859375,0.0,0,0
1772276887.4100978,1772276887.360341,-808.10546875,-157.71484375,-117.1875,-362.79296875,0.0,0,0
1772276887.4101272,1772276887.3642364,-301.7578125,-141.6015625,-143.5546875,-561.03515625,0.0,0,0
1772276887.410156,1772276887.3681316,-994.140625,32.2265625,-17.578125,-27.83203125,0.0,0,0
1772276887.410184,1772276887.3720267,847.16796875,56.15234375,54.19921875,383.7890625,0.0,0,0
1772276887.410212,1772276887.375922,53.7109375,-24.4140625,33.203125,287.59765625,0.0,0,0
1772276887.453836,1772276887.379972,-832.03125,-164.55078125,-72.265625,-330.078125,0.0,0,0
1772276887.453892,1772276887.3838673,-330.078125,-170.41015625,-118.1640625,-562.01171875,0.0,0,0
1772276887.4539158,1772276887.3877625,910.15625,-22.4609375,-42.96875,-129.8828125,0.0,0,0
1772276887.4539368,1772276887.3916578,909.66796875,56.15234375,24.90234375,350.09765625,0.0,0,0
1772276887.453959,1772276887.3955529,214.35546875,4.8828125,26.85546875,369.62890625,0.0,0,0
1772276887.45398,1772276887.3994482,-728.02734375,-161.1328125,-57.12890625,-271.484375,0.0,0,0
1772276887.454002,1772276887.4033434,-420.8984375,-152.83203125,-89.35546875,-584.9609375,0.0,0,0
1772276887.454135,1772276887.4072387,732.91015625,-7.8125,-18.5546875,-229.4921875,0.0,0,0
1772276887.454211,1772276887.4111338,943.84765625,41.9921875,67.3828125,284.1796875,0.0,0,0
1772276887.454237,1772276887.415029,364.74609375,10.25390625,87.40234375,364.74609375,0.0,0,0
1772276887.454259,1772276887.4189243,-676.26953125,-118.1640625,-11.23046875,-241.69921875,0.0,0,0
1772276887.45428,1772276887.4228196,-647.94921875,-130.37109375,-61.03515625,-585.9375,0.0,0,0
1772276887.498373,1772276887.426859,428.7109375,-52.734375,0.9765625,-314.453125,0.0,0,0
1772276887.498414,1772276887.430754,944.3359375,10.25390625,97.65625,267.578125,0.0,0,0
1772276887.4984279,1772276887.4346492,336.9140625,-10.7421875,111.328125,400.390625,0.0,0,0
1772276887.498441,1772276887.4385445,-729.00390625,-151.85546875,-17.08984375,-196.77734375,0.0,0,0
1772276887.4985049,1772276887.4424398,-856.4453125,-166.50390625,-95.21484375,-570.80078125,0.0,0,0
1772276887.4985201,1772276887.446335,107.91015625,-55.6640625,-42.96875,-386.71875,0.0,0,0
1772276887.498532,1772276887.4502304,962.890625,57.6171875,70.3125,189.94140625,0.0,0,0
1772276887.4985442,1772276887.4541256,269.53125,13.671875,107.91015625,388.671875,0.0,0,0
1772276887.4985979,1772276887.4580207,-849.12109375,-153.3203125,39.55078125,-93.26171875,0.0,0,0
1772276887.498612,1772276887.461916,-921.875,-193.84765625,-24.4140625,-558.59375,0.0,0,0
1772276887.4986491,1772276887.4658113,-38.0859375,-86.9140625,3.41796875,-444.82421875,0.0,0,0
1772276887.4987211,1772276887.4697065,919.921875,15.625,109.375,173.828125,0.0,0,0
1772276887.542967,1772276887.4737346,245.60546875,-14.6484375,136.23046875,414.0625,0.0,0,0
1772276887.543,1772276887.47763,-875.9765625,-119.62890625,51.26953125,56.15234375,0.0,0,0
1772276887.5430112,1772276887.4815252,-998.53515625,-192.3828125,-58.59375,-486.328125,0.0,0,0
1772276887.54302,1772276887.4854205,-160.15625,-128.41796875,-58.59375,-469.7265625,0.0,0,0
1772276887.543029,1772276887.4893157,936.03515625,21.97265625,57.12890625,164.0625,0.0,0,0
1772276887.543038,1772276887.493211,362.3046875,0.9765625,89.84375,397.4609375,0.0,0,0
1772276887.543047,1772276887.4971063,-675.78125,-107.421875,25.87890625,140.625,0.0,0,0
1772276887.543083,1772276887.5010016,-979.4921875,-150.390625,-83.0078125,-438.4765625,0.0,0,0
1772276887.543124,1772276887.5048969,-312.5,-101.5625,-100.5859375,-539.55078125,0.0,0,0
1772276887.543145,1772276887.5087922,924.31640625,30.76171875,33.69140625,119.140625,0.0,0,0
1772276887.543155,1772276887.5126874,523.4375,38.57421875,80.56640625,423.828125,0.0,0,0
1772276887.543164,1772276887.5165827,-458.984375,-61.5234375,8.7890625,201.66015625,0.0,0,0
1772276887.630912,1772276887.5206,-934.08203125,-148.92578125,-116.69921875,-420.8984375,0.0,0,0
1772276887.630956,1772276887.5244954,-237.3046875,-120.60546875,-140.13671875,-617.67578125,0.0,0,0
1772276887.630968,1772276887.5283906,-899.90234375,35.64453125,-38.57421875,-33.203125,0.0,0,0
1772276887.63098,1772276887.532286,770.5078125,75.68359375,0.48828125,375.48828125,0.0,0,0
1772276887.63099,1772276887.5361812,181.640625,0.48828125,-30.76171875,278.80859375,0.0,0,0
1772276887.631,1772276887.5400765,-605.95703125,-115.72265625,-139.16015625,-329.1015625,0.0,0,0
1772276887.631018,1772276887.5439718,-315.4296875,-106.4453125,-175.29296875,-560.546875,0.0,0,0
1772276887.631047,1772276887.5478673,-942.3828125,17.08984375,-69.82421875,-29.78515625,0.0,0,0
1772276887.631073,1772276887.5517626,872.0703125,24.90234375,12.20703125,425.78125,0.0,0,0
1772276887.6310852,1772276887.5556579,300.78125,-21.484375,-14.16015625,394.53125,0.0,0,0
1772276887.631095,1772276887.5595531,-576.66015625,-169.43359375,-138.671875,-198.73046875,0.0,0,0
1772276887.631105,1772276887.5634484,-379.8828125,-179.19921875,-176.7578125,-455.078125,0.0,0,0
1772276887.6339169,1772276887.5674617,944.3359375,-0.9765625,-74.70703125,-10.7421875,0.0,0,0
1772276887.633932,1772276887.571357,980.95703125,71.2890625,20.5078125,482.91015625,0.0,0,0
1772276887.6339421,1772276887.5752523,393.06640625,27.34375,20.99609375,511.23046875,0.0,0,0
1772276887.633952,1772276887.5791476,-595.21484375,-127.44140625,-85.9375,-139.16015625,0.0,0,0
1772276887.633962,1772276887.5830429,-498.046875,-153.80859375,-145.01953125,-499.0234375,0.0,0,0
1772276887.633973,1772276887.5869381,733.88671875,-55.17578125,-97.65625,-194.3359375,0.0,0,0
1772276887.633982,1772276887.5908334,995.1171875,28.80859375,-8.30078125,362.79296875,0.0,0,0
1772276887.634003,1772276887.5947287,362.3046875,11.23046875,-0.48828125,499.51171875,0.0,0,0
1772276887.634024,1772276887.598624,-717.28515625,-150.87890625,-110.83984375,-78.61328125,0.0,0,0
1772276887.6340349,1772276887.6025195,-631.8359375,-141.6015625,-162.59765625,-444.82421875,0.0,0,0
1772276887.634045,1772276887.6064148,556.640625,-32.71484375,-114.74609375,-212.40234375,0.0,0,0
1772276887.634055,1772276887.61031,999.51171875,49.31640625,-8.7890625,335.44921875,0.0,0,0
1772276887.693442,1772276887.6143894,319.3359375,19.04296875,13.18359375,510.7421875,0.0,0,0
1772276887.693461,1772276887.6182847,-781.25,-176.26953125,-100.5859375,0.0,0.0,0,0
1772276887.693473,1772276887.6221802,-807.12890625,-208.49609375,-183.10546875,-482.91015625,0.0,0,0
1772276887.693486,1772276887.6260755,164.0625,-114.2578125,-155.76171875,-339.35546875,0.0,0,0
1772276887.693524,1772276887.6299708,894.04296875,-44.43359375,-58.10546875,273.92578125,0.0,0,0
1772276887.69355,1772276887.633866,281.25,-38.57421875,-32.2265625,475.09765625,0.0,0,0
1772276887.693564,1772276887.6377616,-757.32421875,-106.93359375,-103.02734375,30.2734375,0.0,0,0
1772276887.693578,1772276887.6416569,-971.6796875,-160.64453125,-176.7578125,-512.20703125,0.0,0,0
1772276887.693592,1772276887.6455522,-56.640625,-65.4296875,-151.85546875,-463.37890625,0.0,0,0
1772276887.6936152,1772276887.6494474,-943.84765625,69.82421875,-34.66796875,143.06640625,0.0,0,0
1772276887.6936378,1772276887.653343,323.2421875,49.31640625,-0.48828125,374.0234375,0.0,0,0
1772276887.693652,1772276887.6572382,-749.51171875,-43.45703125,-75.68359375,60.546875,0.0,0,0
1772276887.736973,1772276887.6612306,-1000.0,-125.0,-168.45703125,-502.9296875,0.0,0,0
1772276887.737022,1772276887.6651258,-74.70703125,-39.55078125,-150.390625,-537.109375,0.0,0,0
1772276887.737091,1772276887.6690211,-861.328125,116.69921875,-40.52734375,117.1875,0.0,0,0
1772276887.737104,1772276887.6729164,550.29296875,93.75,-0.9765625,401.3671875,0.0,0,0
1772276887.7371159,1772276887.676812,-179.6875,-27.83203125,-36.1328125,154.78515625,0.0,0,0
1772276887.737128,1772276887.6807072,-790.52734375,-146.484375,-132.8125,-451.66015625,0.0,0,0
1772276887.737139,1772276887.6846025,-337.40234375,-131.34765625,-156.73828125,-600.09765625,0.0,0,0
1772276887.737152,1772276887.688498,935.546875,5.859375,-56.15234375,29.78515625,0.0,0,0
1772276887.737163,1772276887.6923933,727.5390625,22.94921875,3.90625,429.6875,0.0,0,0
1772276887.737175,1772276887.6962886,-103.02734375,-65.4296875,-22.4609375,272.94921875,0.0,0,0
1772276887.737209,1772276887.7001839,-863.76953125,-182.6171875,-129.8828125,-365.72265625,0.0,0,0
1772276887.73723,1772276887.7040794,-264.6484375,-161.1328125,-154.78515625,-576.171875,0.0,0,0
1772276887.783235,1772276887.7080545,-918.9453125,8.7890625,-47.8515625,-20.5078125,0.0,0,0
1772276887.783264,1772276887.71195,837.890625,43.45703125,28.3203125,412.59765625,0.0,0,0
1772276887.7832792,1772276887.7158453,191.40625,-21.97265625,17.578125,329.1015625,0.0,0,0
1772276887.783294,1772276887.7197406,-604.00390625,-145.01953125,-95.703125,-329.1015625,0.0,0,0
1772276887.783309,1772276887.7236362,-472.65625,-137.20703125,-162.59765625,-592.28515625,0.0,0,0
1772276887.783324,1772276887.7275314,691.40625,7.32421875,-93.26171875,-108.88671875,0.0,0,0
1772276887.783339,1772276887.7314267,960.9375,88.8671875,15.625,395.5078125,0.0,0,0
1772276887.783354,1772276887.7353222,207.51953125,67.3828125,30.76171875,388.18359375,0.0,0,0
1772276887.7833679,1772276887.7392175,-893.5546875,-97.16796875,-85.9375,-238.28125,0.0,0,0
1772276887.783384,1772276887.7431128,-453.125,-117.67578125,-137.6953125,-538.57421875,0.0,0,0
1772276887.7833989,1772276887.7470083,836.42578125,-8.30078125,-72.265625,-197.75390625,0.0,0,0
1772276887.7834299,1772276887.7509036,995.1171875,66.40625,20.01953125,355.46875,0.0,0,0
1772276887.828001,1772276887.7549496,362.3046875,39.0625,33.203125,469.7265625,0.0,0,0
1772276887.828026,1772276887.7588449,-661.1328125,-127.44140625,-74.21875,-149.90234375,0.0,0,0
1772276887.828046,1772276887.7627404,-630.859375,-135.7421875,-138.671875,-537.59765625,0.0,0,0
1772276887.828063,1772276887.7666357,521.484375,-6.8359375,-88.8671875,-278.3203125,0.0,0,0
1772276887.8281229,1772276887.7705312,985.3515625,77.63671875,8.30078125,304.19921875,0.0,0,0
1772276887.828151,1772276887.7744265,331.0546875,55.17578125,35.64453125,463.8671875,0.0,0,0
1772276887.8281689,1772276887.7783217,-754.8828125,-103.515625,-60.546875,-104.00390625,0.0,0,0
1772276887.828187,1772276887.7822173,-781.73828125,-118.65234375,-125.0,-545.41015625,0.0,0,0
1772276887.828233,1772276887.7861125,175.29296875,-3.41796875,-83.0078125,-372.55859375,0.0,0,0
1772276887.828256,1772276887.790008,892.08984375,63.96484375,15.625,231.4453125,0.0,0,0
1772276887.8282728,1772276887.7939034,276.3671875,34.1796875,62.01171875,462.40234375,0.0,0,0
1772276887.8282938,1772276887.7977989,-834.9609375,-108.3984375,-16.11328125,0.48828125,0.0,0,0
1772276887.873893,1772276887.8018355,-917.96875,-154.296875,-113.76953125,-524.4140625,0.0,0,0
1772276887.873937,1772276887.805731,-81.54296875,-73.73046875,-94.23828125,-430.17578125,0.0,0,0
1772276887.874044,1772276887.8096263,831.0546875,51.26953125,16.6015625,210.44921875,0.0,0,0
1772276887.874073,1772276887.8135219,264.6484375,45.8984375,50.29296875,447.75390625,0.0,0,0
1772276887.8740978,1772276887.8174171,-757.32421875,-76.66015625,-33.203125,48.33984375,0.0,0,0
1772276887.874125,1772276887.8213127,-994.140625,-152.83203125,-129.39453125,-522.4609375,0.0,0,0
1772276887.874149,1772276887.825208,-162.109375,-75.1953125,-103.02734375,-513.671875,0.0,0,0
1772276887.874173,1772276887.8291035,-992.67578125,53.22265625,0.9765625,144.04296875,0.0,0,0
1772276887.874197,1772276887.8329988,414.0625,-24.90234375,36.1328125,406.25,0.0,0,0
1772276887.8742201,1772276887.8368943,-646.97265625,-134.27734375,-15.625,91.30859375,0.0,0,0
1772276887.874243,1772276887.8407896,-1000.0,-179.19921875,-123.53515625,-497.55859375,0.0,0,0
1772276887.8742669,1772276887.844685,-237.3046875,-131.34765625,-129.8828125,-578.61328125,0.0,0,0
1772276887.9201941,1772276887.848712,-970.703125,-7.8125,-22.4609375,39.0625,0.0,0,0
1772276887.920274,1772276887.8526075,598.6328125,-21.484375,38.57421875,373.046875,0.0,0,0
1772276887.920305,1772276887.856503,-347.16796875,-111.81640625,6.34765625,204.1015625,0.0,0,0
1772276887.920331,1772276887.8603983,-918.9453125,-191.89453125,-115.72265625,-426.7578125,0.0,0,0
1772276887.9203572,1772276887.8642938,-272.94921875,-162.109375,-137.20703125,-609.375,0.0,0,0
1772276887.9203808,1772276887.868189,-952.63671875,2.44140625,-9.27734375,8.7890625,0.0,0,0
1772276887.920407,1772276887.8720846,759.765625,40.0390625,62.98828125,441.40625,0.0,0,0
1772276887.920432,1772276887.8759801,-62.5,-45.8984375,9.27734375,289.55078125,0.0,0,0
1772276887.920457,1772276887.8798754,-792.96875,-168.9453125,-112.3046875,-395.99609375,0.0,0,0
1772276887.9205399,1772276887.883771,-322.75390625,-160.15625,-140.13671875,-621.58203125,0.0,0,0
1772276887.9205709,1772276887.8876665,897.4609375,7.32421875,-54.19921875,-90.8203125,0.0,0,0
1772276887.920596,1772276887.8915617,879.39453125,57.12890625,26.3671875,419.921875,0.0,0,0
1772276887.963315,1772276887.895579,338.37890625,-42.48046875,28.3203125,420.8984375,0.0,0,0
1772276887.963425,1772276887.8994746,-591.796875,-186.03515625,-82.51953125,-236.81640625,0.0,0,0
1772276887.963464,1772276887.9033701,-373.046875,-178.22265625,-136.71875,-530.2734375,0.0,0,0
1772276887.963491,1772276887.9072657,855.95703125,-47.8515625,-65.91796875,-113.76953125,0.0,0,0
1772276887.9636538,1772276887.911161,976.07421875,17.578125,24.4140625,395.5078125,0.0,0,0
1772276887.963688,1772276887.9150565,358.3984375,-6.8359375,31.25,428.22265625,0.0,0,0
1772276887.9637032,1772276887.918952,-692.87109375,-127.9296875,-78.125,-211.9140625,0.0,0,0
1772276887.963718,1772276887.9228473,-533.203125,-125.9765625,-142.578125,-544.921875,0.0,0,0
1772276887.963731,1772276887.9267428,712.40234375,-21.484375,-80.56640625,-208.0078125,0.0,0,0
1772276887.963744,1772276887.9306383,-989.2578125,72.75390625,33.69140625,365.72265625,0.0,0,0
1772276887.963757,1772276887.9345336,351.5625,66.40625,39.55078125,494.62890625,0.0,0,0
1772276887.9637702,1772276887.938429,-712.890625,-113.76953125,-69.3359375,-98.6328125,0.0,0,0
1772276888.0086122,1772276887.9424374,-741.69921875,-165.52734375,-134.27734375,-498.046875,0.0,0,0
1772276888.0086458,1772276887.946333,290.0390625,-57.6171875,-93.75,-284.66796875,0.0,0,0
1772276888.00866,1772276887.9502285,931.640625,32.2265625,13.18359375,309.5703125,0.0,0,0
1772276888.008671,1772276887.954124,259.27734375,16.6015625,41.50390625,509.27734375,0.0,0,0
1772276888.008682,1772276887.9580193,-838.8671875,-126.46484375,-49.8046875,-11.23046875,0.0,0,0
1772276888.008693,1772276887.9619148,-907.71484375,-169.921875,-125.9765625,-477.5390625,0.0,0,0
1772276888.008706,1772276887.9658103,-186.5234375,-69.82421875,-90.8203125,-332.51953125,0.0,0,0
1772276888.008717,1772276887.9697058,786.1328125,24.4140625,12.20703125,290.0390625,0.0,0,0
1772276888.008728,1772276887.9736013,295.8984375,0.48828125,33.69140625,516.11328125,0.0,0,0
1772276888.008739,1772276887.9774966,-818.84765625,-95.21484375,-37.59765625,107.421875,0.0,0,0
1772276888.00875,1772276887.9813921,-980.95703125,-108.3984375,-118.1640625,-430.6640625,0.0,0,0
1772276888.00876,1772276887.9852877,-164.0625,-2.9296875,-117.1875,-380.859375,0.0,0,0
1772276888.05408,1772276887.9892874,924.8046875,107.421875,-0.48828125,269.04296875,0.0,0,0
1772276888.0541189,1772276887.993183,415.0390625,80.56640625,53.22265625,536.1328125,0.0,0,0
1772276888.054133,1772276887.9970784,-558.10546875,-27.83203125,-30.2734375,225.09765625,0.0,0,0
1772276888.054147,1772276888.000974,-975.5859375,-126.953125,-148.4375,-360.83984375,0.0,0,0
1772276888.0541599,1772276888.0048695,-230.46875,-94.7265625,-120.1171875,-415.0390625,0.0,0,0
1772276888.054174,1772276888.008765,-952.1484375,70.3125,8.7890625,205.56640625,0.0,0,0
1772276888.054188,1772276888.0126603,500.48828125,50.29296875,34.1796875,472.65625,0.0,0,0
1772276888.0542011,1772276888.0165558,-431.640625,-74.70703125,-7.32421875,249.51171875,0.0,0,0
1772276888.054214,1772276888.0204513,-896.484375,-150.87890625,-101.5625,-351.5625,0.0,0,0
1772276888.054244,1772276888.0243468,-253.90625,-91.796875,-105.46875,-517.08984375,0.0,0,0
1772276888.054268,1772276888.0282423,-945.80078125,77.63671875,8.7890625,91.30859375,0.0,0,0
1772276888.054282,1772276888.0321379,671.38671875,73.2421875,55.17578125,476.07421875,0.0,0,0
1772276888.112423,1772276888.0361302,-118.65234375,-14.16015625,36.62109375,346.19140625,0.0,0,0
1772276888.112446,1772276888.0400257,-775.390625,-103.02734375,-68.359375,-256.8359375,0.0,0,0
1772276888.112465,1772276888.0439212,-311.5234375,-61.03515625,-100.09765625,-483.3984375,0.0,0,0
1772276888.112482,1772276888.0478168,972.16796875,97.65625,-1.953125,11.71875,0.0,0,0
1772276888.112499,1772276888.0517123,846.19140625,130.859375,63.4765625,439.453125,0.0,0,0
1772276888.1125162,1772276888.0556078,184.5703125,80.56640625,45.8984375,389.6484375,0.0,0,0
1772276888.112533,1772276888.0595033,-713.37890625,-70.3125,-44.43359375,-227.5390625,0.0,0,0
1772276888.1125498,1772276888.0633988,-356.93359375,-82.03125,-77.1484375,-488.28125,0.0,0,0
1772276888.112594,1772276888.0672944,916.50390625,74.70703125,-15.13671875,-54.19921875,0.0,0,0
1772276888.112632,1772276888.0711896,960.44921875,128.41796875,96.6796875,462.890625,0.0,0,0
1772276888.112652,1772276888.0750852,332.51953125,69.3359375,109.86328125,490.234375,0.0,0,0
1772276888.112669,1772276888.0789807,-619.140625,-58.10546875,-24.90234375,-202.1484375,0.0,0,0
1772276888.15778,1772276888.0829647,-379.8828125,-37.109375,-88.37890625,-587.890625,0.0,0,0
1772276888.157821,1772276888.0868602,855.46875,72.265625,-15.13671875,-272.94921875,0.0,0,0
1772276888.157849,1772276888.0907557,-991.2109375,121.09375,99.12109375,273.92578125,0.0,0,0
1772276888.1578739,1772276888.0946512,438.4765625,90.8203125,119.140625,408.69140625,0.0,0,0
1772276888.157899,1772276888.0985467,-563.96484375,-37.109375,-0.48828125,-187.5,0.0,0,0
1772276888.157922,1772276888.102442,-599.12109375,-53.7109375,-72.265625,-582.51953125,0.0,0,0
1772276888.157949,1772276888.1063375,751.46484375,46.38671875,-27.34375,-337.890625,0.0,0,0
1772276888.157975,1772276888.110233,-882.8125,91.30859375,66.40625,252.9296875,0.0,0,0
1772276888.158002,1772276888.1141286,306.15234375,23.4375,93.75,467.28515625,0.0,0,0
1772276888.158026,1772276888.118024,-727.05078125,-115.234375,10.7421875,-54.19921875,0.0,0,0
1772276888.15805,1772276888.1219196,-821.2890625,-131.34765625,-67.87109375,-492.67578125,0.0,0,0
1772276888.1580741,1772276888.1258152,340.33203125,14.16015625,-51.26953125,-304.19921875,0.0,0,0
1772276888.203817,1772276888.1298609,-942.87109375,116.2109375,57.12890625,293.45703125,0.0,0,0
1772276888.2039082,1772276888.1337564,306.15234375,48.828125,101.5625,488.76953125,0.0,0,0
1772276888.2039459,1772276888.137652,-661.1328125,-104.98046875,18.5546875,43.45703125,0.0,0,0
1772276888.203979,1772276888.1415474,-927.734375,-140.625,-68.84765625,-460.9375,0.0,0,0
1772276888.204011,1772276888.145443,139.16015625,-35.15625,-42.96875,-387.6953125,0.0,0,0
1772276888.204125,1772276888.1493385,-841.30859375,83.984375,56.640625,260.7421875,0.0,0,0
1772276888.204161,1772276888.153234,320.3125,57.6171875,79.58984375,507.32421875,0.0,0,0
1772276888.204192,1772276888.1571295,-661.1328125,-64.94140625,21.97265625,127.44140625,0.0,0,0
1772276888.204223,1772276888.161025,-978.515625,-131.34765625,-65.91796875,-459.9609375,0.0,0,0
1772276888.204253,1772276888.1649208,-133.7890625,-77.1484375,-70.80078125,-475.5859375,0.0,0,0
1772276888.204284,1772276888.1688163,-933.59375,44.921875,42.48046875,188.4765625,0.0,0,0
1772276888.204314,1772276888.1727118,396.484375,55.17578125,79.1015625,465.8203125,0.0,0,0
1772276888.24864,1772276888.1767473,-589.84375,-16.11328125,27.34375,203.61328125,0.0,0,0
1772276888.2487,1772276888.180643,-970.703125,-104.4921875,-74.21875,-357.91015625,0.0,0,0
1772276888.2487261,1772276888.1845386,-209.9609375,-56.640625,-82.51953125,-432.12890625,0.0,0,0
1772276888.248752,1772276888.1884341,-887.6953125,111.328125,37.109375,178.22265625,0.0,0,0
1772276888.248777,1772276888.1923296,654.78515625,125.48828125,72.265625,489.2578125,0.0,0,0
1772276888.248801,1772276888.1962252,-291.50390625,31.73828125,17.578125,300.29296875,0.0,0,0
1772276888.248825,1772276888.2001207,-920.41015625,-86.42578125,-91.30859375,-318.359375,0.0,0,0
1772276888.248849,1772276888.2040162,-256.34765625,-64.94140625,-107.91015625,-509.765625,0.0,0,0
1772276888.248874,1772276888.207912,-922.8515625,72.265625,-0.48828125,48.33984375,0.0,0,0
1772276888.248898,1772276888.2118075,815.4296875,72.75390625,67.87109375,460.44921875,0.0,0,0
1772276888.2489522,1772276888.215703,43.45703125,16.11328125,61.5234375,378.41796875,0.0,0,0
1772276888.249011,1772276888.2195985,-774.4140625,-86.42578125,-45.41015625,-269.04296875,0.0,0,0
1772276888.2942111,1772276888.2236264,-341.30859375,-95.703125,-83.0078125,-535.64453125,0.0,0,0
1772276888.2943108,1772276888.227522,926.26953125,44.43359375,-2.44140625,-46.38671875,0.0,0,0
1772276888.294346,1772276888.2314174,914.55078125,75.68359375,63.4765625,427.24609375,0.0,0,0
1772276888.294372,1772276888.2353132,222.16796875,-0.48828125,51.7578125,399.4140625,0.0,0,0
1772276888.294404,1772276888.2392087,-766.6015625,-138.671875,-62.98828125,-248.53515625,0.0,0,0
1772276888.294432,1772276888.2431042,-384.27734375,-113.76953125,-108.88671875,-540.52734375,0.0,0,0
1772276888.2944572,1772276888.2469997,916.015625,60.05859375,-28.80859375,-149.90234375,0.0,0,0
1772276888.2944808,1772276888.2508955,-977.05078125,119.140625,66.40625,386.71875,0.0,0,0
1772276888.294505,1772276888.254791,280.2734375,56.15234375,68.84765625,451.171875,0.0,0,0
1772276888.294529,1772276888.2586865,-814.94140625,-86.42578125,-45.8984375,-168.45703125,0.0,0,0
1772276888.294553,1772276888.262582,-564.453125,-89.35546875,-104.98046875,-495.1171875,0.0,0,0
1772276888.294577,1772276888.2664778,663.57421875,25.390625,-56.640625,-197.265625,0.0,0,0
1772276888.3397608,1772276888.2705033,998.53515625,90.8203125,51.26953125,363.76953125,0.0,0,0
1772276888.339891,1772276888.2743988,332.03125,40.0390625,69.3359375,480.95703125,0.0,0,0
1772276888.339936,1772276888.2782946,-760.25390625,-102.05078125,-42.96875,-103.02734375,0.0,0,0
1772276888.3399758,1772276888.28219,-743.65234375,-126.953125,-108.88671875,-501.953125,0.0,0,0
1772276888.340013,1772276888.2860856,354.98046875,-40.0390625,-59.5703125,-291.50390625,0.0,0,0
1772276888.340051,1772276888.2899814,965.33203125,41.9921875,56.640625,271.484375,0.0,0,0
1772276888.3400881,1772276888.293877,297.8515625,9.765625,84.47265625,465.33203125,0.0,0,0
1772276888.3401248,1772276888.2977724,-724.609375,-135.7421875,-18.06640625,-8.30078125,0.0,0,0
1772276888.340162,1772276888.301668,-907.2265625,-175.78125,-103.02734375,-492.1875,0.0,0,0
1772276888.3402,1772276888.3055637,37.59765625,-78.61328125,-93.26171875,-377.9296875,0.0,0,0
1772276888.340239,1772276888.3094592,990.234375,38.0859375,15.13671875,216.30859375,0.0,0,0
1772276888.340276,1772276888.3133547,272.94921875,25.390625,64.453125,417.96875,0.0,0,0
1772276888.384353,1772276888.3173618,-687.5,-109.86328125,-22.4609375,15.625,0.0,0,0
1772276888.3844962,1772276888.3212576,-960.9375,-179.19921875,-125.0,-518.5546875,0.0,0,0
1772276888.384544,1772276888.325153,-4.8828125,-106.4453125,-100.09765625,-494.62890625,0.0,0,0
1772276888.384583,1772276888.3290486,-838.37890625,45.41015625,46.875,168.45703125,0.0,0,0
1772276888.38462,1772276888.3329444,397.94921875,46.38671875,90.33203125,453.61328125,0.0,0,0
1772276888.3846579,1772276888.33684,-482.91015625,-68.84765625,13.671875,131.34765625,0.0,0,0
1772276888.384694,1772276888.3407354,-914.55078125,-155.76171875,-96.19140625,-461.42578125,0.0,0,0
1772276888.3847308,1772276888.3446312,-188.96484375,-127.9296875,-118.1640625,-530.2734375,0.0,0,0
1772276888.384769,1772276888.3485267,-882.32421875,8.7890625,-6.8359375,111.328125,0.0,0,0
1772276888.3848052,1772276888.3524225,600.09765625,1.46484375,57.6171875,434.08203125,0.0,0,0
1772276888.384842,1772276888.356318,-395.99609375,-108.88671875,20.99609375,257.8125,0.0,0,0
1772276888.3848782,1772276888.3602135,-934.5703125,-199.21875,-89.35546875,-369.140625,0.0,0,0
1772276888.429856,1772276888.3642106,-362.3046875,-164.0625,-106.4453125,-567.87109375,0.0,0,0
1772276888.4299939,1772276888.3681064,888.671875,3.90625,0.9765625,42.48046875,0.0,0,0
1772276888.430065,1772276888.372002,733.3984375,11.23046875,64.453125,429.6875,0.0,0,0
1772276888.430418,1772276888.3758976,-198.73046875,-76.66015625,36.62109375,277.34375,0.0,0,0
1772276888.4305549,1772276888.3797932,-877.44140625,-155.2734375,-76.66015625,-341.30859375,0.0,0,0
1772276888.4306188,1772276888.383689,-391.11328125,-114.74609375,-107.421875,-540.0390625,0.0,0,0
1772276888.4307158,1772276888.3875844,816.89453125,31.25,-4.39453125,-8.7890625,0.0,0,0
1772276888.4308789,1772276888.3914802,859.375,37.109375,69.82421875,439.453125,0.0,0,0
1772276888.4309492,1772276888.3953757,-3.41796875,-42.96875,51.7578125,404.296875,0.0,0,0
1772276888.431039,1772276888.3992712,-856.4453125,-167.96875,-54.19921875,-234.375,0.0,0,0
1772276888.4310951,1772276888.403167,-520.5078125,-156.25,-108.3984375,-558.10546875,0.0,0,0
1772276888.4311821,1772276888.4070625,575.68359375,-3.90625,-50.78125,-151.3671875,0.0,0,0
1772276888.4736362,1772276888.4110494,957.51953125,58.10546875,41.50390625,375.9765625,0.0,0,0
1772276888.473741,1772276888.414945,246.58203125,20.5078125,51.7578125,416.9921875,0.0,0,0
1772276888.4737742,1772276888.4188406,-868.65234375,-116.69921875,-72.265625,-228.515625,0.0,0,0
1772276888.473804,1772276888.4227362,-486.81640625,-118.1640625,-115.72265625,-541.50390625,0.0,0,0
1772276888.473835,1772276888.426632,695.80078125,14.6484375,-49.8046875,-209.9609375,0.0,0,0
1772276888.4738638,1772276888.4305274,949.21875,97.16796875,27.83203125,326.66015625,0.0,0,0
1772276888.473896,1772276888.4344232,370.1171875,63.96484375,46.38671875,442.87109375,0.0,0,0
1772276888.473925,1772276888.4383187,-708.984375,-85.44921875,-71.2890625,-179.6875,0.0,0,0
1772276888.4739552,1772276888.4422145,-680.17578125,-88.37890625,-147.4609375,-550.78125,0.0,0,0
1772276888.473984,1772276888.44611,496.58203125,7.32421875,-87.40234375,-270.5078125,0.0,0,0
1772276888.474017,1772276888.4500058,-993.65234375,82.51953125,24.4140625,304.6875,0.0,0,0
1772276888.474046,1772276888.4539013,286.1328125,96.19140625,53.7109375,461.42578125,0.0,0,0
1772276888.5331168,1772276888.4578784,-802.24609375,-22.4609375,-43.45703125,-70.80078125,0.0,0,0
1772276888.5331929,1772276888.4617739,-847.16796875,-52.734375,-130.37109375,-535.15625,0.0,0,0
1772276888.53322,1772276888.4656696,140.625,50.78125,-86.9140625,-393.06640625,0.0,0,0
1772276888.533248,1772276888.4695652,946.77734375,162.109375,24.90234375,213.8671875,0.0,0,0
1772276888.533272,1772276888.473461,255.37109375,147.94921875,63.96484375,445.3125,0.0,0,0
1772276888.533296,1772276888.4773564,-846.19140625,-9.765625,-8.30078125,11.71875,0.0,0,0
1772276888.53332,1772276888.4812522,-973.14453125,-65.4296875,-99.12109375,-537.59765625,0.0,0,0
1772276888.533344,1772276888.4851477,38.0859375,37.59765625,-87.40234375,-474.609375,0.0,0,0
1772276888.533482,1772276888.4890435,-915.52734375,156.73828125,11.71875,162.59765625,0.0,0,0
1772276888.533509,1772276888.4929392,321.2890625,122.55859375,44.921875,415.52734375,0.0,0,0
1772276888.5335329,1772276888.4968348,-725.09765625,-14.16015625,-0.48828125,114.2578125,0.0,0,0
1772276888.5335581,1772276888.5007305,-976.07421875,-59.08203125,-108.88671875,-441.40625,0.0,0,0
1772276888.5792692,1772276888.5047767,-283.203125,1.46484375,-121.09375,-526.3671875,0.0,0,0
1772276888.5793972,1772276888.5086725,897.4609375,94.23828125,2.9296875,93.75,0.0,0,0
1772276888.579432,1772276888.512568,432.6171875,97.16796875,48.33984375,399.4140625,0.0,0,0
1772276888.579457,1772276888.5164638,-628.41796875,16.11328125,16.6015625,149.4140625,0.0,0,0
1772276888.5794811,1772276888.5203595,-955.56640625,-67.3828125,-95.703125,-471.6796875,0.0,0,0
1772276888.579506,1772276888.524255,-430.6640625,-22.4609375,-133.30078125,-594.7265625,0.0,0,0
1772276888.57953,1772276888.5281508,782.2265625,111.328125,-20.99609375,43.45703125,0.0,0,0
1772276888.579555,1772276888.5320466,660.64453125,89.35546875,40.52734375,381.34765625,0.0,0,0
1772276888.5795782,1772276888.535942,-327.63671875,-9.765625,18.06640625,217.7734375,0.0,0,0
1772276888.579602,1772276888.5398378,-953.125,-89.84375,-96.6796875,-393.5546875,0.0,0,0
1772276888.579629,1772276888.5437336,-294.43359375,-44.43359375,-133.7890625,-583.984375,0.0,0,0
1772276888.579653,1772276888.547629,-982.421875,99.12109375,-27.34375,6.8359375,0.0,0,0
1772276888.623845,1772276888.5516644,834.47265625,113.76953125,43.9453125,447.265625,0.0,0,0
1772276888.623935,1772276888.5555599,-4.39453125,14.16015625,23.4375,373.046875,0.0,0,0
1772276888.6239629,1772276888.5594556,-835.9375,-129.39453125,-80.078125,-255.859375,0.0,0,0
1772276888.623988,1772276888.5633514,-357.421875,-119.62890625,-111.328125,-492.67578125,0.0,0,0
1772276888.6240158,1772276888.5672472,904.78515625,34.66796875,-39.55078125,-26.3671875,0.0,0,0
1772276888.62404,1772276888.5711427,941.40625,109.86328125,42.96875,451.171875,0.0,0,0
1772276888.624064,1772276888.5750384,279.78515625,59.08203125,49.8046875,452.1484375,0.0,0,0
1772276888.624126,1772276888.5789342,-729.98046875,-126.46484375,-85.44921875,-216.796875,0.0,0,0
1772276888.6241548,1772276888.58283,-472.65625,-158.203125,-144.53125,-512.6953125,0.0,0,0
1772276888.624181,1772276888.5867255,757.32421875,-20.5078125,-64.453125,-109.375,0.0,0,0
1772276888.624205,1772276888.5906212,975.09765625,55.17578125,33.203125,460.9375,0.0,0,0
1772276888.6242292,1772276888.594517,366.2109375,33.69140625,56.15234375,551.7578125,0.0,0,0
1772276888.6697001,1772276888.5985432,-706.54296875,-118.65234375,-53.22265625,-86.9140625,0.0,0,0
1772276888.669827,1772276888.602439,-593.75,-129.8828125,-103.515625,-439.453125,0.0,0,0
1772276888.669887,1772276888.6063347,627.44140625,-1.953125,-37.109375,-150.87890625,0.0,0,0
1772276888.669941,1772276888.6102304,-986.81640625,53.22265625,55.6640625,416.9921875,0.0,0,0
1772276888.669993,1772276888.6141262,328.61328125,-16.11328125,62.5,550.78125,0.0,0,0
1772276888.670044,1772276888.6180217,-752.9296875,-165.52734375,-49.31640625,-29.296875,0.0,0,0
1772276888.6700969,1772276888.6219175,-791.9921875,-137.20703125,-116.2109375,-439.94140625,0.0,0,0
1772276888.6701481,1772276888.6258132,356.4453125,-20.5078125,-90.33203125,-262.20703125,0.0,0,0
1772276888.6702,1772276888.629709,-960.9375,76.66015625,7.8125,308.59375,0.0,0,0
1772276888.670249,1772276888.6336048,284.66796875,75.1953125,52.24609375,512.20703125,0.0,0,0
1772276888.6703,1772276888.6375005,-762.20703125,-56.640625,-32.71484375,14.16015625,0.0,0,0
1772276888.670351,1772276888.641396,-874.0234375,-120.1171875,-110.83984375,-506.8359375,0.0,0,0
1772276888.714438,1772276888.6454113,177.24609375,-70.80078125,-89.35546875,-415.52734375,0.0,0,0
1772276888.7145898,1772276888.649307,-960.44921875,28.80859375,20.5078125,172.8515625,0.0,0,0
1772276888.7146502,1772276888.6532028,237.79296875,25.390625,50.29296875,375.0,0.0,0,0
1772276888.714705,1772276888.6570985,-825.68359375,-95.21484375,-28.3203125,-12.6953125,0.0,0,0
1772276888.714758,1772276888.6609943,-1000.0,-154.296875,-117.67578125,-562.98828125,0.0,0,0
1772276888.714795,1772276888.66489,-141.6015625,-73.73046875,-109.86328125,-544.921875,0.0,0,0
1772276888.7148318,1772276888.6687858,-946.77734375,48.828125,16.11328125,97.16796875,0.0,0,0
1772276888.714869,1772276888.6726816,377.44140625,19.53125,48.828125,354.00390625,0.0,0,0
1772276888.7149062,1772276888.6765773,-523.92578125,-101.5625,-21.484375,68.359375,0.0,0,0
1772276888.714942,1772276888.680473,-880.37109375,-196.2890625,-115.234375,-532.2265625,0.0,0,0
1772276888.7149792,1772276888.6843686,-327.63671875,-145.5078125,-125.0,-612.3046875,0.0,0,0
1772276888.715015,1772276888.6882644,968.26171875,5.37109375,-6.8359375,73.73046875,0.0,0,0
1772276888.7742798,1772276888.69235,537.109375,13.671875,52.734375,401.85546875,0.0,0,0
1772276888.774391,1772276888.6962457,-387.6953125,-65.4296875,27.83203125,188.4765625,0.0,0,0
1772276888.774434,1772276888.7001414,-862.79296875,-152.34375,-65.91796875,-417.48046875,0.0,0,0
1772276888.774476,1772276888.7040372,-272.94921875,-131.34765625,-108.88671875,-597.16796875,0.0,0,0
1772276888.774515,1772276888.707933,-984.86328125,4.39453125,-0.48828125,-5.859375,0.0,0,0
1772276888.774555,1772276888.7118287,759.765625,30.2734375,57.12890625,383.30078125,0.0,0,0
1772276888.774592,1772276888.7157245,-19.04296875,-38.0859375,14.6484375,268.06640625,0.0,0,0
1772276888.774629,1772276888.7196202,-791.9921875,-156.73828125,-103.515625,-382.8125,0.0,0,0
1772276888.7746649,1772276888.723516,-305.6640625,-139.6484375,-145.99609375,-624.51171875,0.0,0,0
1772276888.774703,1772276888.7274117,962.40234375,13.18359375,-46.38671875,-93.26171875,0.0,0,0
1772276888.774739,1772276888.7313075,901.85546875,60.05859375,49.8046875,388.671875,0.0,0,0
1772276888.774776,1772276888.7352033,224.609375,6.8359375,39.0625,366.69921875,0.0,0,0
1772276888.8042738,1772276888.739199,-749.51171875,-140.13671875,-91.796875,-275.87890625,0.0,0,0
1772276888.804406,1772276888.7430947,-408.69140625,-128.90625,-137.6953125,-554.19921875,0.0,0,0
1772276888.804467,1772276888.7469904,793.45703125,32.2265625,-65.91796875,-135.25390625,0.0,0,0
1772276888.804529,1772276888.7508862,964.84375,80.56640625,25.390625,381.8359375,0.0,0,0
1772276888.804579,1772276888.754782,263.671875,29.296875,37.59765625,435.546875,0.0,0,0
1772276888.80463,1772276888.7586777,-838.8671875,-102.05078125,-80.56640625,-208.0078125,0.0,0,0
1772276888.804681,1772276888.7625735,-510.7421875,-95.21484375,-123.046875,-537.59765625,0.0,0,0
1772276888.8047318,1772276888.7664692,714.35546875,3.41796875,-60.05859375,-211.42578125,0.0,0,0
1772276888.8047822,1772276888.770365,970.21484375,75.68359375,21.97265625,329.1015625,0.0,0,0
1772276888.804832,1772276888.7742608,426.26953125,46.875,37.59765625,458.984375,0.0,0,0
1772276888.8048809,1772276888.7781568,-606.4453125,-107.421875,-56.640625,-104.98046875,0.0,0,0
1772276888.804932,1772276888.7820525,-670.41015625,-110.3515625,-124.51171875,-470.703125,0.0,0,0
1772276888.862693,1772276888.7860394,673.33984375,-6.8359375,-103.02734375,-254.39453125,0.0,0,0
1772276888.862796,1772276888.789935,-877.44140625,68.359375,-1.46484375,297.8515625,0.0,0,0
1772276888.8628259,1772276888.7938309,333.984375,38.57421875,41.9921875,453.61328125,0.0,0,0
1772276888.8628511,1772276888.7977266,-630.37109375,-116.2109375,-50.78125,-71.77734375,0.0,0,0
1772276888.862875,1772276888.8016224,-825.1953125,-152.34375,-129.39453125,-531.25,0.0,0,0
1772276888.8629,1772276888.8055182,429.19921875,-48.33984375,-100.5859375,-399.90234375,0.0,0,0
1772276888.862923,1772276888.8094141,-832.51953125,24.4140625,1.46484375,206.54296875,0.0,0,0
1772276888.862997,1772276888.81331,369.62890625,-1.953125,36.1328125,440.91796875,0.0,0,0
1772276888.8630679,1772276888.8172057,-425.78125,-113.28125,-31.25,18.5546875,0.0,0,0
1772276888.8630981,1772276888.8211014,-902.83203125,-156.73828125,-105.95703125,-496.58203125,0.0,0,0
1772276888.863175,1772276888.8249972,111.81640625,-76.171875,-102.5390625,-463.37890625,0.0,0,0
1772276888.8633962,1772276888.828893,-777.34375,23.92578125,-11.71875,157.2265625,0.0,0,0
1772276888.92434,1772276888.8330278,391.6015625,20.99609375,28.3203125,430.17578125,0.0,0,0
1772276888.92451,1772276888.8369236,-448.73046875,-74.21875,-20.5078125,120.1171875,0.0,0,0
1772276888.92457,1772276888.8408196,-922.8515625,-133.30078125,-122.0703125,-472.65625,0.0,0,0
1772276888.924623,1772276888.8447154,-138.18359375,-54.19921875,-126.46484375,-529.78515625,0.0,0,0
1772276888.9246762,1772276888.848611,-815.91796875,75.1953125,-5.37109375,115.72265625,0.0,0,0
1772276888.9247282,1772276888.8525069,510.7421875,62.98828125,35.64453125,404.296875,0.0,0,0
1772276888.924763,1772276888.8564029,-374.0234375,-14.6484375,-15.13671875,171.875,0.0,0,0
1772276888.9248,1772276888.8602986,-866.2109375,-103.515625,-122.55859375,-447.265625,0.0,0,0
1772276888.924829,1772276888.8641944,-264.6484375,-67.87109375,-132.8125,-594.7265625,0.0,0,0
1772276888.924858,1772276888.8680904,-955.078125,71.77734375,1.46484375,31.25,0.0,0,0
1772276888.924887,1772276888.8719862,687.98828125,61.03515625,47.36328125,405.76171875,0.0,0,0
1772276888.924916,1772276888.875882,-120.60546875,-17.578125,-11.23046875,279.78515625,0.0,0,0
1772276888.954241,1772276888.8799264,-817.87109375,-127.44140625,-115.72265625,-332.51953125,0.0,0,0
1772276888.954388,1772276888.8838222,-292.48046875,-106.4453125,-148.4375,-548.828125,0.0,0,0
1772276888.954447,1772276888.887718,-956.54296875,72.75390625,-48.33984375,1.953125,0.0,0,0
1772276888.9545002,1772276888.891614,841.30859375,109.375,36.1328125,439.94140625,0.0,0,0
1772276888.954554,1772276888.8955097,239.74609375,41.50390625,15.13671875,357.91015625,0.0,0,0
1772276888.954605,1772276888.8994057,-615.72265625,-79.58984375,-93.75,-275.87890625,0.0,0,0
1772276888.954656,1772276888.9033015,-333.49609375,-107.91015625,-130.859375,-543.45703125,0.0,0,0
1772276888.954706,1772276888.9071972,972.65625,22.4609375,-49.31640625,-119.140625,0.0,0,0
1772276888.9547572,1772276888.9110932,953.125,71.2890625,40.0390625,378.41796875,0.0,0,0
1772276888.954807,1772276888.914989,356.93359375,22.4609375,42.96875,404.78515625,0.0,0,0
1772276888.9548569,1772276888.9188848,-626.953125,-94.7265625,-83.0078125,-222.16796875,0.0,0,0
1772276888.954907,1772276888.9227808,-430.6640625,-118.1640625,-132.32421875,-506.8359375,0.0,0,0
1772276888.999826,1772276888.926817,871.58203125,-20.99609375,-55.17578125,-152.34375,0.0,0,0
1772276888.999964,1772276888.9307127,-996.09375,37.109375,29.78515625,380.859375,0.0,0,0
1772276889.000024,1772276888.9346087,421.875,5.859375,39.55078125,481.93359375,0.0,0,0
1772276889.000077,1772276888.9385045,-596.19140625,-115.234375,-71.77734375,-129.8828125,0.0,0,0
1772276889.000129,1772276888.9424005,-611.328125,-128.90625,-126.953125,-498.53515625,0.0,0,0
1772276889.0002549,1772276888.9462962,663.57421875,-26.3671875,-79.1015625,-243.65234375,0.0,0,0
1772276889.0003352,1772276888.950192,-960.44921875,42.96875,18.5546875,306.640625,0.0,0,0
1772276889.000392,1772276888.954088,347.16796875,-10.25390625,57.6171875,421.875,0.0,0,0
1772276889.0004458,1772276888.9579837,-680.17578125,-141.6015625,-42.96875,-158.69140625,0.0,0,0
1772276889.0004978,1772276888.9618797,-767.578125,-118.1640625,-115.234375,-572.75390625,0.0,0,0
1772276889.000549,1772276888.9657755,444.82421875,-16.6015625,-72.75390625,-382.8125,0.0,0,0
1772276889.0006,1772276888.9696715,-904.78515625,70.80078125,29.296875,215.8203125,0.0,0,0
1772276889.058163,1772276888.9736955,266.6015625,62.98828125,57.6171875,408.203125,0.0,0,0
1772276889.058242,1772276888.9775915,-722.65625,-66.40625,-29.78515625,-81.0546875,0.0,0,0
1772276889.0582762,1772276888.9814873,-905.76171875,-126.46484375,-98.6328125,-565.91796875,0.0,0,0
1772276889.058309,1772276888.9853833,27.34375,-69.82421875,-69.3359375,-449.21875,0.0,0,0
1772276889.058341,1772276888.989279,-997.55859375,51.7578125,29.296875,160.64453125,0.0,0,0
1772276889.058374,1772276888.993175,314.94140625,62.5,61.03515625,377.9296875,0.0,0,0
1772276889.0584068,1772276888.9970708,-694.82421875,-58.59375,-3.90625,16.6015625,0.0,0,0
1772276889.058439,1772276889.0009668,-997.55859375,-122.55859375,-99.609375,-543.45703125,0.0,0,0
1772276889.058472,1772276889.0048625,-87.890625,-58.59375,-105.46875,-566.89453125,0.0,0,0
1772276889.0585039,1772276889.0087585,-879.8828125,58.10546875,3.90625,77.1484375,0.0,0,0
1772276889.058537,1772276889.0126543,446.2890625,33.69140625,40.0390625,368.65234375,0.0,0,0
1772276889.0586119,1772276889.0165503,-570.3125,-70.3125,-16.6015625,111.328125,0.0,0,0
1772276889.089018,1772276889.0205636,-977.5390625,-126.953125,-126.953125,-474.609375,0.0,0,0
1772276889.089112,1772276889.0244596,-232.421875,-72.265625,-127.9296875,-565.91796875,0.0,0,0
1772276889.0891578,1772276889.0283554,-963.37890625,62.01171875,6.8359375,64.94140625,0.0,0,0
1772276889.089196,1772276889.0322514,612.3046875,54.6875,59.08203125,385.25390625,0.0,0,0
1772276889.0892348,1772276889.0361474,-331.0546875,-38.57421875,2.9296875,213.37890625,0.0,0,0
1772276889.089272,1772276889.040043,-917.96875,-133.30078125,-99.12109375,-380.37109375,0.0,0,0
1772276889.089309,1772276889.043939,-270.5078125,-101.07421875,-92.28515625,-548.828125,0.0,0,0
1772276889.089346,1772276889.0478349,-944.82421875,38.0859375,1.46484375,14.16015625,0.0,0,0
1772276889.089383,1772276889.0517309,792.48046875,41.015625,48.33984375,409.1796875,0.0,0,0
1772276889.08942,1772276889.0556269,-100.5859375,-20.01953125,43.9453125,321.2890625,0.0,0,0
1772276889.089456,1772276889.0595226,-851.5625,-120.1171875,-70.3125,-316.89453125,0.0,0,0
1772276889.089492,1772276889.0634186,-383.30078125,-122.55859375,-114.74609375,-569.82421875,0.0,0,0
1772276889.134272,1772276889.0674222,772.4609375,1.953125,-15.625,-76.66015625,0.0,0,0
1772276889.1343832,1772276889.0713181,884.27734375,41.9921875,44.43359375,400.87890625,0.0,0,0
1772276889.134429,1772276889.0752141,239.2578125,-20.5078125,30.76171875,399.4140625,0.0,0,0
1772276889.13447,1772276889.07911,-734.86328125,-132.8125,-71.2890625,-217.7734375,0.0,0,0
1772276889.13454,1772276889.083006,-416.015625,-115.234375,-114.74609375,-517.578125,0.0,0,0
1772276889.134599,1772276889.086902,840.33203125,25.390625,-23.4375,-156.73828125,0.0,0,0
1772276889.134696,1772276889.0907977,983.88671875,79.58984375,90.33203125,354.4921875,0.0,0,0
1772276889.134768,1772276889.0946937,330.56640625,15.13671875,80.078125,389.6484375,0.0,0,0
1772276889.1348019,1772276889.0985897,-712.40234375,-108.88671875,-65.91796875,-264.6484375,0.0,0,0
1772276889.1348329,1772276889.1024857,-556.640625,-117.1875,-128.41796875,-575.1953125,0.0,0,0
1772276889.1348622,1772276889.1063814,642.578125,-36.1328125,-66.89453125,-244.62890625,0.0,0,0
1772276889.134892,1772276889.1102774,998.046875,31.25,23.92578125,321.2890625,0.0,0,0
1772276889.179469,1772276889.1142728,307.6171875,19.53125,49.8046875,480.95703125,0.0,0,0
1772276889.179678,1772276889.1181688,-778.80859375,-120.60546875,-48.33984375,-84.47265625,0.0,0,0
1772276889.1797602,1772276889.1220648,-766.11328125,-130.859375,-127.9296875,-480.95703125,0.0,0,0
1772276889.1798022,1772276889.1259608,100.5859375,-37.59765625,-91.30859375,-272.4609375,0.0,0,0
1772276889.1798432,1772276889.1298566,820.80078125,32.2265625,5.37109375,307.12890625,0.0,0,0
1772276889.179882,1772276889.1337526,284.66796875,18.06640625,43.9453125,484.375,0.0,0,0
1772276889.179918,1772276889.1376486,-864.74609375,-127.9296875,-38.0859375,-18.06640625,0.0,0,0
1772276889.179955,1772276889.1415446,-918.9453125,-161.1328125,-128.41796875,-513.18359375,0.0,0,0
1772276889.179992,1772276889.1454403,-64.94140625,-61.5234375,-107.91015625,-416.9921875,0.0,0,0
1772276889.180029,1772276889.1493363,880.859375,59.08203125,-11.71875,200.68359375,0.0,0,0
1772276889.180065,1772276889.1532323,254.8828125,45.41015625,19.53125,445.3125,0.0,0,0
1772276889.1801012,1772276889.1571283,-859.375,-88.37890625,-46.38671875,49.31640625,0.0,0,0
1772276889.224267,1772276889.161114,-969.7265625,-120.60546875,-125.0,-489.74609375,0.0,0,0
1772276889.224392,1772276889.16501,-380.37109375,-58.59375,-112.3046875,-479.98046875,0.0,0,0
1772276889.224651,1772276889.168906,716.796875,44.921875,-0.9765625,127.9296875,0.0,0,0
1772276889.2246988,1772276889.172802,336.42578125,32.71484375,28.80859375,371.09375,0.0,0,0
1772276889.2247381,1772276889.176698,-777.83203125,-78.61328125,-26.3671875,81.0546875,0.0,0,0
1772276889.224778,1772276889.1805937,-1000.0,-142.08984375,-111.328125,-480.46875,0.0,0,0
1772276889.2248151,1772276889.1844897,-264.6484375,-111.81640625,-112.79296875,-533.203125,0.0,0,0
1772276889.2248561,1772276889.1883857,962.890625,5.37109375,14.6484375,87.890625,0.0,0,0
1772276889.224892,1772276889.1922817,492.67578125,12.6953125,68.84765625,385.25390625,0.0,0,0
1772276889.224929,1772276889.1961777,-526.3671875,-72.265625,18.06640625,175.29296875,0.0,0,0
1772276889.224965,1772276889.2000735,-958.49609375,-166.50390625,-95.21484375,-426.26953125,0.0,0,0
1772276889.225002,1772276889.2039695,-270.01953125,-158.69140625,-126.46484375,-584.47265625,0.0,0,0
1772276889.283778,1772276889.2079444,-985.83984375,-30.76171875,-11.71875,15.625,0.0,0,0
1772276889.283873,1772276889.2118404,714.35546875,-8.7890625,62.01171875,432.6171875,0.0,0,0
1772276889.283902,1772276889.2157364,-121.09375,-67.87109375,29.296875,336.42578125,0.0,0,0
1772276889.283927,1772276889.2196324,-826.171875,-168.45703125,-94.23828125,-284.66796875,0.0,0,0
1772276889.2839522,1772276889.2235281,-305.17578125,-142.08984375,-132.8125,-503.90625,0.0,0,0
1772276889.2839758,1772276889.2274241,988.28125,2.9296875,-21.97265625,23.4375,0.0,0,0
1772276889.284,1772276889.2313201,863.28125,15.625,53.7109375,462.40234375,0.0,0,0
1772276889.284024,1772276889.2352161,135.25390625,-49.31640625,19.04296875,412.59765625,0.0,0,0
1772276889.2840478,1772276889.2391121,-753.41796875,-148.92578125,-111.81640625,-209.9609375,0.0,0,0
1772276889.284072,1772276889.2430081,-368.1640625,-136.23046875,-159.66796875,-476.5625,0.0,0,0
1772276889.284096,1772276889.246904,895.01953125,-5.37109375,-70.3125,-53.22265625,0.0,0,0
1772276889.28412,1772276889.2508,968.26171875,48.33984375,13.18359375,433.10546875,0.0,0,0
1772276889.3290648,1772276889.254841,274.4140625,21.97265625,20.01953125,446.77734375,0.0,0,0
1772276889.3291662,1772276889.258737,-762.20703125,-92.7734375,-80.078125,-173.828125,0.0,0,0
1772276889.329209,1772276889.262633,-504.39453125,-103.515625,-117.1875,-480.46875,0.0,0,0
1772276889.3293161,1772276889.266529,718.75,1.46484375,-54.6875,-144.53125,0.0,0,0
1772276889.329379,1772276889.270425,973.6328125,67.3828125,38.0859375,414.0625,0.0,0,0
1772276889.329422,1772276889.274321,371.09375,66.89453125,54.19921875,527.83203125,0.0,0,0
1772276889.32946,1772276889.278217,-690.4296875,-58.10546875,-71.77734375,-99.609375,0.0,0,0
1772276889.329498,1772276889.282113,-628.90625,-72.265625,-131.34765625,-483.88671875,0.0,0,0
1772276889.329535,1772276889.286009,624.0234375,36.62109375,-64.453125,-225.09765625,0.0,0,0
1772276889.3295722,1772276889.289905,-958.0078125,101.07421875,37.109375,331.0546875,0.0,0,0
1772276889.329608,1772276889.293801,300.78125,61.5234375,58.59375,481.4453125,0.0,0,0
1772276889.3296452,1772276889.297697,-753.90625,-77.63671875,-38.57421875,-77.1484375,0.0,0,0
1772276889.373546,1772276889.3017285,-820.3125,-106.4453125,-119.140625,-548.828125,0.0,0,0
1772276889.373635,1772276889.3056245,354.00390625,-51.26953125,-91.30859375,-370.60546875,0.0,0,0
1772276889.373665,1772276889.3095205,-907.71484375,7.32421875,26.3671875,237.79296875,0.0,0,0
1772276889.3736892,1772276889.3134165,247.55859375,-3.41796875,74.70703125,436.5234375,0.0,0,0
1772276889.373714,1772276889.3173125,-776.3671875,-115.72265625,-20.01953125,-25.390625,0.0,0,0
1772276889.373738,1772276889.3212085,-958.984375,-152.34375,-110.83984375,-555.17578125,0.0,0,0
1772276889.3737621,1772276889.3251045,16.11328125,-53.22265625,-79.58984375,-469.23828125,0.0,0,0
1772276889.3737888,1772276889.3290005,-932.6171875,52.734375,45.41015625,184.5703125,0.0,0,0
1772276889.373813,1772276889.3328965,311.5234375,34.1796875,77.63671875,446.77734375,0.0,0,0
1772276889.3738391,1772276889.3367925,-687.01171875,-68.359375,-22.94921875,97.65625,0.0,0,0
1772276889.373863,1772276889.3406885,-989.74609375,-114.2578125,-134.765625,-471.6796875,0.0,0,0
1772276889.373887,1772276889.3445845,-126.46484375,-41.015625,-124.51171875,-495.60546875,0.0,0,0
1772276889.4192488,1772276889.3486073,-897.4609375,86.9140625,-15.13671875,97.65625,0.0,0,0
1772276889.41932,1772276889.3525033,474.609375,80.078125,29.296875,370.60546875,0.0,0,0
1772276889.419348,1772276889.3563993,-456.54296875,-14.16015625,3.41796875,168.9453125,0.0,0,0
1772276889.419373,1772276889.3602953,-928.7109375,-98.14453125,-112.79296875,-426.26953125,0.0,0,0
1772276889.419397,1772276889.3641913,-224.12109375,-62.5,-145.5078125,-562.5,0.0,0,0
1772276889.419421,1772276889.3680873,-893.06640625,71.2890625,-10.25390625,53.7109375,0.0,0,0
1772276889.419445,1772276889.3719833,675.78125,80.078125,41.015625,395.99609375,0.0,0,0
1772276889.41947,1772276889.3758793,-218.26171875,10.25390625,-6.8359375,231.93359375,0.0,0,0
1772276889.4194932,1772276889.3797755,-867.1875,-88.37890625,-101.07421875,-377.9296875,0.0,0,0
1772276889.419517,1772276889.3836715,-301.26953125,-63.96484375,-121.09375,-573.73046875,0.0,0,0
1772276889.419541,1772276889.3875675,977.5390625,77.1484375,-10.25390625,-13.18359375,0.0,0,0
1772276889.419564,1772276889.3914635,815.91796875,69.3359375,62.01171875,389.6484375,0.0,0,0
1772276889.4639769,1772276889.3954751,-15.625,-16.11328125,29.296875,268.5546875,0.0,0,0
1772276889.464076,1772276889.3993711,-850.09765625,-119.62890625,-77.1484375,-358.88671875,0.0,0,0
1772276889.4641511,1772276889.4032671,-337.890625,-126.953125,-112.3046875,-583.49609375,0.0,0,0
1772276889.4641972,1772276889.4071631,893.5546875,-4.39453125,-24.4140625,-104.98046875,0.0,0,0
1772276889.464257,1772276889.4110591,904.78515625,41.015625,68.84765625,382.8125,0.0,0,0
1772276889.4643,1772276889.4149551,289.55078125,-8.7890625,72.75390625,374.0234375,0.0,0,0
1772276889.464344,1772276889.4188514,-667.48046875,-130.37109375,-60.546875,-268.5546875,0.0,0,0
1772276889.4643788,1772276889.4227474,-422.36328125,-152.34375,-130.859375,-562.5,0.0,0,0
1772276889.4644039,1772276889.4266434,831.0546875,-51.7578125,-66.40625,-201.66015625,0.0,0,0
1772276889.4644291,1772276889.4305394,998.046875,26.85546875,25.390625,331.54296875,0.0,0,0
1772276889.464489,1772276889.4344354,350.09765625,-13.671875,22.4609375,417.96875,0.0,0,0
1772276889.464519,1772276889.4383314,-727.05078125,-163.0859375,-87.40234375,-183.10546875,0.0,0,0
1772276889.508981,1772276889.442333,-575.68359375,-175.29296875,-127.44140625,-496.09375,0.0,0,0
1772276889.509067,1772276889.4462292,630.37109375,-76.171875,-66.89453125,-217.28515625,0.0,0,0
1772276889.509095,1772276889.4501252,991.69921875,23.4375,27.83203125,324.70703125,0.0,0,0
1772276889.50912,1772276889.4540212,330.56640625,21.97265625,38.0859375,480.46875,0.0,0,0
1772276889.509155,1772276889.4579172,-747.0703125,-108.88671875,-75.68359375,-96.19140625,0.0,0,0
1772276889.509181,1772276889.4618134,-768.5546875,-125.48828125,-129.39453125,-495.60546875,0.0,0,0
1772276889.509205,1772276889.4657094,324.21875,-50.29296875,-81.54296875,-288.0859375,0.0,0,0
1772276889.509232,1772276889.4696054,982.91015625,24.90234375,17.08984375,281.25,0.0,0,0
1772276889.509256,1772276889.4735014,285.64453125,23.4375,70.80078125,488.76953125,0.0,0,0
1772276889.509279,1772276889.4773977,-751.953125,-89.84375,-12.20703125,12.20703125,0.0,0,0
1772276889.509303,1772276889.4812937,-903.80859375,-100.09765625,-110.3515625,-478.02734375,0.0,0,0
1772276889.5093272,1772276889.4851897,116.69921875,0.0,-89.35546875,-377.9296875,0.0,0,0
1772276889.5536158,1772276889.4891818,-947.75390625,96.6796875,16.6015625,214.35546875,0.0,0,0
1772276889.5537002,1772276889.4930778,295.41015625,82.03125,59.08203125,442.87109375,0.0,0,0
1772276889.553728,1772276889.4969738,-711.42578125,-28.3203125,-8.30078125,63.4765625,0.0,0,0
1772276889.553754,1772276889.50087,-976.07421875,-109.86328125,-111.81640625,-480.46875,0.0,0,0
1772276889.553779,1772276889.504766,-123.046875,-62.98828125,-118.1640625,-474.609375,0.0,0,0
1772276889.55393,1772276889.508662,-981.93359375,68.359375,0.0,162.109375,0.0,0,0
1772276889.553975,1772276889.5125582,411.1328125,55.17578125,68.84765625,444.82421875,0.0,0,0
1772276889.5540018,1772276889.5164542,-546.38671875,-48.828125,13.671875,147.4609375,0.0,0,0
1772276889.554027,1772276889.5203502,-970.703125,-131.8359375,-112.79296875,-440.4296875,0.0,0,0
1772276889.5540512,1772276889.5242462,-186.03515625,-89.84375,-123.53515625,-503.90625,0.0,0,0
1772276889.5540748,1772276889.5281425,-871.09375,55.17578125,-11.23046875,145.01953125,0.0,0,0
1772276889.554098,1772276889.5320385,574.70703125,46.875,37.59765625,463.8671875,0.0,0,0
1772276889.629323,1772276889.5361817,-299.31640625,-56.15234375,1.953125,254.8828125,0.0,0,0
1772276889.6294222,1772276889.540078,-859.86328125,-155.76171875,-107.421875,-348.6328125,0.0,0,0
1772276889.62945,1772276889.543974,-261.23046875,-135.25390625,-130.37109375,-518.5546875,0.0,0,0
1772276889.629475,1772276889.54787,-913.0859375,11.71875,-9.27734375,47.36328125,0.0,0,0
1772276889.629499,1772276889.5517662,742.1875,26.85546875,43.45703125,415.52734375,0.0,0,0
1772276889.629523,1772276889.5556622,29.296875,-31.73828125,-6.8359375,297.8515625,0.0,0,0
1772276889.6295521,1772276889.5595584,-711.9140625,-147.4609375,-117.1875,-308.59375,0.0,0,0
1772276889.629581,1772276889.5634544,-288.0859375,-130.859375,-138.671875,-516.11328125,0.0,0,0
1772276889.629605,1772276889.5673506,-949.70703125,39.0625,-21.97265625,18.06640625,0.0,0,0
1772276889.629629,1772276889.5712466,878.41796875,65.91796875,56.640625,467.7734375,0.0,0,0
1772276889.629653,1772276889.5751429,454.1015625,10.25390625,20.99609375,404.78515625,0.0,0,0
1772276889.629677,1772276889.5790389,-455.078125,-100.09765625,-94.23828125,-226.5625,0.0,0,0
1772276889.6876009,1772276889.5830162,-360.83984375,-76.171875,-130.37109375,-495.60546875,0.0,0,0
1772276889.687707,1772276889.5869124,964.35546875,47.8515625,-53.22265625,-80.078125,0.0,0,0
1772276889.687736,1772276889.5908084,984.86328125,103.02734375,35.15625,430.17578125,0.0,0,0
1772276889.687762,1772276889.5947046,399.90234375,65.91796875,37.109375,432.6171875,0.0,0,0
1772276889.687786,1772276889.5986006,-615.234375,-85.9375,-83.49609375,-210.9375,0.0,0,0
1772276889.687812,1772276889.6024969,-494.140625,-75.68359375,-132.8125,-513.671875,0.0,0,0
1772276889.687837,1772276889.6063929,731.93359375,24.4140625,-59.5703125,-216.796875,0.0,0,0
1772276889.687861,1772276889.610289,-995.60546875,60.546875,41.9921875,319.82421875,0.0,0,0
1772276889.6878872,1772276889.614185,319.82421875,24.90234375,52.734375,438.4765625,0.0,0,0
1772276889.6879108,1772276889.6180813,-785.15625,-125.0,-68.359375,-181.15234375,0.0,0,0
1772276889.6879659,1772276889.6219773,-687.01171875,-143.5546875,-136.71875,-564.94140625,0.0,0,0
1772276889.687995,1772276889.6258736,529.296875,-38.0859375,-77.63671875,-300.78125,0.0,0,0
1772276889.70275,1772276889.6298482,-951.66015625,44.921875,38.0859375,291.015625,0.0,0,0
1772276889.70284,1772276889.6337442,280.2734375,27.34375,59.5703125,483.88671875,0.0,0,0
1772276889.702869,1772276889.6376405,-814.453125,-120.1171875,-50.29296875,-75.68359375,0.0,0,0
1772276889.702894,1772276889.6415365,-865.234375,-144.53125,-128.41796875,-564.94140625,0.0,0,0
1772276889.7029178,1772276889.6454327,264.6484375,-48.828125,-95.703125,-404.78515625,0.0,0,0
1772276889.7029471,1772276889.6493287,-930.6640625,49.8046875,12.20703125,205.56640625,0.0,0,0
1772276889.702971,1772276889.653225,266.11328125,24.90234375,51.26953125,427.24609375,0.0,0,0
1772276889.702995,1772276889.6571212,-720.703125,-128.90625,-27.83203125,29.78515625,0.0,0,0
1772276889.703019,1772276889.6610172,-948.73046875,-166.50390625,-125.9765625,-444.3359375,0.0,0,0
1772276889.703051,1772276889.6649134,17.08984375,-42.48046875,-113.76953125,-385.7421875,0.0,0,0
1772276889.7030761,1772276889.6688094,-902.83203125,88.37890625,18.06640625,222.65625,0.0,0,0
1772276889.703101,1772276889.6727057,305.6640625,56.640625,53.22265625,463.37890625,0.0,0,0
1772276889.7481441,1772276889.6767352,-644.53125,-63.4765625,-12.6953125,133.30078125,0.0,0,0
1772276889.7482271,1772276889.6806312,-965.8203125,-140.625,-105.95703125,-428.22265625,0.0,0,0
1772276889.748256,1772276889.6845274,-152.83203125,-68.84765625,-101.5625,-438.96484375,0.0,0,0
1772276889.7482822,1772276889.6884236,-900.390625,62.5,20.99609375,184.08203125,0.0,0,0
1772276889.748306,1772276889.6923196,491.69921875,65.91796875,49.31640625,426.26953125,0.0,0,0
1772276889.748331,1772276889.6962159,-434.08203125,1.46484375,-6.8359375,151.3671875,0.0,0,0
1772276889.7483552,1772276889.700112,-908.203125,-111.81640625,-111.81640625,-472.65625,0.0,0,0
1772276889.748379,1772276889.704008,-270.01953125,-102.5390625,-130.859375,-595.21484375,0.0,0,0
1772276889.7484028,1772276889.7079043,-971.6796875,56.640625,-16.11328125,18.5546875,0.0,0,0
1772276889.748427,1772276889.7118003,679.19921875,77.63671875,66.40625,380.859375,0.0,0,0
1772276889.7484522,1772276889.7156966,-205.078125,-21.484375,43.9453125,248.046875,0.0,0,0
1772276889.7484748,1772276889.7195928,-877.44140625,-134.27734375,-78.125,-377.44140625,0.0,0,0
1772276889.793422,1772276889.7236123,-270.99609375,-112.79296875,-111.328125,-603.515625,0.0,0,0
1772276889.793571,1772276889.7275085,-936.5234375,35.64453125,-13.671875,-53.22265625,0.0,0,0
1772276889.7936158,1772276889.7314048,846.19140625,51.26953125,56.640625,382.32421875,0.0,0,0
1772276889.793644,1772276889.7353008,144.04296875,-13.18359375,41.50390625,293.9453125,0.0,0,0
1772276889.793727,1772276889.739197,-713.37890625,-114.2578125,-75.68359375,-350.09765625,0.0,0,0
1772276889.7937632,1772276889.7430933,-349.12109375,-92.7734375,-108.88671875,-588.8671875,0.0,0,0
1772276889.7937899,1772276889.7469893,890.625,26.3671875,-14.6484375,-123.53515625,0.0,0,0
1772276889.793814,1772276889.7508855,910.64453125,61.03515625,63.96484375,359.375,0.0,0,0
1772276889.793838,1772276889.7547817,288.57421875,16.11328125,55.17578125,364.2578125,0.0,0,0
1772276889.7938619,1772276889.758678,-668.45703125,-113.28125,-62.01171875,-276.3671875,0.0,0,0
1772276889.793886,1772276889.762574,-446.2890625,-121.58203125,-118.65234375,-594.23828125,0.0,0,0
1772276889.79391,1772276889.7664702,809.5703125,-39.55078125,-42.48046875,-219.23828125,0.0,0,0
1772276889.8389492,1772276889.77048,998.046875,38.57421875,57.6171875,339.35546875,0.0,0,0
1772276889.839055,1772276889.7743762,362.3046875,54.19921875,58.59375,433.10546875,0.0,0,0
1772276889.839099,1772276889.7782722,-677.734375,-94.7265625,-77.63671875,-195.80078125,0.0,0,0
1772276889.839137,1772276889.7821684,-607.91015625,-111.328125,-138.18359375,-554.19921875,0.0,0,0
1772276889.839176,1772276889.7860646,416.9921875,-10.25390625,-73.73046875,-284.66796875,0.0,0,0
1772276889.8392131,1772276889.7899609,873.53515625,48.33984375,14.6484375,264.6484375,0.0,0,0
1772276889.8392498,1772276889.793857,321.77734375,0.48828125,36.1328125,436.03515625,0.0,0,0
1772276889.839288,1772276889.797753,-818.84765625,-159.1796875,-65.91796875,-121.09375,0.0,0,0
1772276889.839325,1772276889.8016493,-785.15625,-161.62109375,-130.859375,-541.015625,0.0,0,0
1772276889.839361,1772276889.8055456,267.08984375,-52.24609375,-93.26171875,-370.1171875,0.0,0,0
1772276889.8394,1772276889.8094418,947.75390625,37.59765625,13.671875,217.28515625,0.0,0,0
1772276889.839434,1772276889.8133378,268.06640625,10.7421875,57.6171875,435.546875,0.0,0,0
1772276889.883487,1772276889.8173378,-789.55078125,-118.65234375,-19.04296875,-21.484375,0.0,0,0
1772276889.883569,1772276889.821234,-919.43359375,-140.13671875,-114.2578125,-504.39453125,0.0,0,0
1772276889.883599,1772276889.8251302,-64.94140625,-41.015625,-113.28125,-431.640625,0.0,0,0
1772276889.8836238,1772276889.8290265,913.57421875,61.5234375,-4.39453125,187.01171875,0.0,0,0
1772276889.883648,1772276889.8329227,283.69140625,17.08984375,62.98828125,446.2890625,0.0,0,0
1772276889.883672,1772276889.836819,-769.53125,-110.3515625,7.32421875,72.265625,0.0,0,0
1772276889.883699,1772276889.840715,-986.328125,-164.0625,-108.3984375,-478.02734375,0.0,0,0
1772276889.883722,1772276889.8446112,-255.859375,-90.33203125,-107.421875,-442.87109375,0.0,0,0
1772276889.883818,1772276889.8485074,892.08984375,62.5,22.94921875,211.42578125,0.0,0,0
1772276889.8838441,1772276889.8524036,389.16015625,41.015625,80.56640625,470.703125,0.0,0,0
1772276889.883869,1772276889.8562999,-675.29296875,-71.77734375,16.11328125,176.26953125,0.0,0,0
1772276889.883893,1772276889.860196,-998.53515625,-128.90625,-99.609375,-429.19921875,0.0,0,0
1772276889.92877,1772276889.864188,-269.04296875,-79.58984375,-104.98046875,-529.296875,0.0,0,0
1772276889.9288661,1772276889.8680842,971.6796875,67.87109375,0.9765625,99.12109375,0.0,0,0
1772276889.928912,1772276889.8719804,594.7265625,80.56640625,50.78125,419.43359375,0.0,0,0
1772276889.928952,1772276889.8758767,-287.109375,-10.7421875,31.73828125,229.4921875,0.0,0,0
1772276889.928991,1772276889.879773,-866.69921875,-135.25390625,-87.40234375,-380.859375,0.0,0,0
1772276889.92903,1772276889.883669,-266.6015625,-124.0234375,-132.8125,-590.33203125,0.0,0,0
1772276889.929068,1772276889.8875651,-921.38671875,29.296875,-14.6484375,-5.859375,0.0,0,0
1772276889.9291039,1772276889.8914614,778.80859375,23.92578125,56.15234375,424.31640625,0.0,0,0
1772276889.929142,1772276889.8953576,14.6484375,-40.0390625,24.90234375,310.05859375,0.0,0,0
1772276889.929179,1772276889.8992538,-759.765625,-124.51171875,-103.515625,-313.4765625,0.0,0,0
1772276889.929215,1772276889.90315,-331.54296875,-117.1875,-150.390625,-559.5703125,0.0,0,0
1772276889.9292521,1772276889.9070463,972.16796875,24.4140625,-49.8046875,-74.21875,0.0,0,0
1772276890.004012,1772276889.9111083,909.66796875,76.66015625,47.8515625,400.390625,0.0,0,0
1772276890.0041769,1772276889.9150045,197.75390625,29.78515625,37.109375,375.48828125,0.0,0,0
1772276890.004236,1772276889.9189007,-758.7890625,-103.515625,-78.61328125,-262.6953125,0.0,0,0
1772276890.0042932,1772276889.922797,-421.38671875,-115.234375,-121.09375,-559.5703125,0.0,0,0
1772276890.0043452,1772276889.9266932,847.16796875,9.765625,-53.22265625,-172.8515625,0.0,0,0
1772276890.0043972,1772276889.9305894,967.28515625,96.19140625,31.25,362.3046875,0.0,0,0
1772276890.004458,1772276889.9344857,401.85546875,55.6640625,40.0390625,437.5,0.0,0,0
1772276890.004509,1772276889.938382,-620.60546875,-88.37890625,-76.171875,-197.265625,0.0,0,0
1772276890.004559,1772276889.9422781,-527.83203125,-82.03125,-145.5078125,-537.59765625,0.0,0,0
1772276890.004611,1772276889.9461744,749.0234375,30.76171875,-90.33203125,-228.02734375,0.0,0,0
1772276890.004661,1772276889.9500706,-973.6328125,82.51953125,22.94921875,333.0078125,0.0,0,0
1772276890.0047119,1772276889.9539669,369.62890625,24.90234375,61.03515625,463.8671875,0.0,0,0
1772276890.033707,1772276889.9579458,-683.59375,-124.51171875,-54.6875,-124.0234375,0.0,0,0
1772276890.033791,1772276889.961842,-711.9140625,-107.91015625,-120.1171875,-511.71875,0.0,0,0
1772276890.0338209,1772276889.9657383,424.8046875,19.04296875,-71.2890625,-309.5703125,0.0,0,0
1772276890.033875,1772276889.9696345,986.81640625,98.14453125,22.94921875,250.48828125,0.0,0,0
1772276890.03391,1772276889.9735308,291.50390625,66.89453125,47.36328125,439.94140625,0.0,0,0
1772276890.0339358,1772276889.977427,-766.6015625,-91.30859375,-55.6640625,-63.96484375,0.0,0,0
1772276890.0339599,1772276889.9813232,-870.60546875,-134.765625,-134.27734375,-506.8359375,0.0,0,0
1772276890.033987,1772276889.9852195,156.73828125,-67.3828125,-101.07421875,-363.76953125,0.0,0,0
1772276890.034011,1772276889.9891157,-988.28125,26.85546875,11.71875,238.28125,0.0,0,0
1772276890.0340369,1772276889.993012,256.34765625,37.59765625,50.29296875,442.3828125,0.0,0,0
1772276890.03406,1772276889.9969082,-801.26953125,-64.453125,-27.34375,33.203125,0.0,0,0
1772276890.034084,1772276890.0008044,-993.65234375,-104.00390625,-129.8828125,-487.3046875,0.0,0,0
1772276890.0786219,1772276890.004842,-8.30078125,-33.69140625,-129.8828125,-450.1953125,0.0,0,0
1772276890.0787551,1772276890.0087383,-879.8828125,59.08203125,-8.7890625,188.96484375,0.0,0,0
1772276890.078815,1772276890.0126345,367.1875,37.59765625,31.73828125,444.3359375,0.0,0,0
1772276890.078872,1772276890.0165308,-679.19921875,-69.82421875,-17.08984375,144.04296875,0.0,0,0
1772276890.0789251,1772276890.020427,-1000.0,-164.55078125,-103.515625,-435.546875,0.0,0,0
1772276890.078976,1772276890.0243232,-176.7578125,-102.5390625,-121.09375,-507.32421875,0.0,0,0
1772276890.079028,1772276890.0282195,-925.78125,50.78125,-15.13671875,123.53515625,0.0,0,0
1772276890.079085,1772276890.0321157,488.76953125,41.9921875,34.66796875,415.0390625,0.0,0,0
1772276890.079136,1772276890.0360122,-480.46875,-37.109375,-10.7421875,206.0546875,0.0,0,0
1772276890.079187,1772276890.0399084,-934.08203125,-115.234375,-119.140625,-397.4609375,0.0,0,0
1772276890.079238,1772276890.0438046,-247.0703125,-81.54296875,-130.37109375,-547.8515625,0.0,0,0
1772276890.0792892,1772276890.047701,-924.31640625,68.359375,-11.71875,41.9921875,0.0,0,0
1772276890.123687,1772276890.0517285,694.82421875,68.84765625,52.24609375,407.2265625,0.0,0,0
1772276890.123768,1772276890.0556247,-187.98828125,-24.90234375,20.01953125,267.08984375,0.0,0,0
1772276890.123796,1772276890.059521,-864.74609375,-136.23046875,-104.00390625,-350.09765625,0.0,0,0
1772276890.123822,1772276890.0634172,-292.48046875,-119.140625,-154.296875,-570.3125,0.0,0,0
1772276890.1238458,1772276890.0673134,-953.61328125,10.7421875,-52.734375,-72.75390625,0.0,0,0
1772276890.12387,1772276890.07121,864.74609375,50.29296875,47.36328125,396.484375,0.0,0,0
1772276890.123893,1772276890.0751061,119.62890625,-13.671875,24.4140625,347.16796875,0.0,0,0
1772276890.123917,1772276890.0790024,-739.74609375,-138.671875,-104.00390625,-301.7578125,0.0,0,0
1772276890.12394,1772276890.0828986,-374.51171875,-132.32421875,-133.30078125,-570.80078125,0.0,0,0
1772276890.1239638,1772276890.0867949,847.65625,-14.6484375,-44.43359375,-143.06640625,0.0,0,0
1772276890.123988,1772276890.0906913,938.96484375,30.76171875,38.0859375,362.79296875,0.0,0,0
1772276890.124011,1772276890.0945876,241.69921875,-26.3671875,35.64453125,395.99609375,0.0,0,0
1772276890.1833532,1772276890.0986807,-771.484375,-172.36328125,-77.63671875,-215.8203125,0.0,0,0
1772276890.183438,1772276890.102577,-479.98046875,-178.22265625,-102.5390625,-507.8125,0.0,0,0
1772276890.183466,1772276890.1064734,700.1953125,-43.9453125,-41.015625,-180.17578125,0.0,0,0
1772276890.183491,1772276890.1103697,963.37890625,31.73828125,36.1328125,347.16796875,0.0,0,0
1772276890.1835158,1772276890.114266,354.00390625,2.9296875,42.96875,423.33984375,0.0,0,0
1772276890.1835399,1772276890.1181624,-747.55859375,-144.04296875,-87.890625,-204.1015625,0.0,0,0
1772276890.183564,1772276890.1220586,-626.953125,-153.80859375,-144.04296875,-563.96484375,0.0,0,0
1772276890.183588,1772276890.1259549,612.3046875,-44.921875,-78.61328125,-306.640625,0.0,0,0
1772276890.1836119,1772276890.1298513,-965.8203125,63.4765625,41.015625,286.1328125,0.0,0,0
1772276890.183636,1772276890.1337476,306.15234375,95.703125,72.75390625,464.84375,0.0,0,0
1772276890.183659,1772276890.1376438,-776.3671875,-53.7109375,-35.15625,-90.33203125,0.0,0,0
1772276890.183682,1772276890.1415403,-791.9921875,-86.9140625,-114.74609375,-537.59765625,0.0,0,0
1772276890.2135649,1772276890.145548,331.54296875,-2.9296875,-93.75,-345.703125,0.0,0,0
1772276890.213712,1772276890.1494446,-972.65625,85.44921875,14.16015625,282.2265625,0.0,0,0
1772276890.2137752,1772276890.1533408,267.578125,87.890625,52.734375,505.859375,0.0,0,0
1772276890.213851,1772276890.157237,-762.20703125,-64.453125,-39.55078125,62.98828125,0.0,0,0
1772276890.213902,1772276890.1611335,-951.171875,-128.90625,-123.046875,-444.3359375,0.0,0,0
1772276890.213933,1772276890.1650298,14.6484375,-54.19921875,-84.47265625,-382.32421875,0.0,0,0
1772276890.213959,1772276890.168926,-945.3125,49.31640625,48.33984375,228.515625,0.0,0,0
1772276890.214012,1772276890.1728225,309.5703125,37.59765625,72.265625,468.75,0.0,0,0
1772276890.2140381,1772276890.1767187,-767.578125,-71.77734375,-15.625,109.375,0.0,0,0
1772276890.214062,1772276890.1806152,-1000.0,-158.69140625,-113.76953125,-432.12890625,0.0,0,0
1772276890.214089,1772276890.1845114,-166.9921875,-94.7265625,-103.515625,-417.96875,0.0,0,0
1772276890.214539,1772276890.1884077,-969.23828125,85.9375,13.18359375,220.21484375,0.0,0,0
1772276890.303068,1772276890.192559,417.48046875,89.35546875,51.7578125,465.33203125,0.0,0,0
1772276890.303164,1772276890.1964555,-590.33203125,-33.69140625,6.8359375,201.66015625,0.0,0,0
1772276890.3031979,1772276890.200352,-956.54296875,-118.1640625,-94.7265625,-377.44140625,0.0,0,0
1772276890.3032289,1772276890.2042482,-249.0234375,-91.796875,-124.51171875,-499.0234375,0.0,0,0
1772276890.3032598,1772276890.2081447,-963.37890625,53.7109375,-20.5078125,103.515625,0.0,0,0
1772276890.303298,1772276890.212041,583.984375,61.5234375,52.24609375,432.6171875,0.0,0,0
1772276890.303336,1772276890.2159374,-339.35546875,-26.85546875,35.64453125,256.8359375,0.0,0,0
1772276890.303364,1772276890.2198336,-878.41796875,-138.671875,-79.1015625,-364.2578125,0.0,0,0
1772276890.3033931,1772276890.22373,-280.76171875,-145.5078125,-113.28125,-550.29296875,0.0,0,0
1772276890.303422,1772276890.2276263,-991.2109375,18.06640625,8.30078125,48.33984375,0.0,0,0
1772276890.3034508,1772276890.2315228,817.87109375,67.3828125,91.30859375,483.3984375,0.0,0,0
1772276890.303518,1772276890.235419,102.05078125,-19.04296875,70.3125,394.53125,0.0,0,0
1772276890.304678,1772276890.23942,-753.41796875,-136.71875,-64.94140625,-233.3984375,0.0,0,0
1772276890.3047528,1772276890.2433164,-326.171875,-114.74609375,-126.46484375,-481.93359375,0.0,0,0
1772276890.304786,1772276890.2472126,949.70703125,31.25,-47.36328125,-25.390625,0.0,0,0
1772276890.304817,1772276890.2511091,917.96875,69.82421875,31.25,426.7578125,0.0,0,0
1772276890.304849,1772276890.2550056,240.234375,-2.44140625,42.48046875,400.390625,0.0,0,0
1772276890.304877,1772276890.2589018,-725.5859375,-149.90234375,-63.96484375,-228.515625,0.0,0,0
1772276890.304907,1772276890.2627983,-438.96484375,-154.78515625,-138.18359375,-518.06640625,0.0,0,0
1772276890.304936,1772276890.2666945,685.546875,-5.37109375,-69.82421875,-157.2265625,0.0,0,0
1772276890.304965,1772276890.270591,915.0390625,68.84765625,46.38671875,352.5390625,0.0,0,0
1772276890.304993,1772276890.2744875,327.63671875,24.90234375,67.87109375,425.78125,0.0,0,0
1772276890.305022,1772276890.2783837,-760.7421875,-108.88671875,-61.03515625,-222.16796875,0.0,0,0
1772276890.3050508,1772276890.2822802,-558.10546875,-107.91015625,-124.51171875,-578.61328125,0.0,0,0
1772276890.348522,1772276890.28626,666.50390625,4.39453125,-52.24609375,-259.27734375,0.0,0,0
1772276890.348633,1772276890.2901564,-989.2578125,75.68359375,45.41015625,305.17578125,0.0,0,0
1772276890.348664,1772276890.2940528,315.4296875,67.87109375,44.43359375,441.40625,0.0,0,0
1772276890.3486888,1772276890.297949,-759.27734375,-65.4296875,-51.7578125,-98.14453125,0.0,0,0
1772276890.348715,1772276890.3018456,-771.484375,-94.7265625,-112.3046875,-480.46875,0.0,0,0
1772276890.3487391,1772276890.305742,346.19140625,13.18359375,-67.87109375,-281.73828125,0.0,0,0
1772276890.348764,1772276890.3096383,-991.2109375,110.83984375,42.48046875,275.87890625,0.0,0,0
1772276890.348788,1772276890.3135347,265.13671875,77.63671875,50.29296875,455.078125,0.0,0,0
1772276890.348813,1772276890.317431,-823.2421875,-93.75,-46.875,-4.39453125,0.0,0,0
1772276890.3488362,1772276890.3213274,-926.26953125,-116.2109375,-114.2578125,-478.515625,0.0,0,0
1772276890.3488598,1772276890.325224,133.30078125,8.30078125,-94.23828125,-388.671875,0.0,0,0
1772276890.3488839,1772276890.3291202,-941.40625,118.1640625,6.34765625,220.21484375,0.0,0,0
1772276890.40908,1772276890.3330913,273.92578125,116.2109375,56.640625,454.1015625,0.0,0,0
1772276890.4091861,1772276890.3369875,-708.49609375,-7.32421875,-28.3203125,43.9453125,0.0,0,0
1772276890.4092748,1772276890.340884,-958.49609375,-97.65625,-151.85546875,-509.765625,0.0,0,0
1772276890.409329,1772276890.3447804,-95.703125,-49.8046875,-145.5078125,-461.42578125,0.0,0,0
1772276890.4093702,1772276890.3486767,-969.7265625,76.66015625,-1.953125,176.7578125,0.0,0,0
1772276890.409408,1772276890.3525732,397.4609375,64.94140625,45.8984375,426.7578125,0.0,0,0
1772276890.409446,1772276890.3564696,-585.9375,-54.6875,-18.5546875,142.578125,0.0,0,0
1772276890.409485,1772276890.3603659,-984.86328125,-138.671875,-93.75,-447.75390625,0.0,0,0
1772276890.4095218,1772276890.3642623,-192.87109375,-88.8671875,-94.23828125,-524.90234375,0.0,0,0
1772276890.409559,1772276890.3681588,-905.76171875,62.5,4.39453125,115.72265625,0.0,0,0
1772276890.4095948,1772276890.372055,533.69140625,73.73046875,44.43359375,401.85546875,0.0,0,0
1772276890.409631,1772276890.3759515,-351.5625,-26.3671875,-0.9765625,179.6875,0.0,0,0
1772276890.45372,1772276890.3799884,-855.95703125,-140.625,-103.02734375,-433.10546875,0.0,0,0
1772276890.45382,1772276890.383885,-267.578125,-109.86328125,-127.44140625,-590.33203125,0.0,0,0
1772276890.453865,1772276890.3877814,-940.91796875,34.66796875,-31.73828125,9.27734375,0.0,0,0
1772276890.453904,1772276890.3916779,713.37890625,22.4609375,35.64453125,384.27734375,0.0,0,0
1772276890.453943,1772276890.3955743,-35.64453125,-66.89453125,21.97265625,252.9296875,0.0,0,0
1772276890.45398,1772276890.3994706,-742.1875,-175.29296875,-82.51953125,-353.515625,0.0,0,0
1772276890.454016,1772276890.403367,-347.65625,-171.38671875,-126.46484375,-576.171875,0.0,0,0
1772276890.4540532,1772276890.4072635,944.82421875,-24.90234375,-29.296875,-67.3828125,0.0,0,0
1772276890.454128,1772276890.41116,870.1171875,14.16015625,46.38671875,379.8828125,0.0,0,0
1772276890.4542348,1772276890.4150562,139.6484375,-45.8984375,32.71484375,339.35546875,0.0,0,0
1772276890.454308,1772276890.4189527,-775.390625,-180.6640625,-82.03125,-285.64453125,0.0,0,0
1772276890.4543512,1772276890.4228492,-362.3046875,-153.3203125,-126.953125,-568.359375,0.0,0,0
1772276890.49859,1772276890.4268754,911.62109375,1.953125,-40.0390625,-142.08984375,0.0,0,0
1772276890.498695,1772276890.4307718,954.58984375,49.31640625,63.96484375,374.0234375,0.0,0,0
1772276890.498724,1772276890.4346683,362.79296875,-1.953125,63.96484375,411.62109375,0.0,0,0
1772276890.498751,1772276890.4385648,-633.30078125,-155.76171875,-68.84765625,-232.91015625,0.0,0,0
1772276890.498778,1772276890.442461,-482.421875,-148.4375,-107.421875,-547.36328125,0.0,0,0
1772276890.498802,1772276890.4463575,622.0703125,-11.71875,-39.55078125,-227.5390625,0.0,0,0
1772276890.4988291,1772276890.450254,935.546875,56.640625,34.66796875,314.94140625,0.0,0,0
1772276890.4988532,1772276890.4541504,329.58984375,16.11328125,47.8515625,441.89453125,0.0,0,0
1772276890.4988768,1772276890.458047,-823.2421875,-138.671875,-64.94140625,-150.87890625,0.0,0,0
1772276890.4989,1772276890.4619434,-695.3125,-125.48828125,-124.0234375,-520.99609375,0.0,0,0
1772276890.498924,1772276890.4658399,508.30078125,-11.71875,-71.77734375,-298.33984375,0.0,0,0
1772276890.4989471,1772276890.469736,-968.75,82.51953125,36.62109375,270.5078125,0.0,0,0
1772276890.543644,1772276890.4737523,279.296875,68.359375,73.2421875,453.61328125,0.0,0,0
1772276890.5437372,1772276890.4776487,-821.2890625,-92.28515625,-41.9921875,-67.3828125,0.0,0,0
1772276890.543772,1772276890.4815452,-820.80078125,-123.046875,-124.51171875,-517.578125,0.0,0,0
1772276890.543798,1772276890.4854417,317.3828125,-32.2265625,-73.73046875,-354.98046875,0.0,0,0
1772276890.543825,1772276890.4893382,-952.1484375,62.5,39.0625,227.05078125,0.0,0,0
1772276890.543849,1772276890.4932346,265.625,54.19921875,69.82421875,447.265625,0.0,0,0
1772276890.543873,1772276890.497131,-748.046875,-75.1953125,-13.18359375,31.25,0.0,0,0
1772276890.5438972,1772276890.5010276,-960.44921875,-117.1875,-98.14453125,-496.58203125,0.0,0,0
1772276890.543922,1772276890.504924,76.171875,-43.45703125,-79.58984375,-430.6640625,0.0,0,0
1772276890.5439491,1772276890.5088203,-860.3515625,61.5234375,27.34375,194.82421875,0.0,0,0
1772276890.5439732,1772276890.5127168,307.12890625,48.33984375,60.546875,443.84765625,0.0,0,0
1772276890.5439959,1772276890.5166132,-684.08203125,-78.61328125,12.20703125,127.44140625,0.0,0,0
1772276890.589379,1772276890.520621,-989.2578125,-162.59765625,-76.171875,-440.4296875,0.0,0,0
1772276890.589462,1772276890.5245175,-152.34375,-115.72265625,-98.6328125,-461.9140625,0.0,0,0
1772276890.589537,1772276890.528414,-911.62109375,29.296875,14.6484375,178.7109375,0.0,0,0
1772276890.589567,1772276890.5323105,476.07421875,47.36328125,78.61328125,479.00390625,0.0,0,0
1772276890.589592,1772276890.536207,-511.23046875,-64.94140625,8.7890625,175.29296875,0.0,0,0
1772276890.589617,1772276890.5401034,-975.5859375,-161.1328125,-128.41796875,-468.26171875,0.0,0,0
1772276890.589673,1772276890.544,-277.34375,-81.0546875,-125.9765625,-519.04296875,0.0,0,0
1772276890.5896971,1772276890.5478964,-982.91015625,61.03515625,-5.37109375,88.8671875,0.0,0,0
1772276890.589746,1772276890.5517929,648.4375,20.5078125,26.85546875,425.29296875,0.0,0,0
1772276890.5898108,1772276890.5556893,-263.671875,-64.453125,-3.90625,260.25390625,0.0,0,0
1772276890.589841,1772276890.5595858,-894.04296875,-160.15625,-108.3984375,-353.515625,0.0,0,0
1772276890.589867,1772276890.5634823,-280.76171875,-138.671875,-155.76171875,-547.8515625,0.0,0,0
1772276890.634109,1772276890.5674837,-962.40234375,14.16015625,-41.015625,4.39453125,0.0,0,0
1772276890.634218,1772276890.5713801,842.7734375,51.26953125,46.875,441.89453125,0.0,0,0
1772276890.634262,1772276890.5752766,57.12890625,-9.27734375,25.390625,348.6328125,0.0,0,0
1772276890.6343,1772276890.579173,-807.12890625,-132.32421875,-80.56640625,-298.33984375,0.0,0,0
1772276890.6343381,1772276890.5830696,-341.30859375,-131.34765625,-116.69921875,-545.41015625,0.0,0,0
1772276890.634376,1772276890.586966,919.921875,14.16015625,-23.92578125,-86.42578125,0.0,0,0
1772276890.634412,1772276890.5908625,922.36328125,43.9453125,63.96484375,418.9453125,0.0,0,0
1772276890.63445,1772276890.594759,219.23828125,-27.83203125,51.7578125,430.6640625,0.0,0,0
1772276890.634486,1772276890.5986555,-750.0,-127.9296875,-60.05859375,-199.21875,0.0,0,0
1772276890.6345248,1772276890.602552,-452.63671875,-111.81640625,-110.83984375,-502.9296875,0.0,0,0
1772276890.634562,1772276890.6064484,772.4609375,10.25390625,-36.62109375,-151.85546875,0.0,0,0
1772276890.6345978,1772276890.610345,973.6328125,85.44921875,63.4765625,383.7890625,0.0,0,0
1772276890.679511,1772276890.6143355,346.6796875,33.203125,54.19921875,453.125,0.0,0,0
1772276890.6796658,1772276890.618232,-700.68359375,-147.94921875,-66.40625,-180.17578125,0.0,0,0
1772276890.679731,1772276890.6221285,-600.09765625,-152.34375,-119.62890625,-526.85546875,0.0,0,0
1772276890.679785,1772276890.626025,569.3359375,-24.90234375,-77.1484375,-267.08984375,0.0,0,0
1772276890.679838,1772276890.6299217,970.21484375,70.80078125,7.8125,297.8515625,0.0,0,0
1772276890.679895,1772276890.6338181,328.125,72.265625,34.1796875,473.14453125,0.0,0,0
1772276890.679946,1772276890.6377146,-751.46484375,-82.51953125,-58.59375,-98.14453125,0.0,0,0
1772276890.679998,1772276890.641611,-798.828125,-106.4453125,-120.60546875,-512.20703125,0.0,0,0
1772276890.680049,1772276890.6455076,357.91015625,1.46484375,-75.68359375,-320.80078125,0.0,0,0
1772276890.680099,1772276890.649404,-956.0546875,101.07421875,32.71484375,272.94921875,0.0,0,0
1772276890.680151,1772276890.6533005,251.46484375,81.0546875,69.82421875,489.2578125,0.0,0,0
1772276890.680205,1772276890.657197,-799.8046875,-65.4296875,-28.3203125,20.99609375,0.0,0,0
1772276890.7238479,1772276890.6611772,-925.78125,-112.79296875,-128.90625,-441.89453125,0.0,0,0
1772276890.723958,1772276890.6650736,-84.9609375,-26.3671875,-94.7265625,-351.07421875,0.0,0,0
1772276890.724001,1772276890.66897,911.1328125,105.95703125,29.296875,222.65625,0.0,0,0
1772276890.72404,1772276890.6728666,298.828125,83.984375,63.96484375,450.1953125,0.0,0,0
1772276890.7241101,1772276890.6767633,-775.390625,-60.546875,1.953125,98.14453125,0.0,0,0
1772276890.724148,1772276890.6806598,-973.6328125,-108.3984375,-90.33203125,-449.70703125,0.0,0,0
1772276890.724185,1772276890.6845562,-280.76171875,-62.98828125,-80.078125,-461.42578125,0.0,0,0
1772276890.724225,1772276890.6884527,838.8671875,42.96875,21.97265625,171.875,0.0,0,0
1772276890.724263,1772276890.6923492,363.76953125,29.296875,42.96875,427.734375,0.0,0,0
1772276890.7243001,1772276890.6962457,-600.09765625,-76.171875,-5.859375,157.71484375,0.0,0,0
1772276890.7243378,1772276890.7001421,-928.7109375,-146.484375,-104.00390625,-396.97265625,0.0,0,0
1772276890.7243772,1772276890.7040389,-303.7109375,-100.09765625,-110.83984375,-500.0,0.0,0,0
1772276890.783982,1772276890.7080088,961.9140625,55.6640625,10.7421875,122.55859375,0.0,0,0
1772276890.7841349,1772276890.7119052,571.2890625,36.1328125,41.50390625,416.9921875,0.0,0,0
1772276890.7841952,1772276890.715802,-420.8984375,-61.5234375,7.8125,198.73046875,0.0,0,0
1772276890.784249,1772276890.7196984,-938.96484375,-129.8828125,-86.42578125,-388.18359375,0.0,0,0
1772276890.7843049,1772276890.723595,-268.5546875,-110.3515625,-115.72265625,-562.98828125,0.0,0,0
1772276890.784357,1772276890.7274914,-977.05078125,37.59765625,-4.39453125,16.6015625,0.0,0,0
1772276890.784412,1772276890.7313879,765.625,63.4765625,60.05859375,424.8046875,0.0,0,0
1772276890.784464,1772276890.7352846,-143.06640625,-31.73828125,24.4140625,300.78125,0.0,0,0
1772276890.7845151,1772276890.739181,-905.76171875,-150.390625,-100.09765625,-330.56640625,0.0,0,0
1772276890.784566,1772276890.7430775,-310.05859375,-125.9765625,-132.32421875,-542.96875,0.0,0,0
1772276890.784619,1772276890.746974,971.19140625,20.99609375,-20.01953125,-39.55078125,0.0,0,0
1772276890.784669,1772276890.7508705,897.94921875,86.9140625,60.546875,407.2265625,0.0,0,0
1772276890.829463,1772276890.7549067,261.71875,38.57421875,43.9453125,385.25390625,0.0,0,0
1772276890.8296142,1772276890.7588031,-679.6875,-124.51171875,-62.01171875,-218.75,0.0,0,0
1772276890.8296719,1772276890.7626996,-400.87890625,-147.94921875,-105.95703125,-484.86328125,0.0,0,0
1772276890.829728,1772276890.7665963,889.16015625,-16.6015625,-31.73828125,-93.26171875,0.0,0,0
1772276890.829779,1772276890.7704928,993.1640625,49.8046875,44.43359375,405.76171875,0.0,0,0
1772276890.829839,1772276890.7743893,336.42578125,22.4609375,40.0390625,447.75390625,0.0,0,0
1772276890.8298922,1772276890.778286,-714.35546875,-103.02734375,-62.01171875,-186.03515625,0.0,0,0
1772276890.829945,1772276890.7821825,-520.99609375,-102.5390625,-104.4921875,-517.578125,0.0,0,0
1772276890.829997,1772276890.786079,619.62890625,-6.34765625,-44.921875,-230.95703125,0.0,0,0
1772276890.830047,1772276890.7899754,932.6171875,41.50390625,57.6171875,274.90234375,0.0,0,0
1772276890.830097,1772276890.793872,343.26171875,31.25,83.0078125,368.1640625,0.0,0,0
1772276890.8301492,1772276890.7977686,-743.1640625,-90.33203125,-20.5078125,-232.91015625,0.0,0,0
1772276890.888663,1772276890.8018692,-722.16796875,-87.40234375,-79.58984375,-617.67578125,0.0,0,0
1772276890.888819,1772276890.8057656,313.96484375,10.25390625,-45.8984375,-385.25390625,0.0,0,0
1772276890.888881,1772276890.8096623,938.96484375,83.49609375,67.3828125,193.359375,0.0,0,0
1772276890.8889291,1772276890.8135588,254.39453125,50.29296875,95.21484375,356.4453125,0.0,0,0
1772276890.8889668,1772276890.8174553,-873.53515625,-98.6328125,-13.18359375,-138.671875,0.0,0,0
1772276890.889005,1772276890.821352,-927.734375,-104.98046875,-84.9609375,-539.0625,0.0,0,0
1772276890.889042,1772276890.8252485,63.4765625,-11.23046875,-53.22265625,-395.99609375,0.0,0,0
1772276890.889083,1772276890.8291452,-999.51171875,72.75390625,45.8984375,173.33984375,0.0,0,0
1772276890.88912,1772276890.8330417,281.25,48.33984375,57.12890625,367.67578125,0.0,0,0
1772276890.88916,1772276890.8369381,-798.828125,-106.93359375,-21.484375,-32.2265625,0.0,0,0
1772276890.889196,1772276890.8408349,-973.14453125,-163.0859375,-103.515625,-522.94921875,0.0,0,0
1772276890.889232,1772276890.8447313,-37.109375,-65.91796875,-93.26171875,-474.12109375,0.0,0,0
1772276890.918983,1772276890.848748,-975.09765625,50.29296875,33.203125,133.7890625,0.0,0,0
1772276890.91909,1772276890.8526447,319.3359375,39.0625,71.2890625,380.37109375,0.0,0,0
1772276890.919123,1772276890.8565412,-720.703125,-62.01171875,-6.34765625,81.0546875,0.0,0,0
1772276890.919154,1772276890.8604379,-1000.0,-126.953125,-104.4921875,-468.26171875,0.0,0,0
1772276890.919183,1772276890.8643343,-160.64453125,-79.58984375,-102.5390625,-490.234375,0.0,0,0
1772276890.9193559,1772276890.868231,-891.11328125,54.6875,-0.9765625,143.5546875,0.0,0,0
1772276890.919389,1772276890.8721275,504.39453125,27.83203125,40.52734375,409.1796875,0.0,0,0
1772276890.919418,1772276890.8760242,-460.44921875,-67.87109375,-7.8125,188.4765625,0.0,0,0
1772276890.919447,1772276890.8799207,-926.26953125,-132.8125,-119.62890625,-402.83203125,0.0,0,0
1772276890.919476,1772276890.8838174,-259.765625,-104.4921875,-135.7421875,-565.91796875,0.0,0,0
1772276890.919505,1772276890.887714,-956.54296875,36.62109375,-20.99609375,32.2265625,0.0,0,0
1772276890.919533,1772276890.8916106,691.89453125,41.9921875,37.59765625,391.6015625,0.0,0,0
1772276890.9645052,1772276890.895618,-131.8359375,-59.08203125,16.6015625,265.625,0.0,0,0
1772276890.964648,1772276890.8995147,-815.91796875,-162.59765625,-92.7734375,-338.37890625,0.0,0,0
1772276890.96471,1772276890.9034111,-312.01171875,-114.2578125,-112.79296875,-552.24609375,0.0,0,0
1772276890.964763,1772276890.9073079,992.1875,7.32421875,-13.671875,-34.1796875,0.0,0,0
1772276890.9648142,1772276890.9112043,856.4453125,16.6015625,43.9453125,369.62890625,0.0,0,0
1772276890.964868,1772276890.915101,80.56640625,-17.578125,20.99609375,294.921875,0.0,0,0
1772276890.964918,1772276890.9189978,-814.94140625,-134.27734375,-103.02734375,-343.75,0.0,0,0
1772276890.964969,1772276890.9228942,-318.359375,-158.69140625,-132.32421875,-606.93359375,0.0,0,0
1772276890.965018,1772276890.926791,952.63671875,-18.06640625,-27.34375,-143.06640625,0.0,0,0
1772276890.965068,1772276890.9306874,939.453125,49.31640625,55.17578125,374.51171875,0.0,0,0
1772276890.965118,1772276890.9345841,356.93359375,-5.37109375,55.17578125,413.57421875,0.0,0,0
1772276890.9651682,1772276890.9384806,-634.765625,-145.5078125,-50.29296875,-194.3359375,0.0,0,0
1772276891.008615,1772276890.9424763,-460.9375,-136.23046875,-99.609375,-479.98046875,0.0,0,0
1772276891.008766,1772276890.946373,741.2109375,-16.11328125,-45.41015625,-166.015625,0.0,0,0
1772276891.008806,1772276890.9502695,961.9140625,56.640625,60.05859375,328.61328125,0.0,0,0
1772276891.0088372,1772276890.9541662,365.72265625,14.6484375,84.47265625,437.01171875,0.0,0,0
1772276891.0088692,1772276890.9580626,-703.125,-144.04296875,-47.36328125,-128.90625,0.0,0,0
1772276891.008924,1772276890.9619594,-660.15625,-128.41796875,-112.79296875,-454.1015625,0.0,0,0
1772276891.008971,1772276890.965856,562.01171875,-7.8125,-45.8984375,-187.01171875,0.0,0,0
1772276891.009022,1772276890.9697526,-962.40234375,54.19921875,68.84765625,371.58203125,0.0,0,0
1772276891.0090592,1772276890.9736493,297.8515625,34.66796875,74.70703125,489.2578125,0.0,0,0
1772276891.009094,1772276890.9775457,-792.96875,-83.49609375,-47.8515625,-60.546875,0.0,0,0
1772276891.009165,1772276890.9814425,-830.56640625,-103.02734375,-112.79296875,-466.30859375,0.0,0,0
1772276891.0091982,1772276890.9853392,253.41796875,-23.92578125,-64.453125,-321.2890625,0.0,0,0
1772276891.0533671,1772276890.9893253,-998.046875,77.1484375,46.38671875,256.34765625,0.0,0,0
1772276891.0534458,1772276890.993222,261.71875,67.3828125,64.453125,465.33203125,0.0,0,0
1772276891.053473,1772276890.9971187,-812.01171875,-82.03125,-31.73828125,30.2734375,0.0,0,0
1772276891.053498,1772276891.0010152,-952.63671875,-123.046875,-110.83984375,-426.26953125,0.0,0,0
1772276891.0535219,1772276891.004912,43.9453125,-44.921875,-90.33203125,-326.171875,0.0,0,0
1772276891.053546,1772276891.0088086,-939.94140625,69.82421875,23.4375,272.94921875,0.0,0,0
1772276891.05357,1772276891.012705,263.671875,52.24609375,54.6875,494.62890625,0.0,0,0
1772276891.0535932,1772276891.0166018,-821.2890625,-89.84375,-25.390625,124.0234375,0.0,0,0
1772276891.053617,1772276891.0204983,-1000.0,-145.5078125,-121.09375,-420.41015625,0.0,0,0
1772276891.05364,1772276891.024395,-242.67578125,-57.6171875,-120.60546875,-413.0859375,0.0,0,0
1772276891.053664,1772276891.0282917,924.8046875,67.87109375,-20.01953125,178.7109375,0.0,0,0
1772276891.053688,1772276891.0321882,432.6171875,45.41015625,35.15625,443.84765625,0.0,0,0
1772276891.098814,1772276891.0361655,-640.13671875,-63.96484375,8.7890625,228.02734375,0.0,0,0
1772276891.0988932,1772276891.040062,-989.2578125,-137.20703125,-110.3515625,-367.1875,0.0,0,0
1772276891.098921,1772276891.0439587,-333.49609375,-82.03125,-150.390625,-493.1640625,0.0,0,0
1772276891.098946,1772276891.0478554,903.3203125,56.15234375,-23.4375,110.3515625,0.0,0,0
1772276891.0989718,1772276891.0517519,594.7265625,49.8046875,47.8515625,433.10546875,0.0,0,0
1772276891.098996,1772276891.0556486,-254.39453125,-22.4609375,2.44140625,250.0,0.0,0,0
1772276891.099039,1772276891.0595453,-832.03125,-142.08984375,-113.28125,-358.88671875,0.0,0,0
1772276891.099081,1772276891.0634418,-261.71875,-118.1640625,-145.01953125,-565.91796875,0.0,0,0
