timestamp,lsl_timestamp,TP9,AF7,AF8,TP10,Right AUX,keypress_A,keypress_B
1772030232.7818089,1772030232.719712,-1000.0,-933.10546875,-772.94921875,-293.45703125,0.0,0,0
1772030232.782157,1772030232.7236056,-520.01953125,-1000.0,-13.671875,-206.54296875,0.0,0,0
1772030232.782263,1772030232.7274995,840.8203125,-238.28125,612.79296875,96.6796875,0.0,0,0
1772030232.782309,1772030232.7313933,-862.3046875,-842.7734375,446.77734375,238.76953125,0.0,0,0
1772030232.782377,1772030232.7352872,194.3359375,499.51171875,-385.25390625,10.7421875,0.0,0,0
1772030232.7824252,1772030232.7391808,-1000.0,-892.08984375,-724.12109375,-244.140625,0.0,0,0
1772030232.782462,1772030232.7430747,-788.0859375,-1000.0,-120.1171875,-233.3984375,0.0,0,0
1772030232.782497,1772030232.7469685,584.47265625,-177.24609375,528.3203125,48.828125,0.0,0,0
1772030232.7825332,1772030232.7508624,-809.08203125,-886.23046875,491.2109375,247.0703125,0.0,0,0
1772030232.782569,1772030232.754756,158.69140625,730.46875,-359.86328125,52.24609375,0.0,0,0
1772030232.782604,1772030232.7586498,-1000.0,-635.25390625,-752.9296875,-227.05078125,0.0,0,0
1772030232.782639,1772030232.7625437,-1000.0,-1000.0,-265.13671875,-261.23046875,0.0,0,0
1772030232.8406389,1772030232.7665362,249.51171875,-176.26953125,481.93359375,18.06640625,0.0,0,0
1772030232.840807,1772030232.77043,-767.08984375,-996.09375,596.19140625,234.375,0.0,0,0
1772030232.840875,1772030232.774324,184.5703125,-958.984375,-253.41796875,83.984375,0.0,0,0
1772030232.8409338,1772030232.7782178,-1000.0,-120.1171875,-732.91015625,-194.3359375,0.0,0,0
1772030232.840993,1772030232.7821116,-1000.0,-1000.0,-373.53515625,-282.71484375,0.0,0,0
1772030232.8410492,1772030232.7860053,1.953125,-201.66015625,435.05859375,-16.11328125,0.0,0,0
1772030232.841124,1772030232.789899,-777.34375,-1000.0,665.52734375,229.00390625,0.0,0,0
1772030232.8411798,1772030232.793793,377.9296875,-942.3828125,-161.62109375,108.88671875,0.0,0,0
1772030232.8412411,1772030232.7976868,-927.734375,-18.06640625,-739.2578125,-183.59375,0.0,0,0
1772030232.841293,1772030232.8015807,-1000.0,-1000.0,-467.7734375,-302.734375,0.0,0,0
1772030232.841331,1772030232.8054743,-170.41015625,-358.3984375,360.83984375,-51.7578125,0.0,0,0
1772030232.841364,1772030232.8093681,-843.26171875,923.828125,666.9921875,206.54296875,0.0,0,0
1772030232.9174452,1772030232.8133435,582.51953125,-896.484375,-4.39453125,153.3203125,0.0,0,0
1772030232.917593,1772030232.8172374,-801.26953125,144.53125,-665.0390625,-148.92578125,0.0,0,0
1772030232.917639,1772030232.8211312,-1000.0,-1000.0,-550.29296875,-310.546875,0.0,0,0
1772030232.917681,1772030232.825025,-210.9375,-704.58984375,297.8515625,-91.30859375,0.0,0,0
1772030232.917724,1772030232.828919,-928.22265625,670.41015625,666.50390625,174.31640625,0.0,0,0
1772030232.9177668,1772030232.8328128,838.37890625,-824.21875,130.37109375,171.38671875,0.0,0,0
1772030232.917809,1772030232.8367066,-501.46484375,171.38671875,-601.5625,-116.69921875,0.0,0,0
1772030232.91785,1772030232.8406005,-1000.0,-1000.0,-654.296875,-307.6171875,0.0,0,0
1772030232.9179142,1772030232.844494,-178.7109375,-927.24609375,230.46875,-128.41796875,0.0,0,0
1772030232.917959,1772030232.848388,-985.3515625,381.34765625,675.78125,144.04296875,0.0,0,0
1772030232.918012,1772030232.8522818,-981.93359375,-778.80859375,255.37109375,198.2421875,0.0,0,0
1772030232.9180648,1772030232.8561757,-167.96875,161.1328125,-535.64453125,-67.87109375,0.0,0,0
1772030232.931972,1772030232.8601642,-1000.0,-1000.0,-717.7734375,-303.7109375,0.0,0,0
1772030232.9321222,1772030232.864058,-268.06640625,-1000.0,151.3671875,-160.64453125,0.0,0,0
1772030232.932224,1772030232.8679519,963.37890625,64.453125,652.83203125,132.32421875,0.0,0,0
1772030232.932298,1772030232.8718457,-924.8046875,-766.6015625,329.58984375,218.26171875,0.0,0,0
1772030232.932405,1772030232.8757396,35.15625,336.42578125,-446.77734375,-22.4609375,0.0,0,0
1772030232.932481,1772030232.8796334,-1000.0,-934.5703125,-708.984375,-272.94921875,0.0,0,0
1772030232.932543,1772030232.8835273,-474.609375,-1000.0,13.671875,-199.70703125,0.0,0,0
1772030232.932616,1772030232.8874211,863.28125,-231.93359375,616.2109375,96.6796875,0.0,0,0
1772030232.932697,1772030232.891315,-871.58203125,-841.30859375,458.0078125,226.07421875,0.0,0,0
1772030232.9327612,1772030232.8952088,188.96484375,514.6484375,-391.11328125,-4.8828125,0.0,0,0
1772030232.932838,1772030232.8991027,-1000.0,-875.9765625,-745.60546875,-268.5546875,0.0,0,0
1772030232.932898,1772030232.9029965,-705.078125,-1000.0,-70.3125,-234.375,0.0,0,0
1772030232.976769,1772030232.9070463,683.10546875,-207.51953125,593.26171875,57.12890625,0.0,0,0
1772030232.976852,1772030232.9109402,-826.66015625,-934.08203125,519.04296875,229.00390625,0.0,0,0
1772030232.976897,1772030232.914834,168.9453125,865.234375,-325.68359375,30.2734375,0.0,0,0
1772030232.97694,1772030232.9187279,-1000.0,-460.44921875,-737.3046875,-249.0234375,0.0,0,0
1772030232.976983,1772030232.9226217,-943.359375,-1000.0,-237.3046875,-273.92578125,0.0,0,0
1772030232.977024,1772030232.9265156,354.4921875,-189.453125,514.16015625,12.20703125,0.0,0,0
1772030232.977066,1772030232.9304097,-777.34375,-957.51953125,595.703125,220.21484375,0.0,0,0
1772030232.977107,1772030232.9343035,152.34375,943.84765625,-298.828125,42.48046875,0.0,0,0
1772030232.977151,1772030232.9381974,-1000.0,-308.10546875,-761.71875,-238.28125,0.0,0,0
1772030232.977212,1772030232.9420912,-1000.0,-1000.0,-364.2578125,-293.45703125,0.0,0,0
1772030232.9772532,1772030232.945985,70.80078125,-333.0078125,415.0390625,-26.3671875,0.0,0,0
1772030232.977304,1772030232.949879,-765.625,940.4296875,646.484375,217.28515625,0.0,0,0
1772030233.0223901,1772030232.9539165,311.03515625,-922.36328125,-181.15234375,107.421875,0.0,0,0
1772030233.022526,1772030232.9578104,-959.9609375,-42.48046875,-744.140625,-172.36328125,0.0,0,0
1772030233.022592,1772030232.9617043,-1000.0,-1000.0,-444.82421875,-285.15625,0.0,0,0
1772030233.022649,1772030232.9655983,-119.62890625,-385.7421875,359.86328125,-57.6171875,0.0,0,0
1772030233.022709,1772030232.9694922,-813.4765625,902.34375,674.8046875,206.0546875,0.0,0,0
1772030233.022769,1772030232.973386,504.8828125,-882.32421875,-22.94921875,141.6015625,0.0,0,0
1772030233.022827,1772030232.97728,-862.79296875,175.78125,-687.5,-148.4375,0.0,0,0
1772030233.022882,1772030232.9811738,-1000.0,-1000.0,-537.109375,-291.9921875,0.0,0,0
1772030233.0229352,1772030232.9850678,-221.19140625,-919.43359375,286.1328125,-88.37890625,0.0,0,0
1772030233.023021,1772030232.9889617,-910.64453125,391.11328125,663.57421875,170.8984375,0.0,0,0
1772030233.023078,1772030232.9928555,777.83203125,-785.64453125,112.79296875,158.69140625,0.0,0,0
1772030233.023135,1772030232.9967494,-588.8671875,166.015625,-619.62890625,-139.16015625,0.0,0,0
1772030233.06729,1772030233.000777,-1000.0,-1000.0,-622.0703125,-322.265625,0.0,0,0
1772030233.0674229,1772030233.004671,-185.05859375,-942.3828125,229.4921875,-130.859375,0.0,0,0
1772030233.067473,1772030233.008565,-974.12109375,357.421875,645.01953125,146.97265625,0.0,0,0
1772030233.067517,1772030233.0124588,985.83984375,-781.73828125,206.0546875,189.94140625,0.0,0,0
1772030233.067568,1772030233.0163527,-248.046875,162.109375,-589.35546875,-102.05078125,0.0,0,0
1772030233.067612,1772030233.0202467,-1000.0,-1000.0,-700.68359375,-319.82421875,0.0,0,0
1772030233.067652,1772030233.0241406,-227.5390625,-965.8203125,174.8046875,-156.73828125,0.0,0,0
1772030233.067712,1772030233.0280344,980.95703125,297.8515625,625.48828125,114.2578125,0.0,0,0
1772030233.067764,1772030233.0319285,-937.98828125,-769.04296875,285.64453125,192.87109375,0.0,0,0
1772030233.0678332,1772030233.0358224,-13.671875,236.328125,-500.9765625,-62.01171875,0.0,0,0
1772030233.067898,1772030233.0397162,-1000.0,-977.5390625,-731.4453125,-305.17578125,0.0,0,0
1772030233.0679538,1772030233.0436103,-422.8515625,-1000.0,52.734375,-199.70703125,0.0,0,0
1772030233.111836,1772030233.047626,889.16015625,-123.046875,617.67578125,103.515625,0.0,0,0
1772030233.11201,1772030233.0515199,-883.30078125,-811.03515625,390.625,227.5390625,0.0,0,0
1772030233.112054,1772030233.0554137,165.52734375,506.34765625,-445.3125,-17.578125,0.0,0,0
1772030233.1125498,1772030233.0593078,-1000.0,-861.81640625,-786.62109375,-270.5078125,0.0,0,0
1772030233.112586,1772030233.0632017,-649.90234375,-1000.0,-120.60546875,-224.12109375,0.0,0,0
1772030233.112619,1772030233.0670958,738.76953125,-220.703125,570.3125,69.3359375,0.0,0,0
1772030233.112654,1772030233.0709896,-837.890625,-909.1796875,469.23828125,226.5625,0.0,0,0
1772030233.1126862,1772030233.0748835,176.26953125,776.3671875,-409.66796875,2.9296875,0.0,0,0
1772030233.112721,1772030233.0787776,-1000.0,-591.30859375,-780.2734375,-255.859375,0.0,0,0
1772030233.1127522,1772030233.0826714,-898.92578125,-1000.0,-218.75,-260.7421875,0.0,0,0
1772030233.1127832,1772030233.0865653,426.7578125,-204.58984375,507.8125,20.5078125,0.0,0,0
1772030233.1128151,1772030233.0904593,-785.64453125,-921.875,552.734375,222.65625,0.0,0,0
1772030233.1573582,1772030233.09446,146.484375,824.21875,-341.796875,44.43359375,0.0,0,0
1772030233.157471,1772030233.098354,-1000.0,-509.27734375,-770.99609375,-224.12109375,0.0,0,0
1772030233.157536,1772030233.102248,-1000.0,-1000.0,-343.26171875,-278.80859375,0.0,0,0
1772030233.157593,1772030233.106142,102.05078125,-254.8828125,411.62109375,-15.13671875,0.0,0,0
1772030233.157652,1772030233.110036,-762.6953125,965.8203125,598.6328125,224.12109375,0.0,0,0
1772030233.157701,1772030233.11393,282.2265625,-939.453125,-229.98046875,94.7265625,0.0,0,0
1772030233.157742,1772030233.1178238,-974.609375,-33.69140625,-724.609375,-181.15234375,0.0,0,0
1772030233.157784,1772030233.121718,-1000.0,-1000.0,-432.12890625,-285.64453125,0.0,0,0
1772030233.157823,1772030233.1256118,-83.0078125,-560.546875,355.46875,-47.8515625,0.0,0,0
1772030233.157865,1772030233.1295059,-802.24609375,792.96875,667.48046875,207.51953125,0.0,0,0
1772030233.157907,1772030233.1333997,468.75,-854.4921875,-59.08203125,129.8828125,0.0,0,0
1772030233.157948,1772030233.1372938,-880.37109375,146.484375,-694.3359375,-157.71484375,0.0,0,0
1772030233.217011,1772030233.1413808,-1000.0,-1000.0,-529.78515625,-297.36328125,0.0,0,0
1772030233.217164,1772030233.1452749,-218.75,-661.1328125,312.98828125,-69.82421875,0.0,0,0
1772030233.21721,1772030233.1491687,-897.94921875,725.5859375,646.484375,191.40625,0.0,0,0
1772030233.2172532,1772030233.1530628,713.8671875,-831.54296875,25.390625,167.48046875,0.0,0,0
1772030233.217298,1772030233.1569567,-657.2265625,166.9921875,-670.8984375,-105.95703125,0.0,0,0
1772030233.217343,1772030233.1608508,-1000.0,-1000.0,-615.234375,-291.015625,0.0,0,0
1772030233.217397,1772030233.1647449,-194.3359375,-972.65625,239.74609375,-110.3515625,0.0,0,0
1772030233.2174459,1772030233.1686387,-957.03125,303.22265625,639.16015625,163.0859375,0.0,0,0
1772030233.2174878,1772030233.1725328,934.5703125,-774.90234375,188.4765625,206.0546875,0.0,0,0
1772030233.217557,1772030233.176427,-345.21484375,151.85546875,-592.7734375,-81.0546875,0.0,0,0
1772030233.2176042,1772030233.1803207,-1000.0,-1000.0,-677.24609375,-298.828125,0.0,0,0
1772030233.217671,1772030233.1842148,-192.3828125,-1000.0,194.3359375,-136.71875,0.0,0,0
1772030233.2619798,1772030233.1881917,997.0703125,148.92578125,641.11328125,141.6015625,0.0,0,0
1772030233.262128,1772030233.1920857,-953.125,-766.6015625,284.66796875,206.54296875,0.0,0,0
1772030233.262174,1772030233.1959798,-65.4296875,313.4765625,-505.37109375,-56.15234375,0.0,0,0
1772030233.262218,1772030233.1998737,-1000.0,-984.375,-744.140625,-297.36328125,0.0,0,0
1772030233.26226,1772030233.2037678,-364.2578125,-1000.0,84.9609375,-168.9453125,0.0,0,0
1772030233.262302,1772030233.2076619,919.43359375,89.84375,652.34375,127.9296875,0.0,0,0
1772030233.262344,1772030233.2115557,-898.4375,-798.33984375,375.48828125,223.6328125,0.0,0,0
1772030233.2623858,1772030233.2154498,115.72265625,560.05859375,-469.23828125,-15.13671875,0.0,0,0
1772030233.2624571,1772030233.219344,-1000.0,-774.90234375,-818.84765625,-272.4609375,0.0,0,0
1772030233.2624981,1772030233.223238,-567.87109375,-1000.0,-101.5625,-213.37890625,0.0,0,0
1772030233.2625449,1772030233.2271318,808.10546875,-232.421875,577.63671875,75.1953125,0.0,0,0
1772030233.2625868,1772030233.231026,-853.515625,-855.46875,452.1484375,231.4453125,0.0,0,0
1772030233.307592,1772030233.2350924,188.96484375,549.8046875,-403.3203125,14.16015625,0.0,0,0
1772030233.307717,1772030233.2389863,-1000.0,-847.65625,-787.59765625,-252.44140625,0.0,0,0
1772030233.307764,1772030233.2428803,-820.80078125,-1000.0,-185.05859375,-244.140625,0.0,0,0
1772030233.307808,1772030233.2467744,540.52734375,-188.4765625,545.41015625,48.33984375,0.0,0,0
1772030233.307852,1772030233.2506685,-801.7578125,-989.2578125,555.6640625,249.0234375,0.0,0,0
1772030233.307903,1772030233.2545626,153.80859375,-982.91015625,-303.7109375,65.91796875,0.0,0,0
1772030233.307945,1772030233.2584565,-1000.0,-168.9453125,-753.41796875,-217.28515625,0.0,0,0
1772030233.307987,1772030233.2623506,-1000.0,-1000.0,-320.3125,-265.13671875,0.0,0,0
1772030233.308028,1772030233.2662446,196.77734375,-267.578125,445.80078125,9.27734375,0.0,0,0
1772030233.3080802,1772030233.2701387,-762.6953125,979.00390625,624.51171875,235.3515625,0.0,0,0
1772030233.308128,1772030233.2740328,210.9375,-938.4765625,-235.3515625,85.9375,0.0,0,0
1772030233.308177,1772030233.2779267,-1000.0,-68.359375,-775.390625,-202.63671875,0.0,0,0
1772030233.353018,1772030233.2819793,-1000.0,-1000.0,-401.3671875,-293.45703125,0.0,0,0
1772030233.353122,1772030233.2858734,-21.484375,-324.70703125,421.38671875,-35.64453125,0.0,0,0
1772030233.353188,1772030233.2897675,-783.69140625,941.40625,676.7578125,238.28125,0.0,0,0
1772030233.353249,1772030233.2936616,406.25,-900.87890625,-98.14453125,147.4609375,0.0,0,0
1772030233.353308,1772030233.2975557,-911.62109375,89.35546875,-709.47265625,-159.66796875,0.0,0,0
1772030233.353366,1772030233.3014498,-1000.0,-1000.0,-463.8671875,-283.69140625,0.0,0,0
1772030233.353421,1772030233.3053436,-200.68359375,-342.7734375,372.55859375,-39.55078125,0.0,0,0
1772030233.353484,1772030233.3092377,-862.3046875,945.80078125,683.59375,215.33203125,0.0,0,0
1772030233.353545,1772030233.3131318,632.32421875,-903.80859375,8.7890625,173.33984375,0.0,0,0
1772030233.353604,1772030233.317026,-756.8359375,132.32421875,-679.6875,-129.39453125,0.0,0,0
1772030233.3536608,1772030233.32092,-1000.0,-1000.0,-565.91796875,-300.29296875,0.0,0,0
1772030233.353715,1772030233.324814,-204.1015625,-799.8046875,294.43359375,-79.58984375,0.0,0,0
1772030233.3989818,1772030233.328856,-940.91796875,550.29296875,688.96484375,186.03515625,0.0,0,0
1772030233.399112,1772030233.33275,881.8359375,-801.26953125,171.38671875,196.2890625,0.0,0,0
1772030233.3991702,1772030233.3366442,-437.01171875,155.76171875,-608.3984375,-80.56640625,0.0,0,0
1772030233.3992288,1772030233.3405383,-1000.0,-1000.0,-669.43359375,-276.3671875,0.0,0,0
1772030233.399284,1772030233.3444324,-174.8046875,-1000.0,197.75390625,-105.95703125,0.0,0,0
1772030233.399341,1772030233.3483264,-991.69921875,213.37890625,666.9921875,156.73828125,0.0,0,0
1772030233.3993988,1772030233.3522205,-967.28515625,-764.16015625,258.7890625,210.44921875,0.0,0,0
1772030233.399457,1772030233.3561146,-118.65234375,140.625,-555.17578125,-52.734375,0.0,0,0
1772030233.3995168,1772030233.3600087,-1000.0,-1000.0,-735.3515625,-291.015625,0.0,0,0
1772030233.399571,1772030233.3639028,-319.3359375,-1000.0,93.26171875,-161.1328125,0.0,0,0
1772030233.399627,1772030233.367797,939.94140625,-24.90234375,641.11328125,120.60546875,0.0,0,0
1772030233.3996868,1772030233.371691,-910.15625,-776.85546875,355.95703125,219.7265625,0.0,0,0
1772030233.4422872,1772030233.375719,75.1953125,352.5390625,-482.91015625,-20.5078125,0.0,0,0
1772030233.442395,1772030233.3796132,-1000.0,-935.05859375,-771.97265625,-281.73828125,0.0,0,0
1772030233.442441,1772030233.3835073,-513.671875,-1000.0,-22.4609375,-205.078125,0.0,0,0
1772030233.442484,1772030233.3874016,844.23828125,-229.4921875,623.53515625,81.54296875,0.0,0,0
1772030233.442527,1772030233.3912957,-863.76953125,-891.6015625,462.40234375,229.98046875,0.0,0,0
1772030233.44257,1772030233.3951898,195.80078125,728.02734375,-407.2265625,6.8359375,0.0,0,0
1772030233.442612,1772030233.3990839,-1000.0,-648.4375,-772.94921875,-271.97265625,0.0,0,0
1772030233.44289,1772030233.402978,-780.76171875,-1000.0,-187.01171875,-245.1171875,0.0,0,0
1772030233.442934,1772030233.406872,594.23828125,-237.3046875,512.20703125,43.45703125,0.0,0,0
1772030233.442976,1772030233.4107661,-811.03515625,-866.69921875,526.85546875,230.95703125,0.0,0,0
1772030233.443018,1772030233.4146605,160.64453125,584.47265625,-351.5625,48.828125,0.0,0,0
1772030233.443059,1772030233.4185545,-1000.0,-792.48046875,-787.109375,-231.4453125,0.0,0,0
1772030233.5179698,1772030233.4227607,-988.28125,-1000.0,-293.9453125,-266.6015625,0.0,0,0
1772030233.518094,1772030233.426655,270.99609375,-450.68359375,487.3046875,10.7421875,0.0,0,0
1772030233.5181382,1772030233.4305491,-769.04296875,923.33984375,627.9296875,230.46875,0.0,0,0
1772030233.518181,1772030233.4344435,181.640625,-991.69921875,-237.79296875,69.82421875,0.0,0,0
1772030233.5182238,1772030233.4383376,-1000.0,-295.41015625,-758.30078125,-223.6328125,0.0,0,0
1772030233.518265,1772030233.4422317,-1000.0,-1000.0,-380.859375,-293.45703125,0.0,0,0
1772030233.518306,1772030233.446126,17.08984375,-345.21484375,445.80078125,-32.2265625,0.0,0,0
1772030233.518347,1772030233.45002,-774.90234375,976.5625,639.6484375,205.078125,0.0,0,0
1772030233.5183868,1772030233.4539142,356.4453125,-1000.0,-169.921875,95.703125,0.0,0,0
1772030233.5184278,1772030233.4578085,-937.5,-266.6015625,-733.88671875,-191.89453125,0.0,0,0
1772030233.518469,1772030233.4617026,-1000.0,-1000.0,-488.76953125,-297.8515625,0.0,0,0
1772030233.518508,1772030233.465597,-166.50390625,-700.68359375,348.6328125,-51.26953125,0.0,0,0
1772030233.532931,1772030233.4696062,-837.890625,628.90625,682.6171875,203.125,0.0,0,0
1772030233.5330381,1772030233.4735003,566.40625,-830.078125,-13.18359375,145.01953125,0.0,0,0
1772030233.5331042,1772030233.4773946,-815.91796875,10.25390625,-695.3125,-163.0859375,0.0,0,0
1772030233.5331662,1772030233.4812887,-1000.0,-1000.0,-565.4296875,-320.80078125,0.0,0,0
1772030233.533212,1772030233.485183,-214.35546875,-908.203125,287.59765625,-103.515625,0.0,0,0
1772030233.5332549,1772030233.489077,-920.8984375,366.69921875,697.75390625,172.36328125,0.0,0,0
1772030233.533298,1772030233.4929714,812.98828125,-775.390625,151.3671875,165.0390625,0.0,0,0
1772030233.5333388,1772030233.4968655,-539.0625,143.5546875,-649.4140625,-132.32421875,0.0,0,0
1772030233.533383,1772030233.5007598,-1000.0,-1000.0,-676.7578125,-325.68359375,0.0,0,0
1772030233.533431,1772030233.504654,-181.15234375,-1000.0,232.91015625,-156.73828125,0.0,0,0
1772030233.533476,1772030233.5085483,-981.4453125,65.91796875,671.38671875,128.90625,0.0,0,0
1772030233.5335228,1772030233.5124424,-994.140625,-767.08984375,226.07421875,173.828125,0.0,0,0
1772030233.592915,1772030233.5165327,-197.75390625,103.02734375,-569.3359375,-114.2578125,0.0,0,0
1772030233.5930061,1772030233.520427,-1000.0,-1000.0,-717.28515625,-346.19140625,0.0,0,0
1772030233.5930471,1772030233.524321,-274.90234375,-1000.0,139.16015625,-203.125,0.0,0,0
1772030233.593089,1772030233.5282154,960.44921875,-257.8125,643.06640625,93.26171875,0.0,0,0
1772030233.593133,1772030233.5321097,-924.8046875,-823.73046875,354.4921875,187.98828125,0.0,0,0
1772030233.593175,1772030233.5360038,20.99609375,192.87109375,-446.2890625,-68.84765625,0.0,0,0
1772030233.5932171,1772030233.5398982,-1000.0,-1000.0,-750.48828125,-309.08203125,0.0,0,0
1772030233.593257,1772030233.5437922,-451.66015625,-1000.0,20.99609375,-218.26171875,0.0,0,0
1772030233.593297,1772030233.5476866,875.48828125,-256.34765625,644.04296875,70.3125,0.0,0,0
1772030233.593339,1772030233.551581,-877.44140625,-824.21875,442.87109375,222.16796875,0.0,0,0
1772030233.593389,1772030233.555475,183.59375,227.5390625,-387.20703125,4.39453125,0.0,0,0
1772030233.59343,1772030233.5593693,-1000.0,-1000.0,-724.609375,-263.18359375,0.0,0,0
1772030233.6375659,1772030233.5633643,-678.7109375,-1000.0,-50.29296875,-231.93359375,0.0,0,0
1772030233.637662,1772030233.5672586,712.890625,-260.25390625,627.9296875,60.546875,0.0,0,0
1772030233.637708,1772030233.571153,-832.51953125,-850.5859375,541.50390625,236.81640625,0.0,0,0
1772030233.637753,1772030233.575047,172.36328125,560.05859375,-306.640625,37.109375,0.0,0,0
1772030233.6377962,1772030233.5789413,-1000.0,-836.42578125,-713.8671875,-234.375,0.0,0,0
1772030233.6378381,1772030233.5828357,-922.36328125,-1000.0,-172.36328125,-250.0,0.0,0,0
1772030233.6378791,1772030233.58673,390.13671875,-213.8671875,599.12109375,48.828125,0.0,0,0
1772030233.63792,1772030233.590624,-781.25,-923.33984375,639.16015625,262.20703125,0.0,0,0
1772030233.637961,1772030233.5945184,144.53125,818.359375,-248.53515625,77.1484375,0.0,0,0
1772030233.638022,1772030233.5984128,-1000.0,-514.16015625,-697.265625,-206.54296875,0.0,0,0
1772030233.6380851,1772030233.6023068,-1000.0,-1000.0,-295.8984375,-260.25390625,0.0,0,0
1772030233.638135,1772030233.6062012,76.171875,-272.94921875,483.3984375,2.9296875,0.0,0,0
1772030233.683347,1772030233.6102636,-764.6484375,939.453125,710.9375,244.140625,0.0,0,0
1772030233.6835089,1772030233.614158,307.6171875,-901.3671875,-100.09765625,132.32421875,0.0,0,0
1772030233.683573,1772030233.618052,-961.9140625,89.35546875,-668.45703125,-169.43359375,0.0,0,0
1772030233.6836321,1772030233.6219463,-1000.0,-1000.0,-376.953125,-270.99609375,0.0,0,0
1772030233.683688,1772030233.6258407,-111.328125,-234.375,448.2421875,-5.859375,0.0,0,0
1772030233.683745,1772030233.629735,-811.5234375,980.46875,763.671875,266.6015625,0.0,0,0
1772030233.6838028,1772030233.6336293,499.0234375,-909.66796875,6.34765625,200.68359375,0.0,0,0
1772030233.683861,1772030233.6375234,-865.234375,230.46875,-642.08984375,-94.7265625,0.0,0,0
1772030233.683918,1772030233.6414177,-1000.0,-1000.0,-477.5390625,-237.79296875,0.0,0,0
1772030233.6839721,1772030233.645312,-222.16796875,-360.83984375,368.65234375,-20.01953125,0.0,0,0
1772030233.6840289,1772030233.6492064,-908.203125,944.3359375,750.9765625,248.046875,0.0,0,0
1772030233.684084,1772030233.6531007,770.5078125,-895.99609375,139.16015625,234.86328125,0.0,0,0
1772030233.728134,1772030233.6571503,-598.6328125,268.5546875,-593.26171875,-67.3828125,0.0,0,0
1772030233.728249,1772030233.6610446,-1000.0,-1000.0,-552.24609375,-252.44140625,0.0,0,0
1772030233.728308,1772030233.6649387,-185.546875,-441.89453125,354.4921875,-34.66796875,0.0,0,0
1772030233.728338,1772030233.668833,-975.09765625,944.82421875,783.203125,249.51171875,0.0,0,0
1772030233.728365,1772030233.6727273,988.28125,974.12109375,317.87109375,273.4375,0.0,0,0
1772030233.728394,1772030233.6766217,-246.09375,-966.30859375,-472.65625,12.6953125,0.0,0,0
1772030233.728422,1772030233.680516,-1000.0,-385.25390625,-623.53515625,-207.51953125,0.0,0,0
1772030233.728449,1772030233.6844103,-209.47265625,-507.8125,257.32421875,-55.6640625,0.0,0,0
1772030233.728477,1772030233.6883047,988.28125,-961.42578125,748.53515625,234.86328125,0.0,0,0
1772030233.7285042,1772030233.692199,-942.3828125,912.59765625,385.7421875,305.6640625,0.0,0,0
1772030233.728532,1772030233.6960933,-18.5546875,-874.0234375,-437.01171875,49.31640625,0.0,0,0
1772030233.728559,1772030233.6999876,-1000.0,8.7890625,-708.0078125,-205.56640625,0.0,0,0
1772030233.815787,1772030233.7040243,-412.109375,-806.15234375,82.51953125,-121.09375,0.0,0,0
1772030233.815843,1772030233.7079186,895.01953125,739.74609375,669.921875,164.0625,0.0,0,0
1772030233.815861,1772030233.711813,-885.25390625,-974.12109375,434.08203125,274.4140625,0.0,0,0
1772030233.8158772,1772030233.7157073,161.62109375,-945.3125,-444.3359375,35.15625,0.0,0,0
1772030233.815892,1772030233.7196019,-1000.0,-138.18359375,-808.10546875,-232.91015625,0.0,0,0
1772030233.815907,1772030233.7234962,-619.62890625,-1000.0,-81.0546875,-195.3125,0.0,0,0
1772030233.815922,1772030233.7273905,768.06640625,543.9453125,596.6796875,98.14453125,0.0,0,0
1772030233.815937,1772030233.7312849,-844.23828125,-938.96484375,470.21484375,259.765625,0.0,0,0
1772030233.8159518,1772030233.7351792,180.6640625,999.0234375,-411.62109375,45.8984375,0.0,0,0
1772030233.815967,1772030233.7390735,-1000.0,-88.37890625,-793.9453125,-230.46875,0.0,0,0
1772030233.8159811,1772030233.7429678,-875.0,-1000.0,-236.81640625,-223.14453125,0.0,0,0
1772030233.816063,1772030233.7468622,461.9140625,-32.2265625,525.390625,73.2421875,0.0,0,0
1772030233.816948,1772030233.7508967,-790.52734375,-974.609375,590.8203125,274.90234375,0.0,0,0
1772030233.816971,1772030233.754791,148.92578125,-934.5703125,-328.61328125,103.515625,0.0,0,0
1772030233.816986,1772030233.7586854,-1000.0,134.765625,-816.40625,-192.3828125,0.0,0,0
1772030233.8170009,1772030233.7625797,-1000.0,-1000.0,-375.48828125,-252.9296875,0.0,0,0
1772030233.8170161,1772030233.7664742,132.8125,-188.96484375,453.125,30.76171875,0.0,0,0
1772030233.8170319,1772030233.7703686,-763.18359375,-998.046875,670.41015625,273.92578125,0.0,0,0
1772030233.817048,1772030233.774263,267.08984375,-912.59765625,-191.40625,135.25390625,0.0,0,0
1772030233.817069,1772030233.7781572,-982.91015625,200.1953125,-791.9921875,-157.71484375,0.0,0,0
1772030233.817085,1772030233.7820516,-1000.0,-1000.0,-467.28515625,-254.8828125,0.0,0,0
1772030233.817133,1772030233.785946,-53.22265625,-197.75390625,426.7578125,-8.30078125,0.0,0,0
1772030233.817166,1772030233.7898402,-793.9453125,-994.62890625,708.0078125,240.72265625,0.0,0,0
1772030233.817183,1772030233.7937346,443.84765625,-924.8046875,-106.4453125,154.296875,0.0,0,0
1772030233.862556,1772030233.7977455,-892.08984375,237.3046875,-766.6015625,-145.01953125,0.0,0,0
1772030233.862582,1772030233.8016398,-1000.0,-1000.0,-559.08203125,-288.57421875,0.0,0,0
1772030233.862599,1772030233.8055341,-215.8203125,-473.6328125,350.09765625,-57.6171875,0.0,0,0
1772030233.862616,1772030233.8094287,-882.8125,891.6015625,736.81640625,230.95703125,0.0,0,0
1772030233.862634,1772030233.813323,690.91796875,-878.90625,57.12890625,201.171875,0.0,0,0
1772030233.8626502,1772030233.8172174,-693.84765625,204.1015625,-689.453125,-113.76953125,0.0,0,0
1772030233.86269,1772030233.8211117,-1000.0,-1000.0,-644.04296875,-308.59375,0.0,0,0
1772030233.862717,1772030233.8250062,-197.265625,-736.328125,273.92578125,-95.21484375,0.0,0,0
1772030233.862735,1772030233.8289006,-952.63671875,645.5078125,714.84375,187.5,0.0,0,0
1772030233.862753,1772030233.832795,919.921875,-821.2890625,196.77734375,212.40234375,0.0,0,0
1772030233.8627892,1772030233.8366892,-373.53515625,184.5703125,-617.67578125,-67.87109375,0.0,0,0
1772030233.862827,1772030233.8405836,-1000.0,-1000.0,-712.40234375,-299.31640625,0.0,0,0
1772030233.906775,1772030233.8445828,-177.24609375,-898.92578125,232.421875,-134.765625,0.0,0,0
1772030233.906809,1772030233.8484771,-993.65234375,397.4609375,739.74609375,159.1796875,0.0,0,0
1772030233.906834,1772030233.8523715,-961.9140625,-812.98828125,340.8203125,233.88671875,0.0,0,0
1772030233.906857,1772030233.856266,-97.65625,559.5703125,-525.87890625,-18.5546875,0.0,0,0
1772030233.906881,1772030233.8601604,-1000.0,-890.625,-800.29296875,-258.30078125,0.0,0,0
1772030233.906904,1772030233.8640547,-338.37890625,-978.515625,105.95703125,-162.59765625,0.0,0,0
1772030233.906927,1772030233.867949,931.15234375,415.0390625,761.23046875,113.76953125,0.0,0,0
1772030233.906954,1772030233.8718436,-904.78515625,-799.8046875,414.55078125,237.3046875,0.0,0,0
1772030233.9069812,1772030233.875738,94.7265625,454.1015625,-489.2578125,-7.32421875,0.0,0,0
1772030233.907006,1772030233.8796322,-1000.0,-883.7890625,-816.89453125,-289.55078125,0.0,0,0
1772030233.907079,1772030233.8835268,-533.69140625,-1000.0,-32.2265625,-220.703125,0.0,0,0
1772030233.907116,1772030233.8874211,834.47265625,30.76171875,701.66015625,81.0546875,0.0,0,0
1772030233.952587,1772030233.89141,-859.86328125,-852.5390625,502.44140625,224.609375,0.0,0,0
1772030233.9526541,1772030233.8953044,192.3828125,735.3515625,-437.01171875,8.7890625,0.0,0,0
1772030233.952687,1772030233.8991988,-1000.0,-588.37890625,-817.87109375,-258.30078125,0.0,0,0
1772030233.952715,1772030233.9030933,-799.8046875,-1000.0,-190.91796875,-253.90625,0.0,0,0
1772030233.952747,1772030233.9069877,568.84765625,-156.73828125,600.5859375,46.38671875,0.0,0,0
1772030233.952776,1772030233.910882,-806.640625,-970.703125,611.81640625,249.0234375,0.0,0,0
1772030233.952804,1772030233.9147766,156.25,996.58203125,-362.79296875,49.31640625,0.0,0,0
1772030233.952832,1772030233.918671,-1000.0,-229.4921875,-839.84375,-242.1875,0.0,0,0
1772030233.9528582,1772030233.9225652,-1000.0,-1000.0,-356.4453125,-291.015625,0.0,0,0
1772030233.9529102,1772030233.9264598,222.65625,-176.26953125,518.06640625,1.46484375,0.0,0,0
1772030233.95295,1772030233.930354,-765.13671875,-986.328125,679.6875,240.72265625,0.0,0,0
1772030233.952978,1772030233.9342487,200.1953125,-956.54296875,-295.41015625,78.125,0.0,0,0
1772030234.013275,1772030233.938226,-1000.0,-107.421875,-851.5625,-218.26171875,0.0,0,0
1772030234.013421,1772030233.9421206,-1000.0,-1000.0,-467.28515625,-299.31640625,0.0,0,0
1772030234.013487,1772030233.946015,-6.34765625,-200.68359375,454.58984375,-39.55078125,0.0,0,0
1772030234.013547,1772030233.9499094,-779.78515625,974.609375,720.703125,214.84375,0.0,0,0
1772030234.013607,1772030233.9538038,392.08984375,-918.45703125,-172.8515625,115.72265625,0.0,0,0
1772030234.0136662,1772030233.957698,-918.45703125,195.80078125,-829.58984375,-203.125,0.0,0,0
1772030234.013723,1772030233.9615927,-1000.0,-1000.0,-571.77734375,-331.54296875,0.0,0,0
1772030234.0137768,1772030233.965487,-194.3359375,-549.8046875,369.140625,-83.49609375,0.0,0,0
1772030234.013835,1772030233.9693816,-854.98046875,839.35546875,744.140625,182.12890625,0.0,0,0
1772030234.013879,1772030233.973276,612.3046875,-859.86328125,3.41796875,137.6953125,0.0,0,0
1772030234.013921,1772030233.9771705,-777.34375,188.96484375,-767.08984375,-165.52734375,0.0,0,0
1772030234.0139809,1772030233.9810648,-1000.0,-1000.0,-661.1328125,-330.078125,0.0,0,0
1772030234.05794,1772030233.9851255,-206.54296875,-839.35546875,317.3828125,-109.86328125,0.0,0,0
1772030234.058083,1772030233.9890199,-936.03515625,514.16015625,753.41796875,170.41015625,0.0,0,0
1772030234.058132,1772030233.9929144,865.234375,-804.6875,153.80859375,179.19921875,0.0,0,0
1772030234.0582101,1772030233.9968088,-463.37890625,184.5703125,-689.453125,-127.9296875,0.0,0,0
1772030234.0582771,1772030234.0007033,-1000.0,-1000.0,-753.90625,-343.26171875,0.0,0,0
1772030234.058325,1772030234.004598,-176.7578125,-767.578125,263.671875,-137.6953125,0.0,0,0
1772030234.058371,1772030234.0084922,-987.79296875,604.00390625,757.32421875,157.2265625,0.0,0,0
1772030234.0584152,1772030234.0123868,-975.5859375,-807.12890625,258.7890625,202.63671875,0.0,0,0
1772030234.05846,1772030234.0162811,-146.97265625,184.5703125,-582.51953125,-81.0546875,0.0,0,0
1772030234.058503,1772030234.0201757,-1000.0,-1000.0,-809.5703125,-329.1015625,0.0,0,0
1772030234.0585449,1772030234.02407,-296.38671875,-1000.0,121.09375,-191.40625,0.0,0,0
1772030234.0585868,1772030234.0279646,951.171875,57.6171875,748.046875,96.6796875,0.0,0,0
1772030234.118805,1772030234.0321045,-917.48046875,-771.97265625,382.8125,199.21875,0.0,0,0
1772030234.1189382,1772030234.035999,50.29296875,392.08984375,-517.578125,-53.7109375,0.0,0,0
1772030234.118987,1772030234.0398936,-1000.0,-921.875,-834.47265625,-319.3359375,0.0,0,0
1772030234.1190321,1772030234.043788,-489.2578125,-1000.0,-28.80859375,-232.91015625,0.0,0,0
1772030234.119081,1772030234.0476825,855.46875,-100.09765625,710.44921875,66.89453125,0.0,0,0
1772030234.119124,1772030234.051577,-868.65234375,-855.95703125,494.62890625,209.9609375,0.0,0,0
1772030234.119166,1772030234.0554717,194.3359375,689.453125,-438.4765625,-17.578125,0.0,0,0
1772030234.1192079,1772030234.059366,-1000.0,-666.9921875,-857.91015625,-301.26953125,0.0,0,0
1772030234.1192489,1772030234.0632606,-738.28125,-1000.0,-219.7265625,-265.13671875,0.0,0,0
1772030234.119305,1772030234.0671551,645.5078125,-225.5859375,629.39453125,39.0625,0.0,0,0
1772030234.1193469,1772030234.0710497,-820.80078125,-865.234375,578.125,210.9375,0.0,0,0
1772030234.11939,1772030234.074944,167.48046875,602.5390625,-417.96875,0.0,0.0,0,0
1772030234.1476321,1772030234.0789816,-1000.0,-794.921875,-854.00390625,-284.66796875,0.0,0,0
1772030234.147739,1772030234.0828762,-947.75390625,-1000.0,-312.98828125,-305.17578125,0.0,0,0
1772030234.147785,1772030234.0867708,346.19140625,-201.171875,568.84765625,-22.4609375,0.0,0,0
1772030234.147985,1772030234.0906653,-775.87890625,-952.1484375,675.29296875,204.58984375,0.0,0,0
1772030234.148032,1772030234.0945597,157.71484375,911.1328125,-337.40234375,43.45703125,0.0,0,0
1772030234.148074,1772030234.0984542,-1000.0,-367.67578125,-856.93359375,-229.00390625,0.0,0,0
1772030234.148119,1772030234.1023488,-1000.0,-1000.0,-453.125,-287.59765625,0.0,0,0
1772030234.14816,1772030234.1062434,43.45703125,-326.171875,449.70703125,-26.3671875,0.0,0,0
1772030234.148201,1772030234.110138,-769.53125,958.0078125,745.1171875,196.77734375,0.0,0,0
1772030234.148242,1772030234.1140325,331.0546875,-955.078125,-181.15234375,54.19921875,0.0,0,0
1772030234.1482828,1772030234.1179268,-949.70703125,-138.671875,-835.9375,-232.91015625,0.0,0,0
1772030234.1483269,1772030234.1218214,-1000.0,-1000.0,-540.0390625,-327.63671875,0.0,0,0
1772030234.19265,1772030234.1258407,-145.01953125,-520.01953125,386.23046875,-96.6796875,0.0,0,0
1772030234.1927848,1772030234.1297352,-821.77734375,829.58984375,750.9765625,159.66796875,0.0,0,0
1772030234.192852,1772030234.1336298,517.08984375,-868.1640625,-38.57421875,105.95703125,0.0,0,0
1772030234.1929119,1772030234.1375244,-858.3984375,76.66015625,-789.0625,-205.078125,0.0,0,0
1772030234.19297,1772030234.141419,-1000.0,-1000.0,-644.04296875,-357.91015625,0.0,0,0
1772030234.193025,1772030234.1453135,-220.21484375,-613.28125,329.1015625,-137.20703125,0.0,0,0
1772030234.193082,1772030234.149208,-911.1328125,757.8125,780.2734375,144.04296875,0.0,0,0
1772030234.193138,1772030234.1531026,779.296875,-836.9140625,111.328125,149.90234375,0.0,0,0
1772030234.193196,1772030234.1569972,-586.9140625,164.55078125,-729.00390625,-141.11328125,0.0,0,0
1772030234.193252,1772030234.1608918,-1000.0,-1000.0,-730.95703125,-341.796875,0.0,0,0
1772030234.1933062,1772030234.1647863,-184.5703125,-1000.0,259.27734375,-158.203125,0.0,0,0
1772030234.1933608,1772030234.168681,-976.5625,242.67578125,750.48828125,115.72265625,0.0,0,0
1772030234.237061,1772030234.17269,992.1875,-770.5078125,233.88671875,155.2734375,0.0,0,0
1772030234.237279,1772030234.1765845,-234.375,155.76171875,-608.88671875,-116.2109375,0.0,0,0
1772030234.2373471,1772030234.180479,-1000.0,-1000.0,-760.25390625,-338.37890625,0.0,0,0
1772030234.237407,1772030234.1843736,-240.234375,-1000.0,188.4765625,-192.87109375,0.0,0,0
1772030234.237466,1772030234.1882682,976.07421875,190.91796875,744.140625,88.8671875,0.0,0,0
1772030234.237525,1772030234.1921628,-935.05859375,-759.765625,355.46875,185.05859375,0.0,0,0
1772030234.2375832,1772030234.1960573,-6.8359375,205.078125,-522.4609375,-70.3125,0.0,0,0
1772030234.2376251,1772030234.199952,-1000.0,-983.88671875,-819.3359375,-333.0078125,0.0,0,0
1772030234.237667,1772030234.2038465,-432.12890625,-1000.0,5.37109375,-235.3515625,0.0,0,0
1772030234.23771,1772030234.207741,884.27734375,-213.8671875,723.6328125,72.265625,0.0,0,0
1772030234.23776,1772030234.2116356,-881.34765625,-815.91796875,484.86328125,203.125,0.0,0,0
1772030234.2378109,1772030234.2155302,172.36328125,310.546875,-473.6328125,-29.296875,0.0,0,0
1772030234.282379,1772030234.2195277,-1000.0,-979.4921875,-834.9609375,-283.69140625,0.0,0,0
1772030234.2825222,1772030234.2234223,-656.25,-1000.0,-122.0703125,-245.1171875,0.0,0,0
1772030234.2825868,1772030234.2273169,733.88671875,-254.8828125,672.8515625,37.59765625,0.0,0,0
1772030234.282651,1772030234.2312114,-836.9140625,-843.26171875,597.65625,217.28515625,0.0,0,0
1772030234.282773,1772030234.2351062,174.8046875,505.859375,-389.6484375,6.8359375,0.0,0,0
1772030234.282832,1772030234.2390008,-1000.0,-883.7890625,-802.24609375,-274.4140625,0.0,0,0
1772030234.282876,1772030234.2428954,-909.66796875,-1000.0,-227.5390625,-278.3203125,0.0,0,0
1772030234.282917,1772030234.24679,410.64453125,-232.421875,586.42578125,1.46484375,0.0,0,0
1772030234.282963,1772030234.2506845,-783.69140625,-877.9296875,651.85546875,208.984375,0.0,0,0
1772030234.2830238,1772030234.254579,145.99609375,655.2734375,-338.8671875,44.921875,0.0,0,0
1772030234.283072,1772030234.2584736,-1000.0,-733.3984375,-816.40625,-240.234375,0.0,0,0
1772030234.283113,1772030234.2623682,-1000.0,-1000.0,-373.046875,-300.78125,0.0,0,0
1772030234.326865,1772030234.2663534,96.19140625,-260.7421875,501.953125,-31.25,0.0,0,0
1772030234.3269892,1772030234.270248,-762.6953125,-975.5859375,723.6328125,195.3125,0.0,0,0
1772030234.327041,1772030234.2741425,287.59765625,924.31640625,-207.51953125,68.84765625,0.0,0,0
1772030234.3270872,1772030234.278037,-970.703125,-359.86328125,-818.359375,-204.58984375,0.0,0,0
1772030234.32713,1772030234.2819319,-1000.0,-1000.0,-495.60546875,-306.15234375,0.0,0,0
1772030234.327171,1772030234.2858264,-99.609375,-409.1796875,423.828125,-62.5,0.0,0,0
1772030234.327212,1772030234.289721,-806.15234375,902.83203125,745.60546875,193.359375,0.0,0,0
1772030234.327254,1772030234.2936156,479.4921875,-913.57421875,-83.49609375,102.05078125,0.0,0,0
1772030234.3273,1772030234.2975101,-875.48828125,-70.80078125,-790.52734375,-195.80078125,0.0,0,0
1772030234.327342,1772030234.3014047,-1000.0,-1000.0,-586.42578125,-320.3125,0.0,0,0
1772030234.327381,1772030234.3052993,-226.5625,-755.859375,361.81640625,-99.609375,0.0,0,0
1772030234.327422,1772030234.3091938,-898.4375,578.125,763.671875,169.921875,0.0,0,0
1772030234.41633,1772030234.3131676,734.375,-815.4296875,85.9375,151.3671875,0.0,0,0
1772030234.416484,1772030234.3170621,-644.53125,74.70703125,-700.1953125,-145.01953125,0.0,0,0
1772030234.4165492,1772030234.3209567,-1000.0,-1000.0,-654.78515625,-319.82421875,0.0,0,0
1772030234.416609,1772030234.3248515,-190.4296875,-881.34765625,308.10546875,-119.140625,0.0,0,0
1772030234.416665,1772030234.328746,-965.8203125,424.8046875,760.7421875,150.390625,0.0,0,0
1772030234.416707,1772030234.3326406,958.984375,-780.2734375,252.44140625,177.24609375,0.0,0,0
1772030234.4167502,1772030234.3365352,-300.78125,136.71875,-580.56640625,-91.796875,0.0,0,0
1772030234.4167922,1772030234.3404298,-1000.0,-1000.0,-739.74609375,-293.9453125,0.0,0,0
1772030234.416833,1772030234.3443246,-202.1484375,-1000.0,201.171875,-137.6953125,0.0,0,0
1772030234.416874,1772030234.3482192,993.1640625,-24.90234375,747.55859375,140.13671875,0.0,0,0
1772030234.416916,1772030234.3521137,-948.73046875,-775.390625,351.07421875,208.49609375,0.0,0,0
1772030234.4169579,1772030234.3560083,-48.828125,144.04296875,-522.4609375,-54.19921875,0.0,0,0
1772030234.431375,1772030234.3599858,-1000.0,-1000.0,-770.5078125,-283.203125,0.0,0,0
1772030234.4314618,1772030234.3638806,-392.08984375,-1000.0,72.75390625,-174.31640625,0.0,0,0
1772030234.431519,1772030234.3677752,905.76171875,-247.0703125,685.05859375,111.328125,0.0,0,0
1772030234.431576,1772030234.3716698,-892.08984375,-821.2890625,456.0546875,231.93359375,0.0,0,0
1772030234.431634,1772030234.3755646,127.44140625,330.56640625,-440.91796875,-6.8359375,0.0,0,0
1772030234.431691,1772030234.3794591,-1000.0,-974.609375,-792.96875,-268.5546875,0.0,0,0
1772030234.431746,1772030234.3833537,-592.7734375,-1000.0,-49.8046875,-218.26171875,0.0,0,0
1772030234.4318101,1772030234.3872483,787.59765625,-253.41796875,632.8125,61.5234375,0.0,0,0
1772030234.431883,1772030234.391143,-849.609375,-842.7734375,515.625,208.0078125,0.0,0,0
1772030234.4319491,1772030234.3950377,186.03515625,498.046875,-377.9296875,0.48828125,0.0,0,0
1772030234.43202,1772030234.3989322,-1000.0,-888.671875,-811.5234375,-261.23046875,0.0,0,0
1772030234.432093,1772030234.4028268,-833.0078125,-1000.0,-213.8671875,-262.20703125,0.0,0,0
1772030234.476796,1772030234.4068682,522.94921875,-205.56640625,586.9140625,20.01953125,0.0,0,0
1772030234.476934,1772030234.410763,-799.31640625,-956.54296875,606.93359375,211.42578125,0.0,0,0
1772030234.4769979,1772030234.4146576,153.3203125,933.10546875,-314.94140625,48.828125,0.0,0,0
1772030234.477058,1772030234.4185522,-1000.0,-349.609375,-774.4140625,-202.1484375,0.0,0,0
1772030234.477115,1772030234.422447,-1000.0,-1000.0,-325.1953125,-251.46484375,0.0,0,0
1772030234.477181,1772030234.4263415,187.5,-202.63671875,500.9765625,9.27734375,0.0,0,0
1772030234.477241,1772030234.430236,-762.20703125,-963.8671875,658.203125,220.703125,0.0,0,0
1772030234.477529,1772030234.434131,226.07421875,955.078125,-260.7421875,76.171875,0.0,0,0
1772030234.477592,1772030234.4380255,-998.53515625,-281.73828125,-799.8046875,-191.89453125,0.0,0,0
1772030234.477652,1772030234.4419203,-1000.0,-1000.0,-444.82421875,-280.2734375,0.0,0,0
1772030234.477706,1772030234.4458148,-34.66796875,-479.00390625,397.4609375,-41.9921875,0.0,0,0
1772030234.477762,1772030234.4497094,-787.109375,862.3046875,704.1015625,209.47265625,0.0,0,0
1772030234.52185,1772030234.4537396,419.43359375,-895.5078125,-85.44921875,130.37109375,0.0,0,0
1772030234.521954,1772030234.4576342,-904.78515625,-42.96875,-742.1875,-163.0859375,0.0,0,0
1772030234.5219998,1772030234.461529,-1000.0,-1000.0,-520.99609375,-282.2265625,0.0,0,0
1772030234.522042,1772030234.4654236,-210.9375,-637.6953125,344.23828125,-62.98828125,0.0,0,0
1772030234.5220852,1772030234.4693184,-869.140625,710.9375,725.5859375,189.453125,0.0,0,0
1772030234.5221272,1772030234.473213,649.4140625,-829.58984375,73.2421875,162.59765625,0.0,0,0
1772030234.522169,1772030234.4771078,-741.2109375,172.8515625,-688.4765625,-120.1171875,0.0,0,0
1772030234.522211,1772030234.4810023,-1000.0,-1000.0,-640.625,-273.92578125,0.0,0,0
1772030234.522249,1772030234.484897,-201.66015625,-929.6875,282.71484375,-87.40234375,0.0,0,0
1772030234.522291,1772030234.4887917,-944.82421875,379.8828125,727.5390625,167.48046875,0.0,0,0
1772030234.522333,1772030234.4926863,894.53125,-782.71484375,188.96484375,196.2890625,0.0,0,0
1772030234.5223749,1772030234.496581,-417.96875,158.69140625,-625.9765625,-88.37890625,0.0,0,0
1772030234.567234,1772030234.5005999,-1000.0,-1000.0,-704.58984375,-282.71484375,0.0,0,0
1772030234.5673249,1772030234.5044944,-173.828125,-991.69921875,213.37890625,-125.9765625,0.0,0,0
1772030234.567369,1772030234.5083892,-992.67578125,257.32421875,693.84765625,144.53125,0.0,0,0
1772030234.567412,1772030234.5122838,-964.84375,-768.06640625,285.15625,215.8203125,0.0,0,0
1772030234.5674539,1772030234.5161786,-107.421875,218.26171875,-550.29296875,-54.6875,0.0,0,0
1772030234.5674958,1772030234.5200732,-1000.0,-1000.0,-763.671875,-278.80859375,0.0,0,0
1772030234.567536,1772030234.523968,-330.56640625,-1000.0,104.00390625,-159.66796875,0.0,0,0
1772030234.567578,1772030234.5278625,935.05859375,64.453125,654.78515625,109.86328125,0.0,0,0
1772030234.567633,1772030234.5317574,-907.71484375,-766.11328125,340.33203125,205.56640625,0.0,0,0
1772030234.5676842,1772030234.5356522,82.03125,191.89453125,-502.44140625,-15.13671875,0.0,0,0
1772030234.567744,1772030234.5395467,-1000.0,-994.62890625,-782.2265625,-247.0703125,0.0,0,0
1772030234.567793,1772030234.5434415,-524.4140625,-1000.0,-39.55078125,-196.77734375,0.0,0,0
1772030234.61164,1772030234.547449,838.37890625,-254.8828125,612.3046875,74.70703125,0.0,0,0
1772030234.6117601,1772030234.5513437,-861.81640625,-844.7265625,472.16796875,220.21484375,0.0,0,0
1772030234.611808,1772030234.5552385,193.84765625,536.62109375,-408.203125,20.99609375,0.0,0,0
1772030234.611851,1772030234.5591333,-1000.0,-855.95703125,-801.26953125,-238.76953125,0.0,0,0
1772030234.611945,1772030234.5630279,-788.57421875,-1000.0,-193.84765625,-232.421875,0.0,0,0
1772030234.611993,1772030234.5669227,583.984375,-207.51953125,566.89453125,49.31640625,0.0,0,0
1772030234.612048,1772030234.5708172,-809.08203125,-944.82421875,548.828125,229.4921875,0.0,0,0
1772030234.612111,1772030234.574712,158.203125,896.484375,-362.79296875,44.921875,0.0,0,0
1772030234.612158,1772030234.5786068,-1000.0,-412.59765625,-782.2265625,-213.37890625,0.0,0,0
1772030234.6122,1772030234.5825014,-1000.0,-1000.0,-317.87109375,-243.65234375,0.0,0,0
1772030234.612243,1772030234.5863962,239.74609375,-195.80078125,473.14453125,17.578125,0.0,0,0
1772030234.6122859,1772030234.590291,-766.11328125,-998.046875,600.09765625,225.09765625,0.0,0,0
1772030234.656883,1772030234.5942872,189.453125,-962.890625,-278.3203125,79.1015625,0.0,0,0
1772030234.656982,1772030234.598182,-1000.0,-114.74609375,-777.34375,-187.98828125,0.0,0,0
1772030234.6570392,1772030234.6020768,-1000.0,-1000.0,-434.08203125,-252.44140625,0.0,0,0
1772030234.657096,1772030234.6059713,4.39453125,-335.9375,411.1328125,8.7890625,0.0,0,0
1772030234.657152,1772030234.6098661,-777.34375,924.31640625,660.64453125,228.02734375,0.0,0,0
1772030234.65721,1772030234.613761,380.859375,-898.4375,-145.01953125,113.28125,0.0,0,0
1772030234.657276,1772030234.6176555,-925.29296875,150.87890625,-730.95703125,-154.296875,0.0,0,0
1772030234.657334,1772030234.6215503,-1000.0,-1000.0,-510.25390625,-271.484375,0.0,0,0
1772030234.6573892,1772030234.6254451,-176.26953125,-547.36328125,330.078125,-52.24609375,0.0,0,0
1772030234.657446,1772030234.6293397,-847.65625,840.33203125,702.63671875,202.1484375,0.0,0,0
1772030234.657505,1772030234.6332345,598.14453125,-862.79296875,5.859375,159.66796875,0.0,0,0
1772030234.657568,1772030234.6371293,-788.0859375,150.390625,-701.66015625,-125.48828125,0.0,0,0
1772030234.716954,1772030234.6412115,-1000.0,-1000.0,-595.21484375,-273.92578125,0.0,0,1
1772030234.717052,1772030234.6451063,-209.9609375,-809.08203125,279.78515625,-77.1484375,0.0,0,0
1772030234.717083,1772030234.6490011,-928.7109375,546.875,686.03515625,173.828125,0.0,0,0
1772030234.717111,1772030234.652896,839.35546875,-801.26953125,137.6953125,179.19921875,0.0,0,0
1772030234.717139,1772030234.6567907,-500.48828125,154.78515625,-646.484375,-94.23828125,0.0,0,0
1772030234.717172,1772030234.6606855,-1000.0,-1000.0,-673.33984375,-271.484375,0.0,0,0
1772030234.7171981,1772030234.66458,-178.7109375,-1000.0,216.796875,-104.00390625,0.0,0,0
1772030234.717225,1772030234.668475,-985.3515625,204.58984375,597.16796875,133.7890625,0.0,0,0
1772030234.7172532,1772030234.6723697,-983.88671875,-761.71875,198.2421875,180.17578125,0.0,0,0
1772030234.717281,1772030234.6762645,-166.9921875,177.24609375,-506.8359375,-50.29296875,0.0,0,0
1772030234.717311,1772030234.6801593,-1000.0,-1000.0,-687.5,-253.90625,0.0,0,0
1772030234.717338,1772030234.6840541,-287.59765625,-1000.0,82.51953125,-129.8828125,0.0,0,0
1772030234.7627132,1772030234.6880457,955.078125,-78.125,560.546875,111.81640625,0.0,0,0
1772030234.762866,1772030234.6919405,-920.41015625,-790.52734375,285.64453125,184.5703125,0.0,0,0
1772030234.762898,1772030234.6958354,39.55078125,402.83203125,-430.17578125,-34.1796875,0.0,0,0
1772030234.76293,1772030234.6997302,-1000.0,-927.734375,-700.68359375,-255.859375,0.0,0,0
1772030234.762958,1772030234.703625,-475.09765625,-1000.0,-51.7578125,-178.7109375,0.0,0,0
1772030234.762988,1772030234.7075198,863.76953125,-144.04296875,570.80078125,82.03125,0.0,0,0
1772030234.7630148,1772030234.7114143,-872.0703125,-845.703125,426.7578125,198.73046875,0.0,0,0
1772030234.763042,1772030234.7153091,188.4765625,619.140625,-390.625,14.6484375,0.0,0,0
1772030234.763206,1772030234.719204,-1000.0,-759.27734375,-741.2109375,-199.21875,0.0,0,0
1772030234.763252,1772030234.7230988,-706.0546875,-1000.0,-140.625,-197.265625,0.0,0,0
1772030234.7632902,1772030234.7269936,681.640625,-211.42578125,509.765625,44.921875,0.0,0,0
1772030234.763327,1772030234.7308884,-827.1484375,-919.921875,477.05078125,209.47265625,0.0,0,0
1772030234.806824,1772030234.7349443,169.921875,813.4765625,-317.87109375,39.55078125,0.0,0,0
1772030234.8068962,1772030234.7388391,-1000.0,-538.0859375,-727.5390625,-198.73046875,0.0,0,0
1772030234.8069298,1772030234.742734,-937.5,-1000.0,-246.58203125,-223.14453125,0.0,0,0
1772030234.806962,1772030234.7466288,365.234375,-170.8984375,500.48828125,42.48046875,0.0,0,0
1772030234.806995,1772030234.7505236,-778.3203125,999.0234375,603.02734375,252.9296875,0.0,0,0
1772030234.8070269,1772030234.7544184,148.92578125,-950.1953125,-246.09375,68.84765625,0.0,0,0
1772030234.80706,1772030234.7583132,-1000.0,-63.96484375,-773.92578125,-221.6796875,0.0,0,0
1772030234.807092,1772030234.762208,-1000.0,-1000.0,-400.390625,-262.6953125,0.0,0,0
1772030234.807122,1772030234.7661028,71.77734375,-263.18359375,444.3359375,-20.99609375,0.0,0,0
1772030234.807155,1772030234.7699976,-765.625,985.83984375,682.6171875,186.03515625,0.0,0,0
1772030234.8071868,1772030234.7738924,312.5,-941.40625,-180.17578125,85.44921875,0.0,0,0
1772030234.8074062,1772030234.7777872,-958.984375,-36.62109375,-777.83203125,-191.40625,0.0,0,0
1772030234.8810902,1772030234.7820065,-1000.0,-1000.0,-507.32421875,-298.33984375,0.0,0,0
1772030234.8811479,1772030234.7859013,-119.140625,-491.69921875,354.98046875,-57.6171875,0.0,0,0
1772030234.881168,1772030234.7897964,-812.98828125,878.41796875,716.796875,195.80078125,0.0,0,0
1772030234.881186,1772030234.7936912,501.953125,-899.4140625,-60.546875,124.51171875,0.0,0,0
1772030234.881203,1772030234.797586,-864.74609375,-51.26953125,-765.13671875,-156.25,0.0,0,0
1772030234.88122,1772030234.8014808,-1000.0,-1000.0,-583.0078125,-287.59765625,0.0,0,0
1772030234.881237,1772030234.8053758,-222.65625,-593.26171875,348.6328125,-75.1953125,0.0,0,0
1772030234.881253,1772030234.8092706,-906.73828125,765.13671875,745.1171875,174.8046875,0.0,0,0
1772030234.8812711,1772030234.8131654,764.6484375,-842.7734375,69.82421875,154.296875,0.0,0,0
1772030234.881288,1772030234.8170602,-605.95703125,82.51953125,-732.421875,-123.53515625,0.0,0,0
1772030234.881304,1772030234.8209553,-1000.0,-1000.0,-713.37890625,-293.45703125,0.0,0,0
1772030234.881321,1772030234.82485,-186.5234375,-1000.0,255.859375,-116.69921875,0.0,0,0
1772030234.897214,1772030234.8288856,-972.16796875,216.796875,752.44140625,139.16015625,0.0,0,0
1772030234.897258,1772030234.8327804,979.98046875,-766.11328125,251.953125,189.453125,0.0,0,0
1772030234.897273,1772030234.8366754,-259.765625,152.83203125,-621.58203125,-78.125,0.0,0,0
1772030234.897287,1772030234.8405702,-1000.0,-1000.0,-777.34375,-305.17578125,0.0,0,0
1772030234.897302,1772030234.844465,-225.5859375,-1000.0,182.6171875,-153.80859375,0.0,0,0
1772030234.8973398,1772030234.84836,982.91015625,148.92578125,765.13671875,134.27734375,0.0,0,0
1772030234.8973691,1772030234.8522549,-940.91796875,-759.765625,368.65234375,200.1953125,0.0,0,0
1772030234.897385,1772030234.8561497,-25.87890625,206.54296875,-533.203125,-66.89453125,0.0,0,0
1772030234.8974001,1772030234.8600447,-1000.0,-990.72265625,-831.54296875,-298.33984375,0.0,0,0
1772030234.897413,1772030234.8639395,-416.50390625,-1000.0,19.04296875,-207.51953125,0.0,0,0
1772030234.8974268,1772030234.8678343,891.6015625,-176.26953125,723.6328125,71.2890625,0.0,0,0
1772030234.89744,1772030234.8717294,-884.27734375,-812.5,459.47265625,207.03125,0.0,0,0
1772030234.941744,1772030234.8757527,160.64453125,428.7109375,-463.37890625,-24.4140625,0.0,0,0
1772030234.941786,1772030234.8796475,-1000.0,-918.9453125,-833.0078125,-279.78515625,0.0,0,0
1772030234.941802,1772030234.8835425,-634.765625,-1000.0,-109.375,-235.3515625,0.0,0,0
1772030234.941817,1772030234.8874373,753.90625,-213.8671875,690.4296875,58.10546875,0.0,0,0
1772030234.9418318,1772030234.8913321,-840.8203125,-892.08984375,557.12890625,223.6328125,0.0,0,0
1772030234.941847,1772030234.8952272,178.22265625,733.3984375,-422.8515625,14.6484375,0.0,0,0
1772030234.9418619,1772030234.899122,-1000.0,-641.11328125,-817.3828125,-250.0,0.0,0,0
1772030234.941877,1772030234.903017,-892.08984375,-1000.0,-258.7890625,-263.18359375,0.0,0,0
1772030234.9418921,1772030234.9069118,437.98828125,-213.37890625,576.171875,10.25390625,0.0,0,0
1772030234.941908,1772030234.910807,-787.59765625,-900.87890625,661.62109375,211.42578125,0.0,0,0
1772030234.9419231,1772030234.9147017,147.94921875,747.0703125,-348.6328125,46.875,0.0,0,0
1772030234.941938,1772030234.9185965,-1000.0,-612.79296875,-847.16796875,-225.09765625,0.0,0,0
1772030235.0178401,1772030234.9227786,-1000.0,-1000.0,-370.60546875,-274.90234375,0.0,0,0
1772030235.0179,1772030234.9266734,127.9296875,-312.98828125,522.4609375,-2.44140625,0.0,0,0
1772030235.017923,1772030234.9305685,-762.20703125,985.3515625,742.1875,221.6796875,0.0,0,0
1772030235.0179431,1772030234.9344633,262.20703125,983.3984375,-218.26171875,91.796875,0.0,0,0
1772030235.0179641,1772030234.9383583,-983.3984375,-276.85546875,-852.5390625,-193.359375,0.0,0,0
1772030235.017984,1772030234.9422534,-1000.0,-1000.0,-481.4453125,-286.1328125,0.0,0,0
1772030235.018002,1772030234.9461482,-67.3828125,-428.22265625,449.21875,-36.62109375,0.0,0,0
1772030235.0180218,1772030234.9500432,-796.38671875,898.92578125,766.6015625,200.1953125,0.0,0,0
1772030235.018042,1772030234.9539382,449.70703125,-912.109375,-74.70703125,120.1171875,0.0,0,0
1772030235.0180612,1772030234.957833,-890.13671875,-70.3125,-827.1484375,-174.8046875,0.0,0,0
1772030235.018081,1772030234.961728,-1000.0,-1000.0,-593.75,-307.6171875,0.0,0,0
1772030235.0181,1772030234.9656231,-219.7265625,-460.44921875,399.4140625,-70.80078125,0.0,0,0
1772030235.0311759,1772030234.9696193,-885.25390625,867.1875,778.80859375,199.21875,0.0,0,0
1772030235.031221,1772030234.9735143,695.3125,-869.62890625,58.10546875,159.1796875,0.0,0,0
1772030235.031245,1772030234.9774091,-689.453125,104.98046875,-751.46484375,-126.46484375,0.0,0,0
1772030235.031266,1772030234.9813042,-1000.0,-1000.0,-700.68359375,-286.1328125,0.0,0,0
1772030235.031286,1772030234.9851992,-196.2890625,-981.4453125,291.50390625,-107.421875,0.0,0,0
1772030235.031307,1772030234.9890943,-954.1015625,265.13671875,801.26953125,157.71484375,0.0,0,0
1772030235.031327,1772030234.992989,924.31640625,-768.06640625,236.81640625,187.98828125,0.0,0,0
1772030235.0313458,1772030234.996884,-365.72265625,145.5078125,-666.9921875,-102.05078125,0.0,0,0
1772030235.0313659,1772030235.0007792,-1000.0,-1000.0,-776.85546875,-319.82421875,0.0,0,0
1772030235.031403,1772030235.004674,-185.546875,-1000.0,210.9375,-154.78515625,0.0,0,0
1772030235.031432,1772030235.008569,-998.046875,65.4296875,771.484375,130.37109375,0.0,0,0
1772030235.031452,1772030235.012464,-958.0078125,-765.625,327.1484375,209.9609375,0.0,0,0
1772030235.091669,1772030235.016447,-84.47265625,143.5546875,-562.5,-61.5234375,0.0,0,0
1772030235.0917041,1772030235.0203419,-1000.0,-1000.0,-806.640625,-318.84765625,0.0,0,0
1772030235.0917308,1772030235.024237,-349.12109375,-1000.0,97.16796875,-192.3828125,0.0,0,0
1772030235.091758,1772030235.028132,925.29296875,-115.72265625,749.0234375,107.421875,0.0,0,0
1772030235.091787,1772030235.032027,-900.87890625,-804.6875,421.38671875,214.35546875,0.0,0,0
1772030235.091816,1772030235.0359218,112.3046875,500.0,-483.3984375,-42.48046875,0.0,0,0
1772030235.0918431,1772030235.0398169,-1000.0,-864.2578125,-840.8203125,-310.546875,0.0,0,0
1772030235.091871,1772030235.043712,-542.48046875,-1000.0,-74.70703125,-241.2109375,0.0,0,0
1772030235.091897,1772030235.047607,832.03125,-227.5390625,703.61328125,60.05859375,0.0,0,0
1772030235.091925,1772030235.0515018,-859.375,-862.79296875,524.90234375,222.65625,0.0,0,0
1772030235.091952,1772030235.0553968,190.91796875,594.23828125,-439.453125,9.765625,0.0,0,0
1772030235.0919821,1772030235.0592918,-1000.0,-801.26953125,-840.33203125,-275.87890625,0.0,0,0
1772030235.137816,1772030235.063285,-810.546875,-1000.0,-224.609375,-283.69140625,0.0,0,0
1772030235.137942,1772030235.0671802,555.17578125,-208.0078125,619.140625,20.99609375,0.0,0,0
1772030235.137982,1772030235.0710752,-803.7109375,-935.546875,622.0703125,229.98046875,0.0,0,0
1772030235.138017,1772030235.0749702,155.2734375,865.234375,-391.11328125,36.1328125,0.0,0,0
1772030235.1380548,1772030235.078865,-1000.0,-461.42578125,-841.796875,-243.65234375,0.0,0,0
1772030235.138088,1772030235.08276,-1000.0,-1000.0,-311.5234375,-282.2265625,0.0,0,0
1772030235.1381319,1772030235.0866551,209.47265625,-176.7578125,567.3828125,-5.859375,0.0,0,0
1772030235.138177,1772030235.0905502,-763.671875,-986.328125,740.234375,224.12109375,0.0,0,0
1772030235.13821,1772030235.0944452,208.0078125,-980.95703125,-266.11328125,76.171875,0.0,0,0
1772030235.138243,1772030235.0983403,-1000.0,-143.5546875,-858.3984375,-210.9375,0.0,0,0
1772030235.138274,1772030235.1022353,-1000.0,-1000.0,-464.84375,-302.24609375,0.0,0,0
1772030235.138305,1772030235.1061301,-19.53125,-391.11328125,451.66015625,-52.734375,0.0,0,0
1772030235.1831481,1772030235.1101832,-782.2265625,938.96484375,758.30078125,212.40234375,0.0,0,0
1772030235.1832829,1772030235.1140783,399.90234375,-942.87109375,-132.32421875,116.69921875,0.0,0,0
1772030235.1833441,1772030235.1179733,-915.0390625,-142.578125,-816.89453125,-173.828125,0.0,0,0
1772030235.183588,1772030235.1218684,-1000.0,-1000.0,-552.734375,-307.12890625,0.0,0,0
1772030235.183647,1772030235.1257634,-203.61328125,-583.984375,385.7421875,-74.21875,0.0,0,0
1772030235.183705,1772030235.1296585,-859.86328125,752.44140625,812.01171875,214.84375,0.0,0,0
1772030235.183763,1772030235.1335535,620.60546875,-843.26171875,60.05859375,163.57421875,0.0,0,0
1772030235.183819,1772030235.1374485,-770.5078125,159.66796875,-774.90234375,-137.6953125,0.0,0,0
1772030235.183876,1772030235.1413436,-1000.0,-1000.0,-640.13671875,-299.8046875,0.0,0,0
1772030235.1839292,1772030235.1452384,-205.56640625,-793.45703125,338.8671875,-81.54296875,0.0,0,0
1772030235.183985,1772030235.1491334,-938.96484375,569.82421875,787.59765625,201.66015625,0.0,0,0
1772030235.184042,1772030235.1530285,874.0234375,-802.734375,193.359375,195.80078125,0.0,0,0
1772030235.22816,1772030235.1570702,-449.21875,148.4375,-672.36328125,-104.4921875,0.0,0,0
1772030235.228384,1772030235.1609652,-1000.0,-1000.0,-747.0703125,-308.10546875,0.0,0,0
1772030235.2284338,1772030235.1648602,-175.29296875,-1000.0,229.4921875,-122.55859375,0.0,0,0
1772030235.228478,1772030235.1687553,-990.72265625,114.2578125,762.20703125,168.45703125,0.0,0,0
1772030235.22852,1772030235.1726503,-968.75,-762.6953125,301.26953125,218.75,0.0,0,0
1772030235.228561,1772030235.1765454,-125.9765625,139.16015625,-582.03125,-68.84765625,0.0,0,0
1772030235.228603,1772030235.1804404,-1000.0,-1000.0,-801.7578125,-305.17578125,0.0,0,0
1772030235.228642,1772030235.1843355,-312.98828125,-1000.0,118.65234375,-170.8984375,0.0,0,0
1772030235.228752,1772030235.1882305,943.359375,-122.0703125,731.93359375,128.90625,0.0,0,0
1772030235.228837,1772030235.1921256,-912.109375,-791.9921875,385.7421875,227.5390625,0.0,0,0
1772030235.2288861,1772030235.1960206,68.84765625,317.87109375,-500.9765625,-34.1796875,0.0,0,0
1772030235.228985,1772030235.1999156,-1000.0,-979.4921875,-819.3359375,-289.0625,0.0,0,0
1772030235.316148,1772030235.203948,-500.48828125,-1000.0,-6.34765625,-223.14453125,0.0,0,0
1772030235.3163352,1772030235.207843,851.07421875,-111.81640625,746.58203125,75.68359375,0.0,0,0
1772030235.316402,1772030235.211738,-866.2109375,-828.61328125,523.4375,229.98046875,0.0,0,0
1772030235.316462,1772030235.2156332,199.21875,588.8671875,-445.80078125,-3.90625,0.0,0,0
1772030235.31677,1772030235.2195282,-1000.0,-794.921875,-822.265625,-274.90234375,0.0,0,0
1772030235.316923,1772030235.2234232,-750.9765625,-1000.0,-123.53515625,-244.140625,0.0,0,0
1772030235.317024,1772030235.2273183,630.859375,-110.83984375,679.6875,57.6171875,0.0,0,0
1772030235.317085,1772030235.2312136,-817.3828125,-906.73828125,604.98046875,245.60546875,0.0,0,0
1772030235.317158,1772030235.2351086,163.0859375,838.37890625,-390.13671875,36.62109375,0.0,0,0
1772030235.317245,1772030235.2390037,-1000.0,-474.12109375,-833.49609375,-249.51171875,0.0,0,0
1772030235.317333,1772030235.2428987,-975.09765625,-1000.0,-302.24609375,-272.4609375,0.0,0,0
1772030235.317417,1772030235.2467937,294.921875,-181.15234375,562.01171875,25.87890625,0.0,0,0
1772030235.318235,1772030235.2508218,-771.484375,-977.5390625,683.59375,248.046875,0.0,0,0
1772030235.318315,1772030235.2547169,172.36328125,-1000.0,-318.84765625,68.359375,0.0,0,0
1772030235.318358,1772030235.258612,-1000.0,-204.1015625,-839.35546875,-217.7734375,0.0,0,0
1772030235.3184,1772030235.2625072,-1000.0,-1000.0,-427.24609375,-292.48046875,0.0,0,0
1772030235.31844,1772030235.2664022,24.4140625,-327.1484375,461.42578125,-30.76171875,0.0,0,0
1772030235.318482,1772030235.2702973,-772.4609375,930.17578125,762.20703125,219.23828125,0.0,0,0
1772030235.318527,1772030235.2741923,341.796875,-906.73828125,-165.0390625,98.6328125,0.0,0,0
1772030235.318568,1772030235.2780876,-944.82421875,79.1015625,-863.28125,-218.75,0.0,0,0
1772030235.31861,1772030235.2819827,-1000.0,-1000.0,-580.078125,-343.75,0.0,0,0
1772030235.318648,1772030235.2858777,-159.66796875,-601.5625,385.7421875,-90.8203125,0.0,0,0
1772030235.31869,1772030235.2897727,-829.58984375,806.640625,757.32421875,167.48046875,0.0,0,0
1772030235.3187351,1772030235.293668,539.0625,-869.62890625,-60.546875,116.2109375,0.0,0,0
1772030235.3771,1772030235.2976758,-840.33203125,-78.61328125,-827.1484375,-214.35546875,0.0,0,0
1772030235.377158,1772030235.301571,-1000.0,-1000.0,-665.52734375,-381.34765625,0.0,0,0
1772030235.377176,1772030235.3054662,-217.7734375,-995.1171875,312.98828125,-142.578125,0.0,0,0
1772030235.377194,1772030235.3093612,-915.0390625,226.5625,732.91015625,99.609375,0.0,0,0
1772030235.3772109,1772030235.3132563,793.9453125,-776.3671875,83.49609375,64.94140625,0.0,0,0
1772030235.377228,1772030235.3171515,-566.40625,-52.24609375,-719.23828125,-275.390625,0.0,0,0
1772030235.377246,1772030235.3210466,-1000.0,-1000.0,-734.86328125,-501.46484375,0.0,0,0
1772030235.377262,1772030235.3249416,-183.59375,-1000.0,225.09765625,-324.21875,0.0,0,0
1772030235.377279,1772030235.328837,-976.07421875,-222.65625,724.609375,-51.26953125,0.0,0,0
1772030235.377296,1772030235.332732,991.2109375,-825.1953125,214.35546875,-30.76171875,0.0,0,0
1772030235.3773131,1772030235.336627,-229.4921875,28.3203125,-633.30078125,-375.48828125,0.0,0,0
1772030235.3773298,1772030235.3405223,-1000.0,-1000.0,-844.23828125,-624.51171875,0.0,0,0
1772030235.408812,1772030235.3445208,-309.5703125,-958.984375,10.7421875,-502.9296875,0.0,0,0
1772030235.408849,1772030235.3484159,-992.67578125,-983.88671875,532.2265625,-265.625,0.0,0,0
1772030235.408863,1772030235.3523111,934.5703125,-1000.0,14.6484375,-196.77734375,0.0,0,0
1772030235.408875,1772030235.3562062,-307.6171875,-1000.0,-716.796875,-489.2578125,0.0,0,0
1772030235.408886,1772030235.3601012,-1000.0,-1000.0,-944.3359375,-770.99609375,0.0,0,0
1772030235.408898,1772030235.3639965,-500.48828125,-1000.0,-340.8203125,-695.3125,0.0,0,0
1772030235.40891,1772030235.3678916,871.58203125,-1000.0,356.4453125,-390.625,0.0,0,0
1772030235.408921,1772030235.3717868,-951.171875,-1000.0,106.4453125,-248.046875,0.0,0,0
1772030235.4089332,1772030235.3756819,-105.46875,-1000.0,-645.99609375,-488.76953125,0.0,0,0
1772030235.4089441,1772030235.379577,-1000.0,-1000.0,-839.35546875,-731.4453125,0.0,0,0
1772030235.4089549,1772030235.3834722,-675.29296875,-1000.0,-139.6484375,-625.9765625,0.0,0,0
1772030235.4089658,1772030235.3873672,671.875,-1000.0,693.84765625,-288.57421875,0.0,0,0
1772030235.451488,1772030235.3913503,-824.70703125,-1000.0,654.296875,-82.51953125,0.0,0,0
1772030235.451519,1772030235.3952456,172.8515625,-1000.0,-302.734375,-260.25390625,0.0,0,0
1772030235.451529,1772030235.3991406,-1000.0,-1000.0,-688.4765625,-517.08984375,0.0,0,0
1772030235.451539,1772030235.4030359,-916.9921875,-1000.0,-27.34375,-489.74609375,0.0,0,0
1772030235.4515488,1772030235.406931,398.92578125,-1000.0,724.12109375,-149.90234375,0.0,0,0
1772030235.451586,1772030235.410826,-782.2265625,-1000.0,838.37890625,124.0234375,0.0,0,0
1772030235.4516091,1772030235.4147213,145.5078125,-1000.0,-91.30859375,-9.765625,0.0,0,0
1772030235.45162,1772030235.4186163,-1000.0,-933.59375,-647.94921875,-282.71484375,0.0,0,0
1772030235.451631,1772030235.4225116,-1000.0,-1000.0,-123.53515625,-321.77734375,0.0,0,0
1772030235.451641,1772030235.4264066,90.33203125,-749.0234375,629.8828125,-27.34375,0.0,0,0
1772030235.451651,1772030235.430302,-764.16015625,733.88671875,862.79296875,256.8359375,0.0,0,0
1772030235.451661,1772030235.434197,300.78125,-939.94140625,12.20703125,163.0859375,0.0,0,0
1772030235.511074,1772030235.4381683,-965.8203125,-307.12890625,-687.01171875,-143.06640625,0.0,0,0
1772030235.511113,1772030235.4420633,-1000.0,-1000.0,-286.62109375,-222.65625,0.0,0,0
1772030235.511125,1772030235.4459586,-95.703125,-309.5703125,549.8046875,72.265625,0.0,0,0
1772030235.511137,1772030235.4498537,-807.6171875,914.0625,849.609375,325.68359375,0.0,0,0
1772030235.511148,1772030235.453749,493.65234375,-879.39453125,90.8203125,252.44140625,0.0,0,0
1772030235.511159,1772030235.457644,-866.2109375,246.58203125,-678.7109375,-93.26171875,0.0,0,0
1772030235.511169,1772030235.4615393,-1000.0,-1000.0,-396.97265625,-220.703125,0.0,0,0
1772030235.51118,1772030235.4654343,-223.14453125,-193.84765625,497.55859375,22.94921875,0.0,0,0
1772030235.511241,1772030235.4693296,-906.25,-984.375,855.95703125,270.01953125,0.0,0,0
1772030235.5112529,1772030235.4732246,761.71875,-990.234375,296.38671875,262.6953125,0.0,0,0
1772030235.511263,1772030235.47712,-609.375,827.63671875,-586.42578125,-68.359375,0.0,0,0
1772030235.511274,1772030235.481015,-1000.0,-752.44140625,-532.71484375,-256.34765625,0.0,0,0
1772030235.5559108,1772030235.4850633,-187.01171875,-317.87109375,440.4296875,-35.15625,0.0,0,0
1772030235.555941,1772030235.4889584,-970.703125,-891.6015625,826.171875,284.1796875,0.0,0,0
1772030235.555958,1772030235.4928536,977.05078125,942.87109375,307.6171875,333.984375,0.0,0,0
1772030235.555972,1772030235.4967487,-271.484375,944.82421875,-638.671875,-3.41796875,0.0,0,0
1772030235.555987,1772030235.500644,-1000.0,979.00390625,-802.734375,-233.88671875,0.0,0,0
1772030235.556,1772030235.5045393,-184.5703125,972.16796875,208.0078125,-42.48046875,0.0,0,0
1772030235.556014,1772030235.5084343,997.0703125,971.6796875,736.81640625,223.14453125,0.0,0,0
1772030235.556027,1772030235.5123296,-946.77734375,971.6796875,235.3515625,311.03515625,0.0,0,0
1772030235.55604,1772030235.5162246,-27.83203125,971.6796875,-597.16796875,23.4375,0.0,0,0
1772030235.556054,1772030235.52012,-1000.0,972.16796875,-863.28125,-228.515625,0.0,0,0
1772030235.556066,1772030235.5240152,-379.39453125,972.16796875,-37.59765625,-107.421875,0.0,0,0
1772030235.55608,1772030235.5279102,910.15625,971.6796875,692.87109375,175.29296875,0.0,0,0
1772030235.61627,1772030235.5320284,-891.6015625,971.6796875,353.02734375,278.80859375,0.0,0,0
1772030235.616311,1772030235.5359235,164.55078125,971.6796875,-553.7109375,-1.953125,0.0,0,0
1772030235.6163268,1772030235.5398188,-1000.0,972.16796875,-862.3046875,-317.3828125,0.0,0,0
1772030235.616343,1772030235.543714,-586.42578125,972.16796875,-138.18359375,-305.17578125,0.0,0,0
1772030235.616359,1772030235.5476093,802.24609375,984.86328125,723.14453125,41.015625,0.0,0,0
1772030235.616374,1772030235.5515044,-852.05078125,907.71484375,584.47265625,205.56640625,0.0,0,0
1772030235.616389,1772030235.5553997,185.546875,-935.546875,-444.3359375,-65.91796875,0.0,0,0
1772030235.616404,1772030235.559295,-1000.0,796.38671875,-892.578125,-391.6015625,0.0,0,0
1772030235.616419,1772030235.5631902,-846.19140625,-637.6953125,-326.171875,-410.64453125,0.0,0,0
1772030235.6164339,1772030235.5670853,504.39453125,167.48046875,625.0,-54.6875,0.0,0,0
1772030235.616449,1772030235.5709805,-796.38671875,-895.5078125,694.3359375,171.38671875,0.0,0,0
1772030235.616464,1772030235.5748758,151.3671875,-949.21875,-396.97265625,-55.6640625,0.0,0,0
1772030235.646367,1772030235.5789082,-1000.0,230.46875,-885.25390625,-384.765625,0.0,0,0
1772030235.646417,1772030235.5828035,-1000.0,-1000.0,-354.4921875,-431.15234375,0.0,0,0
1772030235.646434,1772030235.5866988,163.57421875,59.08203125,565.91796875,-122.55859375,0.0,0,0
1772030235.6464498,1772030235.590594,-762.20703125,-938.96484375,730.46875,134.27734375,0.0,0,0
1772030235.646465,1772030235.594489,246.09375,-946.2890625,-350.5859375,-40.0390625,0.0,0,0
1772030235.6464808,1772030235.5983844,-989.74609375,244.140625,-927.734375,-395.99609375,0.0,0,0
1772030235.646496,1772030235.6022797,-1000.0,-1000.0,-533.69140625,-520.01953125,0.0,0,0
1772030235.646511,1772030235.606175,-49.31640625,-191.89453125,424.8046875,-257.8125,0.0,0,0
1772030235.646527,1772030235.6100702,-790.52734375,-989.74609375,772.94921875,38.0859375,0.0,0,0
1772030235.646542,1772030235.6139655,423.33984375,-919.921875,-222.65625,-70.80078125,0.0,0,0
1772030235.6465569,1772030235.6178608,-903.80859375,232.91015625,-916.50390625,-425.29296875,0.0,0,0
1772030235.646572,1772030235.6217558,-1000.0,-1000.0,-612.3046875,-580.078125,0.0,0,0
1772030235.69104,1772030235.625771,-218.75,-308.10546875,367.1875,-341.796875,0.0,0,0
1772030235.691075,1772030235.6296663,-875.9765625,967.7734375,813.96484375,-9.27734375,0.0,0,0
1772030235.691096,1772030235.6335616,667.96875,-899.90234375,6.8359375,-3.41796875,0.0,0,0
1772030235.691118,1772030235.637457,-749.0234375,209.9609375,-865.234375,-368.1640625,0.0,0,0
1772030235.691137,1772030235.6413522,-1000.0,-1000.0,-700.68359375,-570.80078125,0.0,0,0
1772030235.691156,1772030235.6452472,-112.79296875,-360.83984375,389.6484375,-293.9453125,0.0,0,0
1772030235.691175,1772030235.6491425,-957.03125,894.53125,842.28515625,-6.8359375,0.0,0,0
1772030235.691194,1772030235.6530378,897.94921875,-881.8359375,159.66796875,3.41796875,0.0,0,0
1772030235.6912131,1772030235.656933,-410.15625,199.21875,-748.046875,-345.21484375,0.0,0,0
1772030235.691232,1772030235.6608284,-1000.0,-1000.0,-827.63671875,-627.44140625,0.0,0,0
1772030235.691251,1772030235.6647236,-173.828125,-839.84375,232.421875,-444.82421875,0.0,0,0
1772030235.6912699,1772030235.668619,-992.67578125,502.9296875,843.26171875,-100.5859375,0.0,0,0
1772030235.7365918,1772030235.6726227,-964.35546875,-793.45703125,216.30859375,-3.90625,0.0,0,0
1772030235.736635,1772030235.676518,-102.5390625,219.23828125,-673.33984375,-341.30859375,0.0,0,0
1772030235.73665,1772030235.6804132,-1000.0,-1000.0,-866.69921875,-641.6015625,0.0,0,0
1772030235.736663,1772030235.6843085,-343.75,-1000.0,94.23828125,-489.2578125,0.0,0,0
1772030235.736675,1772030235.6882038,929.19921875,111.81640625,846.6796875,-155.76171875,0.0,0,0
1772030235.7366881,1772030235.692099,-904.78515625,-764.6484375,394.04296875,-7.32421875,0.0,0,0
1772030235.7366998,1772030235.6959944,86.42578125,297.8515625,-551.7578125,-300.78125,0.0,0,0
1772030235.736744,1772030235.6998897,-1000.0,-950.1953125,-884.27734375,-629.8828125,0.0,0,0
1772030235.736773,1772030235.703785,-536.1328125,-1000.0,-59.5703125,-531.25,0.0,0,0
1772030235.7367868,1772030235.7076802,831.54296875,-231.4453125,835.9375,-184.08203125,0.0,0,0
1772030235.7368,1772030235.7115755,-859.375,-832.03125,554.19921875,19.53125,0.0,0,0
1772030235.736813,1772030235.7154708,192.87109375,443.359375,-493.65234375,-250.0,0.0,0,0
1772030235.781816,1772030235.7194684,-1000.0,-919.921875,-883.30078125,-618.65234375,0.0,0,0
1772030235.781846,1772030235.7233636,-793.45703125,-1000.0,-188.96484375,-594.7265625,0.0,0,0
1772030235.781868,1772030235.727259,577.63671875,-218.75,752.9296875,-218.75,0.0,0,0
1772030235.781882,1772030235.7311542,-807.6171875,-878.41796875,662.109375,21.484375,0.0,0,0
1772030235.781895,1772030235.7350495,157.71484375,679.19921875,-439.453125,-196.77734375,0.0,0,0
1772030235.781908,1772030235.7389448,-1000.0,-708.0078125,-894.04296875,-513.671875,0.0,0,0
1772030235.781921,1772030235.7428403,-1000.0,-1000.0,-350.5859375,-538.57421875,0.0,0,0
1772030235.781934,1772030235.7467356,235.3515625,-189.94140625,595.21484375,-208.49609375,0.0,0,0
1772030235.7819479,1772030235.7506309,-765.625,-970.21484375,745.60546875,80.078125,0.0,0,0
1772030235.781961,1772030235.7545261,196.2890625,970.703125,-363.76953125,-104.00390625,0.0,0,0
1772030235.781975,1772030235.7584214,-1000.0,-270.99609375,-934.5703125,-454.1015625,0.0,0,0
1772030235.7819881,1772030235.7623167,-1000.0,-1000.0,-475.09765625,-519.53125,0.0,0,0
1772030235.826612,1772030235.7663028,-5.859375,-258.7890625,483.3984375,-226.5625,0.0,0,0
1772030235.826642,1772030235.770198,-779.296875,979.00390625,795.8984375,77.63671875,0.0,0,0
1772030235.8266602,1772030235.7740934,386.71875,-941.89453125,-235.3515625,-26.3671875,0.0,0,0
1772030235.826677,1772030235.777989,-922.8515625,-81.0546875,-950.68359375,-377.9296875,0.0,0,0
1772030235.8266938,1772030235.7818842,-1000.0,-1000.0,-559.08203125,-500.0,0.0,0,0
1772030235.826709,1772030235.7857795,-179.6875,-310.05859375,433.59375,-208.49609375,0.0,0,0
1772030235.826726,1772030235.7896748,-849.609375,942.3828125,826.66015625,124.0234375,0.0,0,0
1772030235.8267431,1772030235.79357,602.5390625,-907.2265625,-39.55078125,75.68359375,0.0,0,0
1772030235.826761,1772030235.7974653,-784.1796875,121.09375,-892.08984375,-288.0859375,0.0,0,0
1772030235.8267782,1772030235.8013606,-1000.0,-1000.0,-663.0859375,-485.3515625,0.0,0,0
1772030235.826794,1772030235.805256,-207.51953125,-672.36328125,388.18359375,-206.54296875,0.0,0,0
1772030235.8268108,1772030235.8091514,-935.05859375,703.125,846.6796875,125.48828125,0.0,0,0
1772030235.9184651,1772030235.813121,859.86328125,-833.0078125,156.73828125,119.62890625,0.0,0,0
1772030235.9185028,1772030235.8170164,-470.703125,194.82421875,-771.97265625,-201.171875,0.0,0,0
1772030235.918602,1772030235.820912,-1000.0,-1000.0,-760.7421875,-426.7578125,0.0,0,0
1772030235.918656,1772030235.8248072,-176.26953125,-687.5,338.37890625,-225.09765625,0.0,0,0
1772030235.918688,1772030235.8287024,-989.2578125,694.3359375,862.3046875,128.41796875,0.0,0,0
1772030235.9187179,1772030235.8325977,-971.6796875,-825.68359375,295.8984375,207.03125,0.0,0,0
1772030235.918746,1772030235.836493,-142.578125,282.2265625,-603.02734375,-130.37109375,0.0,0,0
1772030235.9187741,1772030235.8403883,-1000.0,-1000.0,-816.40625,-404.296875,0.0,0,0
1772030235.9188008,1772030235.8442838,-285.64453125,-1000.0,201.66015625,-240.234375,0.0,0,0
1772030235.918829,1772030235.848179,955.56640625,214.35546875,885.25390625,97.65625,0.0,0,0
1772030235.918856,1772030235.8520744,-919.43359375,-775.87890625,421.38671875,244.62890625,0.0,0,0
1772030235.918884,1772030235.8559697,47.8515625,406.73828125,-528.80859375,-26.85546875,0.0,0,0
1772030235.93256,1772030235.8599548,-1000.0,-934.5703125,-861.81640625,-328.125,0.0,0,0
1772030235.932627,1772030235.86385,-472.16796875,-1000.0,53.22265625,-206.54296875,0.0,0,0
1772030235.932666,1772030235.8677454,866.2109375,104.4921875,872.0703125,161.1328125,0.0,0,0
1772030235.932702,1772030235.8716407,-872.55859375,-819.3359375,526.85546875,335.9375,0.0,0,0
1772030235.932738,1772030235.8755362,194.3359375,645.99609375,-484.86328125,45.8984375,0.0,0,0
1772030235.9327738,1772030235.8794315,-1000.0,-721.19140625,-867.1875,-258.7890625,0.0,0,0
1772030235.932808,1772030235.8833268,-705.078125,-1000.0,-159.66796875,-198.73046875,0.0,0,0
1772030235.932843,1772030235.887222,685.546875,41.015625,761.71875,172.8515625,0.0,0,0
1772030235.932878,1772030235.8911176,-827.63671875,-912.109375,641.11328125,422.8515625,0.0,0,0
1772030235.9329128,1772030235.8950129,170.8984375,921.875,-463.8671875,165.52734375,0.0,0,0
1772030235.932949,1772030235.8989081,-1000.0,-307.6171875,-886.23046875,-185.546875,0.0,0,0
1772030235.932983,1772030235.9028034,-930.17578125,-1000.0,-281.25,-204.1015625,0.0,0,0
1772030235.9769862,1772030235.9068358,375.9765625,-142.578125,654.78515625,141.6015625,0.0,0,0
1772030235.977066,1772030235.910731,-778.80859375,-981.4453125,732.91015625,410.15625,0.0,0,0
1772030235.977102,1772030235.9146264,163.57421875,-958.49609375,-386.23046875,225.09765625,0.0,0,0
1772030235.9771378,1772030235.918522,-1000.0,-105.46875,-923.33984375,-102.05078125,0.0,0,0
1772030235.977174,1772030235.9224172,-1000.0,-1000.0,-473.6328125,-169.921875,0.0,0,0
1772030235.977207,1772030235.9263124,71.2890625,-165.0390625,479.4921875,144.53125,0.0,0,0
1772030235.977242,1772030235.930208,-766.6015625,988.76953125,786.1328125,438.96484375,0.0,0,0
1772030235.977277,1772030235.9341033,321.2890625,-911.62109375,-276.85546875,304.6875,0.0,0,0
1772030235.977312,1772030235.9379985,-955.56640625,166.50390625,-951.66015625,-37.109375,0.0,0,0
1772030235.977349,1772030235.941894,-1000.0,-1000.0,-527.83203125,-163.57421875,0.0,0,0
1772030235.977382,1772030235.9457893,-113.76953125,-193.359375,446.77734375,149.4140625,0.0,0,0
1772030235.977417,1772030235.9496846,-814.453125,-997.0703125,860.83984375,450.68359375,0.0,0,0
1772030236.022549,1772030235.9537127,514.16015625,-911.62109375,8.7890625,365.234375,0.0,0,0
1772030236.02269,1772030235.957608,-855.95703125,226.07421875,-864.74609375,17.08984375,0.0,0,0
1772030236.022753,1772030235.9615035,-1000.0,-1000.0,-546.875,-195.3125,0.0,0,0
1772030236.0228102,1772030235.9653988,-219.7265625,-188.96484375,463.8671875,64.94140625,0.0,0,0
1772030236.022874,1772030235.9692943,-912.59765625,995.60546875,874.51171875,394.04296875,0.0,0,0
1772030236.022934,1772030235.9731896,783.69140625,-926.7578125,289.55078125,361.328125,0.0,0,0
1772030236.0230012,1772030235.977085,-581.0546875,516.11328125,-711.42578125,22.4609375,0.0,0,0
1772030236.023058,1772030235.9809804,-1000.0,-1000.0,-641.11328125,-202.1484375,0.0,0,0
1772030236.023115,1772030235.9848757,-184.5703125,-333.984375,483.88671875,24.90234375,0.0,0,0
1772030236.0231712,1772030235.9887712,-976.07421875,984.375,908.203125,346.6796875,0.0,0,0
1772030236.023211,1772030235.9926665,990.72265625,-934.5703125,441.40625,407.71484375,0.0,0,0
1772030236.023252,1772030235.996562,-238.76953125,580.56640625,-570.3125,107.421875,0.0,0,0
1772030236.080464,1772030236.0005805,-1000.0,-1000.0,-758.7890625,-177.24609375,0.0,0,0
1772030236.080576,1772030236.004476,-231.4453125,-562.98828125,360.83984375,-20.5078125,0.0,0,0
1772030236.08062,1772030236.0083714,979.4921875,890.625,914.55078125,300.29296875,0.0,0,0
1772030236.0806642,1772030236.0122669,-937.5,-917.96875,462.890625,377.9296875,0.0,0,0
1772030236.080708,1772030236.0161622,-12.6953125,656.73828125,-503.90625,69.82421875,0.0,0,0
1772030236.0807512,1772030236.0200577,-1000.0,-796.875,-848.6328125,-221.19140625,0.0,0,0
1772030236.080792,1772030236.023953,-424.8046875,-1000.0,102.5390625,-127.44140625,0.0,0,0
1772030236.080833,1772030236.0278485,889.16015625,400.390625,865.72265625,202.63671875,0.0,0,0
1772030236.080875,1772030236.0317438,-883.30078125,-795.41015625,476.5625,325.68359375,0.0,0,0
1772030236.0809238,1772030236.0356393,160.64453125,446.2890625,-505.37109375,13.671875,0.0,0,0
1772030236.08097,1772030236.0395346,-1000.0,-856.4453125,-859.375,-304.6875,0.0,0,0
1772030236.081009,1772030236.04343,-652.34375,-1000.0,-96.19140625,-246.58203125,0.0,0,0
1772030236.111774,1772030236.0474312,735.3515625,-213.8671875,786.1328125,86.42578125,0.0,0,0
1772030236.111893,1772030236.0513265,-836.9140625,-832.51953125,587.40234375,278.80859375,0.0,0,0
1772030236.1119318,1772030236.055222,175.29296875,427.734375,-475.5859375,36.1328125,0.0,0,0
1772030236.111966,1772030236.0591173,-1000.0,-925.29296875,-896.97265625,-280.76171875,0.0,0,0
1772030236.111999,1772030236.0630128,-906.73828125,-1000.0,-291.015625,-282.71484375,0.0,0,0
1772030236.112044,1772030236.0669081,414.55078125,-251.953125,669.921875,35.64453125,0.0,0,0
1772030236.112077,1772030236.0708036,-784.1796875,-862.79296875,711.42578125,270.5078125,0.0,0,0
1772030236.112119,1772030236.0746992,146.484375,577.63671875,-392.578125,66.89453125,0.0,0,0
1772030236.1121511,1772030236.0785944,-1000.0,-806.640625,-894.04296875,-244.62890625,0.0,0,0
1772030236.112191,1772030236.08249,-1000.0,-1000.0,-328.125,-295.8984375,0.0,0,0
1772030236.1122282,1772030236.0863853,99.609375,-391.11328125,587.890625,0.48828125,0.0,0,0
1772030236.11226,1772030236.0902808,-762.6953125,-979.4921875,804.19921875,249.0234375,0.0,0,0
1772030236.1576262,1772030236.094271,279.296875,805.6640625,-217.7734375,111.328125,0.0,0,0
1772030236.157747,1772030236.0981665,-975.09765625,-575.68359375,-913.57421875,-196.77734375,0.0,0,0
1772030236.1578119,1772030236.1020617,-1000.0,-1000.0,-499.51171875,-299.31640625,0.0,0,0
1772030236.157873,1772030236.1059573,-91.796875,-562.01171875,464.35546875,-20.5078125,0.0,0,0
1772030236.157932,1772030236.1098528,-802.734375,816.89453125,795.41015625,254.8828125,0.0,0,0
1772030236.1580029,1772030236.113748,467.7734375,-906.25,-105.46875,168.9453125,0.0,0,0
1772030236.1580591,1772030236.1176436,-881.8359375,-224.12109375,-877.44140625,-155.2734375,0.0,0,0
1772030236.1581178,1772030236.1215389,-1000.0,-1000.0,-624.0234375,-302.734375,0.0,0,0
1772030236.158185,1772030236.1254344,-229.4921875,-1000.0,376.953125,-51.26953125,0.0,0,0
1772030236.158259,1772030236.12933,-892.578125,151.3671875,839.35546875,253.41796875,0.0,0,0
1772030236.158324,1772030236.1332252,713.37890625,-778.3203125,132.32421875,233.3984375,0.0,0,0
1772030236.158391,1772030236.1371207,-670.8984375,0.9765625,-776.3671875,-102.5390625,0.0,0,0
1772030236.2169018,1772030236.1411862,-1000.0,-1000.0,-699.21875,-292.48046875,0.0,0,0
1772030236.217033,1772030236.1450818,-194.82421875,-995.1171875,362.79296875,-70.80078125,0.0,0,0
1772030236.217081,1772030236.1489773,-956.54296875,215.33203125,852.5390625,226.5625,0.0,0,0
1772030236.2171252,1772030236.1528728,931.15234375,-762.20703125,271.97265625,257.32421875,0.0,0,0
1772030236.217343,1772030236.156768,-350.5859375,127.9296875,-654.296875,-67.3828125,0.0,0,0
1772030236.217389,1772030236.1606636,-1000.0,-1000.0,-761.71875,-306.15234375,0.0,0,0
1772030236.217429,1772030236.1645591,-199.70703125,-1000.0,254.8828125,-123.046875,0.0,0,0
1772030236.217472,1772030236.1684546,994.62890625,-12.6953125,834.47265625,179.19921875,0.0,0,0
1772030236.217514,1772030236.17235,-952.63671875,-774.4140625,380.859375,253.41796875,0.0,0,0
1772030236.217555,1772030236.1762455,-66.89453125,150.390625,-545.8984375,-40.52734375,0.0,0,0
1772030236.217597,1772030236.180141,-1000.0,-1000.0,-817.87109375,-305.17578125,0.0,0,0
1772030236.217636,1772030236.1840365,-370.60546875,-1000.0,139.16015625,-181.640625,0.0,0,0
1772030236.2617831,1772030236.1880054,916.9921875,-119.62890625,842.7734375,132.8125,0.0,0,0
1772030236.261926,1772030236.191901,-897.94921875,-790.0390625,510.7421875,273.92578125,0.0,0,0
1772030236.261973,1772030236.1957965,107.91015625,208.0078125,-461.42578125,17.08984375,0.0,0,0
1772030236.262016,1772030236.199692,-1000.0,-1000.0,-816.40625,-250.0,0.0,0,0
1772030236.262055,1772030236.2035873,-560.05859375,-1000.0,0.9765625,-186.03515625,0.0,0,0
1772030236.262096,1772030236.2074828,815.4296875,-261.71875,772.94921875,113.76953125,0.0,0,0
1772030236.2621372,1772030236.2113783,-854.98046875,-832.51953125,626.953125,287.109375,0.0,0,0
1772030236.2621791,1772030236.2152739,188.96484375,432.6171875,-386.23046875,49.8046875,0.0,0,0
1772030236.2622201,1772030236.2191694,-1000.0,-927.734375,-825.68359375,-221.19140625,0.0,0,0
1772030236.262262,1772030236.2230647,-821.2890625,-1000.0,-166.9921875,-201.171875,0.0,0,0
1772030236.262312,1772030236.2269602,541.015625,-239.2578125,679.19921875,89.84375,0.0,0,0
1772030236.262353,1772030236.2308557,-801.7578125,-873.046875,748.53515625,290.52734375,0.0,0,0
1772030236.30849,1772030236.2349043,153.80859375,642.08984375,-281.73828125,105.46875,0.0,0,0
1772030236.30864,1772030236.2387998,-1000.0,-752.9296875,-791.50390625,-177.24609375,0.0,0,0
1772030236.308706,1772030236.2426953,-1000.0,-1000.0,-259.765625,-222.16796875,0.0,0,0
1772030236.308764,1772030236.2465909,197.265625,-207.51953125,580.56640625,56.640625,0.0,0,0
1772030236.308823,1772030236.2504864,-762.6953125,989.2578125,775.390625,289.55078125,0.0,0,0
1772030236.308882,1772030236.254382,212.890625,-959.47265625,-189.94140625,137.20703125,0.0,0,0
1772030236.30894,1772030236.2582774,-1000.0,-94.23828125,-833.0078125,-160.15625,0.0,0,0
1772030236.3089979,1772030236.262173,-1000.0,-1000.0,-479.00390625,-252.44140625,0.0,0,0
1772030236.3090508,1772030236.2660682,-30.2734375,-437.98828125,434.08203125,-2.9296875,0.0,0,0
1772030236.309111,1772030236.2699637,-784.66796875,915.52734375,759.765625,249.51171875,0.0,0,0
1772030236.309168,1772030236.2738593,408.69140625,-923.33984375,-126.953125,173.828125,0.0,0,0
1772030236.3092248,1772030236.2777548,-911.1328125,-122.55859375,-820.3125,-112.3046875,0.0,0,0
1772030236.351613,1772030236.2817867,-1000.0,-1000.0,-522.4609375,-244.62890625,0.0,0,0
1772030236.351707,1772030236.2856822,-206.54296875,-420.8984375,420.41015625,-3.41796875,0.0,0,0
1772030236.351755,1772030236.2895777,-864.74609375,875.0,821.77734375,275.87890625,0.0,0,0
1772030236.3518,1772030236.2934732,635.7421875,-874.51171875,110.3515625,234.86328125,0.0,0,0
1772030236.351844,1772030236.2973688,-754.8828125,212.890625,-722.65625,-83.49609375,0.0,0,0
1772030236.351887,1772030236.3012643,-1000.0,-1000.0,-637.20703125,-244.62890625,0.0,0,0
1772030236.351928,1772030236.3051598,-203.61328125,-508.7890625,335.44921875,-17.08984375,0.0,0,0
1772030236.3519711,1772030236.3090553,-942.3828125,870.1171875,811.03515625,243.1640625,0.0,0,0
1772030236.352016,1772030236.3129508,885.7421875,-867.1875,220.703125,250.9765625,0.0,0,0
1772030236.3520708,1772030236.3168464,-431.15234375,179.19921875,-669.43359375,-20.01953125,0.0,0,0
1772030236.352134,1772030236.320742,-1000.0,-1000.0,-726.5625,-234.375,0.0,0,0
1772030236.3521721,1772030236.3246374,-174.8046875,-956.0546875,296.38671875,-64.94140625,0.0,0,0
1772030236.397481,1772030236.3286629,-991.69921875,333.49609375,804.6875,245.60546875,0.0,0,0
1772030236.3975701,1772030236.3325584,-966.30859375,-773.4375,341.796875,289.55078125,0.0,0,0
1772030236.397613,1772030236.336454,-116.2109375,139.16015625,-540.52734375,-8.30078125,0.0,0,0
1772030236.397656,1772030236.3403494,-1000.0,-1000.0,-763.18359375,-230.95703125,0.0,0,0
1772030236.397697,1772030236.344245,-318.84765625,-1000.0,211.42578125,-103.02734375,0.0,0,0
1772030236.397745,1772030236.3481405,940.4296875,-13.18359375,834.9609375,110.3515625,0.0,0,0
1772030236.3977869,1772030236.352036,-910.64453125,-773.4375,464.84375,232.91015625,0.0,0,0
1772030236.397828,1772030236.3559315,73.2421875,317.87109375,-471.19140625,66.40625,0.0,0,0
1772030236.3978822,1772030236.359827,-1000.0,-959.47265625,-828.61328125,-214.84375,0.0,0,0
1772030236.397952,1772030236.3637226,-512.20703125,-1000.0,12.20703125,-194.82421875,0.0,0,0
1772030236.398011,1772030236.3676183,844.7265625,-174.8046875,790.52734375,78.125,0.0,0,0
1772030236.398071,1772030236.3715138,-864.2578125,-824.70703125,546.875,292.48046875,0.0,0,0
1772030236.44339,1772030236.3755288,197.265625,500.0,-441.40625,6.8359375,0.0,0,0
1772030236.4435232,1772030236.3794243,-1000.0,-874.51171875,-839.35546875,-344.7265625,0.0,0,0
1772030236.4435892,1772030236.38332,-765.625,-1000.0,-168.9453125,-199.70703125,0.0,0,0
1772030236.443648,1772030236.3872156,613.76953125,-210.9375,684.08203125,127.9296875,0.0,0,0
1772030236.443707,1772030236.3911111,-813.96484375,-940.4296875,684.5703125,259.765625,0.0,0,0
1772030236.443765,1772030236.3950067,160.64453125,882.8125,-314.453125,70.80078125,0.0,0,0
1772030236.4438221,1772030236.3989022,-1000.0,-435.546875,-803.22265625,-199.21875,0.0,0,0
1772030236.443878,1772030236.4027977,-989.74609375,-1000.0,-285.64453125,-224.12109375,0.0,0,0
1772030236.443933,1772030236.4066932,270.5078125,-208.0078125,559.5703125,54.6875,0.0,0,0
1772030236.443991,1772030236.410589,-769.04296875,-928.7109375,699.21875,240.234375,0.0,0,0
1772030236.444046,1772030236.4144845,175.78125,854.4921875,-249.0234375,87.40234375,0.0,0,0
1772030236.4441018,1772030236.41838,-1000.0,-468.75,-802.734375,-157.2265625,0.0,0,0
1772030236.5188842,1772030236.4225502,-1000.0,-1000.0,-406.25,-208.49609375,0.0,0,0
1772030236.519003,1772030236.426446,26.3671875,-252.9296875,488.76953125,33.203125,0.0,0,0
1772030236.519064,1772030236.4303415,-773.4375,981.93359375,780.76171875,240.72265625,0.0,0,0
1772030236.519124,1772030236.434237,362.3046875,-958.0078125,-114.74609375,131.34765625,0.0,0,0
1772030236.5191832,1772030236.4381328,-934.5703125,-119.62890625,-825.1953125,-146.484375,0.0,0,0
1772030236.5192409,1772030236.4420283,-1000.0,-1000.0,-533.69140625,-263.18359375,0.0,0,0
1772030236.5192971,1772030236.4459238,-156.73828125,-424.8046875,411.1328125,-31.73828125,0.0,0,0
1772030236.5193548,1772030236.4498196,-834.47265625,886.23046875,771.484375,229.4921875,0.0,0,0
1772030236.519413,1772030236.453715,562.98828125,-885.7421875,11.71875,178.22265625,0.0,0,0
1772030236.519475,1772030236.4576106,-817.87109375,78.61328125,-764.6484375,-98.14453125,0.0,0,0
1772030236.519532,1772030236.4615064,-1000.0,-1000.0,-621.09375,-251.46484375,0.0,0,0
1772030236.5195851,1772030236.465402,-213.8671875,-768.06640625,349.609375,-39.55078125,0.0,0,0
1772030236.533277,1772030236.4694023,-922.36328125,579.58984375,785.64453125,204.1015625,0.0,0,0
1772030236.533366,1772030236.473298,817.87109375,-808.59375,184.08203125,198.2421875,0.0,0,0
1772030236.5334241,1772030236.4771936,-532.71484375,168.9453125,-663.57421875,-61.5234375,0.0,0,0
1772030236.533483,1772030236.481089,-1000.0,-1000.0,-714.35546875,-244.62890625,0.0,0,0
1772030236.533538,1772030236.4849849,-181.15234375,-927.734375,253.90625,-90.8203125,0.0,0,0
1772030236.5335958,1772030236.4888804,-980.95703125,382.8125,760.25390625,168.45703125,0.0,0,0
1772030236.533653,1772030236.4927762,-994.140625,-776.3671875,283.203125,214.84375,0.0,0,0
1772030236.533709,1772030236.4966717,-203.61328125,135.7421875,-593.75,-56.15234375,0.0,0,0
1772030236.533937,1772030236.5005672,-1000.0,-1000.0,-814.453125,-260.25390625,0.0,0,0
1772030236.533995,1772030236.504463,-253.90625,-1000.0,135.7421875,-139.6484375,0.0,0,0
1772030236.53405,1772030236.5083585,969.7265625,-41.9921875,769.53125,105.95703125,0.0,0,0
1772030236.534107,1772030236.5122542,-930.17578125,-778.3203125,398.4375,228.02734375,0.0,0,0
1772030236.5927129,1772030236.5162373,9.765625,164.0625,-503.41796875,3.41796875,0.0,0,0
1772030236.5928488,1772030236.5201328,-1000.0,-1000.0,-805.17578125,-245.1171875,0.0,0,0
1772030236.592911,1772030236.5240283,-441.89453125,-1000.0,32.71484375,-163.57421875,0.0,0,0
1772030236.59297,1772030236.527924,879.39453125,-189.94140625,747.55859375,108.3984375,0.0,0,0
1772030236.593032,1772030236.5318196,-877.9296875,-812.01171875,549.31640625,255.859375,0.0,0,0
1772030236.59309,1772030236.5357153,187.5,414.55078125,-393.06640625,47.36328125,0.0,0,0
1772030236.593146,1772030236.5396109,-1000.0,-925.29296875,-781.73828125,-206.0546875,0.0,0,0
1772030236.5932019,1772030236.5435066,-680.6640625,-1000.0,-62.98828125,-173.828125,0.0,0,0
1772030236.593257,1772030236.5474021,711.42578125,-237.79296875,715.8203125,100.5859375,0.0,0,0
1772030236.593313,1772030236.551298,-832.03125,-879.39453125,674.31640625,263.671875,0.0,0,0
1772030236.593369,1772030236.5551934,172.36328125,670.41015625,-312.5,68.359375,0.0,0,0
1772030236.5934248,1772030236.5590892,-1000.0,-722.65625,-786.1328125,-180.6640625,0.0,0,0
1772030236.63728,1772030236.563073,-924.8046875,-1000.0,-198.2421875,-190.91796875,0.0,0,0
1772030236.637413,1772030236.5669687,386.71875,-190.4296875,589.84375,54.6875,0.0,0,0
1772030236.6374762,1772030236.5708642,-780.2734375,-970.703125,681.640625,252.9296875,0.0,0,0
1772030236.637537,1772030236.57476,144.53125,974.609375,-226.07421875,98.14453125,0.0,0,0
1772030236.6376011,1772030236.5786555,-1000.0,-278.3203125,-769.04296875,-159.66796875,0.0,0,0
1772030236.637666,1772030236.5825512,-1000.0,-1000.0,-343.75,-211.9140625,0.0,0,0
1772030236.63772,1772030236.5864468,73.2421875,-182.6171875,525.390625,42.96875,0.0,0,0
1772030236.6377878,1772030236.5903425,-764.6484375,-973.6328125,796.38671875,263.671875,0.0,0,0
1772030236.637845,1772030236.594238,302.24609375,999.0234375,-120.1171875,130.859375,0.0,0,0
1772030236.637931,1772030236.5981338,-964.35546875,-187.5,-772.4609375,-144.04296875,0.0,0,0
1772030236.6379871,1772030236.6020293,-1000.0,-1000.0,-431.15234375,-251.953125,0.0,0,0
1772030236.63805,1772030236.605925,-113.76953125,-436.5234375,451.171875,-21.97265625,0.0,0,0
1772030236.682977,1772030236.6099732,-811.03515625,878.41796875,818.84765625,220.703125,0.0,0,0
1772030236.683083,1772030236.613869,495.60546875,-887.20703125,56.640625,157.71484375,0.0,0,0
1772030236.68313,1772030236.6177647,-867.67578125,61.5234375,-709.9609375,-118.1640625,0.0,0,0
1772030236.683174,1772030236.6216602,-1000.0,-1000.0,-533.203125,-250.0,0.0,0,0
1772030236.6832142,1772030236.625556,-223.6328125,-647.4609375,387.20703125,-21.484375,0.0,0,0
1772030236.683257,1772030236.6294515,-905.76171875,720.703125,787.109375,212.890625,0.0,0,0
1772030236.683298,1772030236.6333473,761.23046875,-831.0546875,111.328125,175.78125,0.0,0,0
1772030236.68334,1772030236.637243,-610.3515625,160.15625,-729.4921875,-95.21484375,0.0,0,0
1772030236.683381,1772030236.6411386,-1000.0,-1000.0,-748.046875,-282.71484375,0.0,0,0
1772030236.68342,1772030236.6450343,-187.5,-973.14453125,222.65625,-122.0703125,0.0,0,0
1772030236.6834612,1772030236.64893,-970.21484375,301.7578125,744.140625,147.4609375,0.0,0,0
1772030236.6835022,1772030236.6528256,973.6328125,-772.4609375,233.88671875,197.265625,0.0,0,0
1772030236.727586,1772030236.656861,-272.4609375,146.97265625,-628.41796875,-73.73046875,0.0,0,0
1772030236.7277172,1772030236.6607568,-1000.0,-1000.0,-787.109375,-268.06640625,0.0,0,0
1772030236.727773,1772030236.6646526,-218.26171875,-1000.0,159.66796875,-116.2109375,0.0,0,0
1772030236.727832,1772030236.6685483,984.86328125,85.44921875,730.46875,151.85546875,0.0,0,0
1772030236.727891,1772030236.6724439,-941.89453125,-762.6953125,340.33203125,216.796875,0.0,0,0
1772030236.727953,1772030236.6763396,-26.3671875,297.36328125,-523.92578125,-31.25,0.0,0,0
1772030236.72801,1772030236.6802354,-1000.0,-964.35546875,-832.51953125,-238.28125,0.0,0,0
1772030236.728066,1772030236.684131,-409.66796875,-1000.0,-0.48828125,-149.4140625,0.0,0,0
1772030236.72812,1772030236.6880267,895.99609375,-121.09375,690.4296875,104.00390625,0.0,0,0
1772030236.7281768,1772030236.6919224,-886.71875,-804.19921875,440.91796875,222.65625,0.0,0,0
1772030236.728245,1772030236.6958182,154.78515625,427.24609375,-453.125,10.7421875,0.0,0,0
1772030236.7283142,1772030236.6997137,-1000.0,-922.36328125,-841.30859375,-223.14453125,0.0,0,0
1772030236.8157399,1772030236.7037392,-611.81640625,-1000.0,-93.26171875,-157.2265625,0.0,0,0
1772030236.815904,1772030236.707635,777.34375,-139.6484375,721.6796875,102.05078125,0.0,0,0
1772030236.81597,1772030236.7115304,-845.703125,-859.86328125,582.03125,229.98046875,0.0,0,0
1772030236.81603,1772030236.7154262,182.12890625,673.33984375,-403.80859375,42.48046875,0.0,0,0
1772030236.816088,1772030236.719322,-1000.0,-696.77734375,-844.7265625,-224.609375,0.0,0,0
1772030236.816144,1772030236.7232177,-864.2578125,-1000.0,-239.74609375,-230.46875,0.0,0,0
1772030236.8161988,1772030236.7271135,478.515625,-213.37890625,590.33203125,58.10546875,0.0,0,0
1772030236.816256,1772030236.731009,-792.96875,-907.71484375,635.7421875,249.51171875,0.0,0,0
1772030236.816312,1772030236.7349048,150.390625,773.92578125,-322.265625,91.796875,0.0,0,0
1772030236.816386,1772030236.7388005,-1000.0,-594.7265625,-791.50390625,-169.43359375,0.0,0,0
1772030236.8164601,1772030236.7426963,-1000.0,-1000.0,-299.31640625,-220.703125,0.0,0,0
1772030236.81652,1772030236.746592,152.34375,-174.8046875,549.31640625,57.12890625,0.0,0,0
1772030236.820723,1772030236.750611,-761.71875,-995.60546875,783.203125,270.99609375,0.0,0,0
1772030236.820833,1772030236.7545066,257.32421875,-965.8203125,-145.99609375,140.625,0.0,0,0
1772030236.820897,1772030236.7584023,-985.83984375,-109.86328125,-780.76171875,-133.7890625,0.0,0,0
1772030236.82096,1772030236.762298,-1000.0,-1000.0,-433.59375,-246.58203125,0.0,0,0
1772030236.821017,1772030236.7661939,-48.828125,-321.77734375,451.171875,-1.46484375,0.0,0,0
1772030236.821074,1772030236.7700896,-793.45703125,925.29296875,815.91796875,248.53515625,0.0,0,0
1772030236.821132,1772030236.7739854,448.73046875,-895.01953125,-6.8359375,163.57421875,0.0,0,0
1772030236.821198,1772030236.7778811,-888.671875,204.1015625,-791.50390625,-113.76953125,0.0,0,0
1772030236.8212569,1772030236.781777,-1000.0,-1000.0,-592.7734375,-249.0234375,0.0,0,0
1772030236.8213198,1772030236.7856724,-216.30859375,-506.34765625,367.1875,-23.92578125,0.0,0,0
1772030236.821387,1772030236.7895682,-881.34765625,868.65234375,777.83203125,229.98046875,0.0,0,0
1772030236.8214452,1772030236.793464,686.5234375,-871.58203125,73.73046875,208.984375,0.0,0,0
1772030236.863059,1772030236.7974663,-700.1953125,211.9140625,-743.65234375,-56.640625,0.0,0,0
1772030236.863184,1772030236.801362,-1000.0,-1000.0,-687.5,-234.375,0.0,0,0
1772030236.863251,1772030236.8052578,-198.73046875,-568.84765625,312.98828125,-38.57421875,0.0,0,0
1772030236.863313,1772030236.8091536,-949.21875,828.61328125,791.015625,231.93359375,0.0,0,0
1772030236.863372,1772030236.8130493,910.15625,-853.02734375,233.3984375,246.58203125,0.0,0,0
1772030236.863431,1772030236.816945,-393.06640625,168.9453125,-618.1640625,-23.4375,0.0,0,0
1772030236.863489,1772030236.8208408,-1000.0,-1000.0,-736.81640625,-235.3515625,0.0,0,0
1772030236.863544,1772030236.8247366,-172.8515625,-992.1875,233.88671875,-98.6328125,0.0,0,0
1772030236.8636,1772030236.8286324,-994.62890625,247.55859375,809.08203125,188.96484375,0.0,0,0
1772030236.863657,1772030236.832528,-960.44921875,-767.578125,405.76171875,301.26953125,0.0,0,0
1772030236.863713,1772030236.8364239,-87.890625,289.0625,-512.20703125,43.45703125,0.0,0,0
1772030236.863769,1772030236.8403196,-1000.0,-977.5390625,-798.33984375,-224.12109375,0.0,0,0
1772030236.907905,1772030236.8443162,-341.796875,-1000.0,102.5390625,-135.7421875,0.0,0,0
1772030236.908003,1772030236.848212,929.6875,13.18359375,765.625,164.55078125,0.0,0,0
1772030236.908045,1772030236.8521078,-903.80859375,-785.64453125,493.1640625,289.55078125,0.0,0,0
1772030236.908088,1772030236.8560035,100.5859375,433.59375,-434.08203125,27.34375,0.0,0,0
1772030236.90813,1772030236.8598993,-1000.0,-926.26953125,-821.2890625,-231.4453125,0.0,0,0
1772030236.90817,1772030236.863795,-529.296875,-1000.0,13.671875,-161.1328125,0.0,0,0
1772030236.90821,1772030236.8676908,837.890625,27.83203125,801.26953125,148.92578125,0.0,0,0
1772030236.9082508,1772030236.8715866,-861.328125,-811.5234375,611.81640625,302.24609375,0.0,0,0
1772030236.908292,1772030236.8754823,192.3828125,578.125,-375.48828125,83.49609375,0.0,0,0
1772030236.908333,1772030236.879378,-1000.0,-772.94921875,-801.26953125,-170.41015625,0.0,0,0
1772030236.9083729,1772030236.8832738,-803.7109375,-1000.0,-122.55859375,-162.59765625,0.0,0,0
1772030236.908414,1772030236.8871696,563.96484375,-151.3671875,671.875,120.1171875,0.0,0,0
1772030236.967714,1772030236.8911517,-805.6640625,-962.40234375,676.26953125,312.98828125,0.0,0,0
1772030236.9678268,1772030236.8950477,155.76171875,974.609375,-277.34375,111.81640625,0.0,0,0
1772030236.967886,1772030236.8989434,-1000.0,-265.625,-797.36328125,-162.59765625,0.0,0,0
1772030236.967943,1772030236.9028392,-1000.0,-1000.0,-291.015625,-188.96484375,0.0,0,0
1772030236.967996,1772030236.906735,216.796875,-178.22265625,558.59375,62.01171875,0.0,0,0
1772030236.968053,1772030236.9106307,-764.16015625,-982.421875,750.48828125,275.390625,0.0,0,0
1772030236.96811,1772030236.9145265,201.66015625,-974.12109375,-206.0546875,140.625,0.0,0,0
1772030236.968168,1772030236.9184222,-1000.0,-135.7421875,-811.5234375,-134.27734375,0.0,0,0
1772030236.968222,1772030236.922318,-1000.0,-1000.0,-432.6171875,-231.4453125,0.0,0,0
1772030236.968276,1772030236.9262137,-16.11328125,-326.66015625,447.265625,9.27734375,0.0,0,0
1772030236.968331,1772030236.9301095,-782.2265625,933.10546875,751.46484375,256.8359375,0.0,0,0
1772030236.968388,1772030236.9340053,398.92578125,-904.78515625,-79.58984375,169.921875,0.0,0,0
1772030237.0125399,1772030236.9379907,-915.52734375,96.19140625,-771.97265625,-114.2578125,0.0,0,0
1772030237.012652,1772030236.9418864,-1000.0,-1000.0,-539.55078125,-231.93359375,0.0,0,0
1772030237.012697,1772030236.9457822,-197.265625,-511.23046875,389.16015625,-1.46484375,0.0,0,0
1772030237.012741,1772030236.949678,-858.88671875,848.6328125,793.45703125,240.234375,0.0,0,0
1772030237.0127842,1772030236.9535737,623.046875,-863.76953125,87.890625,188.96484375,0.0,0,0
1772030237.0128262,1772030236.9574695,-766.6015625,194.82421875,-700.68359375,-89.84375,0.0,0,0
1772030237.0128682,1772030236.9613652,-1000.0,-1000.0,-604.00390625,-262.20703125,0.0,0,0
1772030237.012908,1772030236.9652612,-205.078125,-798.33984375,311.03515625,-68.84765625,0.0,0,0
1772030237.0129511,1772030236.969157,-939.94140625,571.2890625,741.2109375,197.265625,0.0,0,0
1772030237.012993,1772030236.9730527,876.953125,-807.12890625,202.1484375,205.078125,0.0,0,0
1772030237.013036,1772030236.9769485,-444.82421875,162.59765625,-612.3046875,-70.80078125,0.0,0,0
1772030237.013078,1772030236.9808443,-1000.0,-1000.0,-687.98828125,-250.48828125,0.0,0,0
1772030237.057593,1772030236.984889,-175.78125,-975.09765625,214.84375,-72.75390625,0.0,0,0
1772030237.057712,1772030236.988785,-990.234375,299.8046875,691.89453125,162.59765625,0.0,0,0
1772030237.057757,1772030236.9926808,-969.23828125,-773.92578125,285.15625,205.078125,0.0,0,0
1772030237.0578,1772030236.9965765,-128.41796875,150.390625,-546.875,-36.62109375,0.0,0,0
1772030237.057842,1772030237.0004723,-1000.0,-1000.0,-762.20703125,-265.13671875,0.0,0,0
1772030237.057885,1772030237.004368,-309.5703125,-1000.0,108.88671875,-145.01953125,0.0,0,0
1772030237.0579379,1772030237.008264,945.3125,135.7421875,685.05859375,136.71875,0.0,0,0
1772030237.057987,1772030237.0121598,-914.0625,-761.71875,378.90625,218.75,0.0,0,0
1772030237.0580401,1772030237.0160556,61.03515625,188.96484375,-495.60546875,-34.66796875,0.0,0,0
1772030237.058109,1772030237.0199513,-1000.0,-994.140625,-787.59765625,-255.859375,0.0,0,0
1772030237.0581498,1772030237.0238473,-506.8359375,-1000.0,-32.2265625,-171.38671875,0.0,0,0
1772030237.058209,1772030237.027743,845.703125,-212.40234375,556.640625,100.5859375,0.0,0,0
1772030237.118168,1772030237.0318563,-864.74609375,-839.35546875,388.18359375,240.72265625,0.0,0,0
1772030237.11831,1772030237.035752,197.75390625,562.98828125,-430.17578125,26.85546875,0.0,0,0
1772030237.118358,1772030237.039648,-1000.0,-825.68359375,-809.08203125,-222.65625,0.0,0,0
1772030237.1184,1772030237.0435438,-763.18359375,-1000.0,-209.9609375,-198.2421875,0.0,0,0
1772030237.118442,1772030237.0474396,616.69921875,-205.078125,523.92578125,67.87109375,0.0,0,0
1772030237.118486,1772030237.0513356,-814.94140625,-946.2890625,532.71484375,226.5625,0.0,0,0
1772030237.118528,1772030237.0552313,162.59765625,900.390625,-334.47265625,51.26953125,0.0,0,0
1772030237.11857,1772030237.059127,-1000.0,-409.1796875,-768.5546875,-190.4296875,0.0,0,0
1772030237.11861,1772030237.063023,-979.00390625,-1000.0,-310.05859375,-227.05078125,0.0,0,0
1772030237.118651,1772030237.0669188,289.55078125,-184.08203125,450.68359375,28.80859375,0.0,0,0
1772030237.118693,1772030237.0708146,-770.5078125,-969.7265625,583.49609375,234.375,0.0,0,0
1772030237.1187341,1772030237.0747106,170.41015625,983.88671875,-293.45703125,80.078125,0.0,0,0
1772030237.1488361,1772030237.07874,-1000.0,-237.79296875,-777.83203125,-180.17578125,0.0,0,0
1772030237.1489751,1772030237.0826356,-1000.0,-1000.0,-411.62109375,-249.51171875,0.0,0,0
1772030237.149033,1772030237.0865316,23.4375,-326.171875,382.32421875,-18.5546875,0.0,0,0
1772030237.14909,1772030237.0904274,-772.94921875,933.59375,650.390625,215.8203125,0.0,0,0
1772030237.1491468,1772030237.0943234,350.5859375,-912.109375,-140.13671875,116.69921875,0.0,0,0
1772030237.149199,1772030237.0982192,-940.4296875,43.45703125,-695.80078125,-155.2734375,0.0,0,0
1772030237.1492422,1772030237.102115,-1000.0,-1000.0,-444.3359375,-253.90625,0.0,0,0
1772030237.149281,1772030237.106011,-157.71484375,-524.90234375,331.54296875,-28.3203125,0.0,0,0
1772030237.149323,1772030237.1099067,-829.58984375,849.609375,658.203125,211.42578125,0.0,0,0
1772030237.149368,1772030237.1138027,539.55078125,-872.0703125,-10.7421875,165.52734375,0.0,0,0
1772030237.149411,1772030237.1176984,-840.33203125,77.63671875,-662.59765625,-92.28515625,0.0,0,0
1772030237.149452,1772030237.1215944,-1000.0,-1000.0,-545.41015625,-251.46484375,0.0,0,0
1772030237.193829,1772030237.1256113,-216.796875,-508.7890625,273.92578125,-49.8046875,0.0,0,0
1772030237.1939359,1772030237.129507,-919.921875,849.609375,665.0390625,206.54296875,0.0,0,0
1772030237.193973,1772030237.133403,810.546875,-861.81640625,108.3984375,195.3125,0.0,0,0
1772030237.194047,1772030237.1372988,-571.2890625,183.59375,-647.94921875,-66.40625,0.0,0,0
1772030237.194088,1772030237.1411948,-1000.0,-1000.0,-648.4375,-254.39453125,0.0,0,0
1772030237.194116,1772030237.1450908,-93.26171875,-906.73828125,251.46484375,-74.70703125,0.0,0,0
1772030237.194144,1772030237.1489866,-992.1875,413.57421875,676.26953125,175.78125,0.0,0,0
1772030237.194195,1772030237.1528826,-993.65234375,-780.2734375,236.328125,218.26171875,0.0,0,0
1772030237.194253,1772030237.1567783,-200.1953125,136.71875,-562.5,-47.36328125,0.0,0,0
1772030237.194288,1772030237.1606743,-1000.0,-1000.0,-725.5859375,-250.0,0.0,0,0
1772030237.194315,1772030237.16457,-250.48828125,-1000.0,120.60546875,-104.00390625,0.0,0,0
1772030237.194342,1772030237.168466,973.14453125,-33.69140625,650.87890625,157.2265625,0.0,0,0
1772030237.237804,1772030237.1724644,-932.6171875,-777.34375,341.796875,243.65234375,0.0,0,0
1772030237.238017,1772030237.1763601,0.0,207.51953125,-491.69921875,6.34765625,0.0,0,0
1772030237.2381551,1772030237.1802561,-1000.0,-1000.0,-761.23046875,-241.2109375,0.0,0,0
1772030237.238226,1772030237.184152,-438.96484375,-1000.0,21.484375,-150.87890625,0.0,0,0
1772030237.2384992,1772030237.188048,880.37109375,-47.8515625,588.37890625,125.0,0.0,0,0
1772030237.238563,1772030237.191944,-878.90625,-793.45703125,379.8828125,250.9765625,0.0,0,0
1772030237.238608,1772030237.1958396,183.10546875,479.98046875,-442.3828125,23.4375,0.0,0,0
1772030237.2386508,1772030237.1997356,-1000.0,-866.69921875,-813.4765625,-219.23828125,0.0,0,0
1772030237.2386932,1772030237.2036314,-676.7578125,-1000.0,-169.43359375,-180.17578125,0.0,0,0
1772030237.238733,1772030237.2075274,714.84375,-236.328125,513.18359375,73.73046875,0.0,0,0
1772030237.238775,1772030237.2114232,-833.0078125,-861.328125,460.9375,245.60546875,0.0,0,0
1772030237.238816,1772030237.2153192,173.33984375,579.1015625,-382.32421875,57.6171875,0.0,0,0
1772030237.281945,1772030237.2193074,-1000.0,-817.87109375,-790.0390625,-201.171875,0.0,0,0
1772030237.2821279,1772030237.2232032,-917.48046875,-1000.0,-255.859375,-208.49609375,0.0,0,0
1772030237.2821918,1772030237.2270992,397.94921875,-204.1015625,500.0,57.12890625,0.0,0,0
1772030237.282252,1772030237.2309952,-781.73828125,-947.75390625,576.171875,250.0,0.0,0,0
1772030237.2823098,1772030237.234891,144.53125,902.83203125,-309.08203125,93.26171875,0.0,0,0
1772030237.282368,1772030237.238787,-1000.0,-398.4375,-770.01953125,-169.921875,0.0,0,0
1772030237.282424,1772030237.2426827,-1000.0,-1000.0,-355.95703125,-230.95703125,0.0,0,0
1772030237.282478,1772030237.2465787,80.078125,-207.03125,412.59765625,19.04296875,0.0,0,0
1772030237.2825348,1772030237.2504747,-764.6484375,-992.1875,606.93359375,243.65234375,0.0,0,0
1772030237.28259,1772030237.2543705,298.33984375,-984.375,-202.63671875,125.9765625,0.0,0,0
1772030237.282631,1772030237.2582664,-965.8203125,-159.66796875,-740.234375,-144.04296875,0.0,0,0
1772030237.282673,1772030237.2621624,-1000.0,-1000.0,-444.82421875,-234.375,0.0,0,0
1772030237.32689,1772030237.2661383,-109.375,-426.26953125,339.35546875,-13.671875,0.0,0,0
1772030237.326972,1772030237.2700343,-810.05859375,883.7890625,643.06640625,223.14453125,0.0,0,0
1772030237.3270028,1772030237.2739303,492.1875,-885.25390625,-56.640625,158.203125,0.0,0,0
1772030237.327032,1772030237.277826,-869.140625,84.47265625,-714.84375,-127.9296875,0.0,0,0
1772030237.327059,1772030237.281722,-1000.0,-1000.0,-547.36328125,-263.671875,0.0,0,0
1772030237.327086,1772030237.285618,-224.12109375,-489.2578125,315.4296875,-35.15625,0.0,0,0
1772030237.327113,1772030237.2895138,-904.296875,871.09375,669.921875,200.1953125,0.0,0,0
1772030237.32714,1772030237.2934098,755.859375,-873.53515625,56.15234375,169.921875,0.0,0,0
1772030237.327167,1772030237.2973058,-617.67578125,106.93359375,-663.0859375,-87.890625,0.0,0,0
1772030237.3271942,1772030237.3012016,-1000.0,-1000.0,-609.375,-277.34375,0.0,0,0
1772030237.327219,1772030237.3050976,-187.98828125,-887.6953125,254.8828125,-97.65625,0.0,0,0
1772030237.3272462,1772030237.3089936,-969.7265625,420.41015625,635.25390625,176.26953125,0.0,0,0
1772030237.431303,1772030237.3129606,972.65625,-782.71484375,194.3359375,197.75390625,0.0,0,0
1772030237.431464,1772030237.3168566,-276.3671875,145.5078125,-577.1484375,-78.61328125,0.0,0,0
1772030237.431526,1772030237.3207526,-1000.0,-1000.0,-714.84375,-280.76171875,0.0,0,0
1772030237.431581,1772030237.3246484,-209.9609375,-1000.0,153.80859375,-138.18359375,0.0,0,0
1772030237.431638,1772030237.3285444,989.2578125,83.984375,641.6015625,122.0703125,0.0,0,0
1772030237.4316952,1772030237.3324404,-945.3125,-763.18359375,309.5703125,208.984375,0.0,0,0
1772030237.431752,1772030237.3363364,-36.62109375,305.17578125,-511.71875,-27.34375,0.0,0,0
1772030237.431814,1772030237.3402321,-1000.0,-960.9375,-780.76171875,-246.58203125,0.0,0,0
1772030237.431869,1772030237.3441281,-395.99609375,-1000.0,31.73828125,-158.69140625,0.0,0,0
1772030237.431926,1772030237.3480241,903.3203125,-119.62890625,603.515625,103.515625,0.0,0,0
1772030237.431983,1772030237.3519201,-890.13671875,-798.828125,368.65234375,231.93359375,0.0,0,0
1772030237.432048,1772030237.355816,144.53125,339.84375,-466.30859375,4.8828125,0.0,0,0
1772030237.434286,1772030237.3598666,-1000.0,-954.58984375,-779.296875,-267.578125,0.0,0,0
1772030237.43441,1772030237.3637624,-600.5859375,-1000.0,-94.23828125,-209.47265625,0.0,0,0
1772030237.434462,1772030237.3676584,783.69140625,-251.46484375,560.546875,72.265625,0.0,0,0
1772030237.434506,1772030237.3715544,-847.65625,-843.75,467.7734375,229.98046875,0.0,0,0
1772030237.434549,1772030237.3754504,183.59375,502.9296875,-394.04296875,41.9921875,0.0,0,0
1772030237.434591,1772030237.3793464,-1000.0,-885.7421875,-764.16015625,-219.23828125,0.0,0,0
1772030237.434633,1772030237.3832424,-855.95703125,-1000.0,-200.1953125,-222.65625,0.0,0,0
1772030237.434686,1772030237.3871384,490.234375,-211.9140625,498.53515625,47.36328125,0.0,0,0
1772030237.434728,1772030237.3910341,-794.921875,-939.453125,530.2734375,234.86328125,0.0,0,0
1772030237.434771,1772030237.3949301,150.390625,878.41796875,-315.91796875,61.03515625,0.0,0,0
1772030237.434813,1772030237.3988261,-1000.0,-438.4765625,-765.13671875,-193.84765625,0.0,0,0
1772030237.434873,1772030237.4027221,-1000.0,-1000.0,-336.42578125,-244.62890625,0.0,0,0
1772030237.476747,1772030237.406749,154.296875,-201.171875,429.6875,5.37109375,0.0,0,0
1772030237.4768572,1772030237.410645,-762.20703125,-989.74609375,604.4921875,214.84375,0.0,0,0
1772030237.47691,1772030237.414541,245.60546875,-982.421875,-223.6328125,74.70703125,0.0,0,0
1772030237.476955,1772030237.418437,-992.1875,-173.828125,-749.51171875,-203.61328125,0.0,0,0
1772030237.4769971,1772030237.422333,-1000.0,-1000.0,-439.453125,-285.15625,0.0,0,0
1772030237.477036,1772030237.426229,-39.0625,-280.2734375,354.98046875,-38.57421875,0.0,0,0
1772030237.477077,1772030237.430125,-788.57421875,966.30859375,639.16015625,196.77734375,0.0,0,0
1772030237.4771478,1772030237.434021,419.43359375,-933.10546875,-124.0234375,106.93359375,0.0,0,0
1772030237.477191,1772030237.437917,-904.296875,-21.97265625,-739.2578125,-172.8515625,0.0,0,0
1772030237.477246,1772030237.4418128,-1000.0,-1000.0,-552.734375,-293.9453125,0.0,0,0
1772030237.4772851,1772030237.4457088,-220.703125,-635.7421875,273.92578125,-83.49609375,0.0,0,0
1772030237.477346,1772030237.4496047,-874.51171875,713.37890625,658.69140625,167.96875,0.0,0,0
1772030237.522285,1772030237.4536254,662.109375,-832.03125,21.97265625,141.11328125,0.0,0,0
1772030237.5224051,1772030237.4575214,-729.98046875,181.640625,-688.96484375,-131.34765625,0.0,0,0
1772030237.522462,1772030237.4614174,-1000.0,-1000.0,-624.51171875,-284.1796875,0.0,0,0
1772030237.522502,1772030237.4653134,-200.68359375,-849.609375,231.4453125,-98.14453125,0.0,0,0
1772030237.5225449,1772030237.4692094,-947.265625,499.51171875,654.296875,154.296875,0.0,0,0
1772030237.5225868,1772030237.4731054,901.85546875,-793.9453125,182.12890625,182.12890625,0.0,0,0
1772030237.52263,1772030237.4770014,-406.73828125,148.92578125,-573.73046875,-79.58984375,0.0,0,0
1772030237.5226712,1772030237.4808974,-1000.0,-1000.0,-671.38671875,-276.85546875,0.0,0,0
1772030237.522712,1772030237.4847934,-173.33984375,-1000.0,178.22265625,-134.765625,0.0,0,0
1772030237.522764,1772030237.4886894,-993.1640625,128.90625,636.71875,125.0,0.0,0,0
1772030237.522804,1772030237.4925854,-962.890625,-763.18359375,275.390625,207.51953125,0.0,0,0
1772030237.522857,1772030237.4964814,-100.09765625,215.8203125,-513.18359375,-47.36328125,0.0,0,0
1772030237.5670981,1772030237.500491,-1000.0,-1000.0,-731.4453125,-279.78515625,0.0,0,0
1772030237.567188,1772030237.504387,-334.9609375,-1000.0,93.75,-150.390625,0.0,0,0
1772030237.567233,1772030237.508283,932.6171875,25.390625,648.92578125,125.9765625,0.0,0,0
1772030237.567306,1772030237.512179,-905.76171875,-783.69140625,394.53125,234.86328125,0.0,0,0
1772030237.5673559,1772030237.516075,91.796875,456.54296875,-413.57421875,8.7890625,0.0,0,0
1772030237.5673978,1772030237.519971,-1000.0,-902.34375,-723.6328125,-245.1171875,0.0,0,0
1772030237.567439,1772030237.523867,-528.80859375,-1000.0,-10.25390625,-180.6640625,0.0,0,0
1772030237.56748,1772030237.527763,836.9140625,-9.27734375,599.609375,94.23828125,0.0,0,0
1772030237.5676951,1772030237.531659,-861.328125,-839.84375,458.49609375,227.5390625,0.0,0,0
1772030237.5677388,1772030237.535555,192.87109375,670.41015625,-349.12109375,21.484375,0.0,0,0
1772030237.5677812,1772030237.539451,-1000.0,-671.875,-734.375,-219.23828125,0.0,0,0
1772030237.567822,1772030237.5433471,-795.8984375,-1000.0,-166.50390625,-204.58984375,0.0,0,0
1772030237.612873,1772030237.5473504,574.21875,-200.1953125,543.45703125,60.546875,0.0,0,0
1772030237.613011,1772030237.5512464,-807.12890625,-942.3828125,545.41015625,229.00390625,0.0,0,0
1772030237.613078,1772030237.5551424,156.73828125,892.08984375,-307.6171875,48.33984375,0.0,0,0
1772030237.613135,1772030237.5590384,-1000.0,-421.875,-722.16796875,-184.08203125,0.0,0,0
1772030237.613191,1772030237.5629346,-1000.0,-1000.0,-266.6015625,-210.9375,0.0,0,0
1772030237.6132438,1772030237.5668306,228.02734375,-179.19921875,496.58203125,35.64453125,0.0,0,0
1772030237.613302,1772030237.5707266,-765.13671875,-980.46875,628.90625,228.515625,0.0,0,0
1772030237.613358,1772030237.5746226,196.2890625,-989.74609375,-257.32421875,80.078125,0.0,0,0
1772030237.613424,1772030237.5785186,-1000.0,-175.29296875,-759.27734375,-192.87109375,0.0,0,0
1772030237.613479,1772030237.5824146,-1000.0,-1000.0,-396.484375,-262.6953125,0.0,0,0
1772030237.6135318,1772030237.5863109,-5.859375,-340.8203125,395.01953125,-30.2734375,0.0,0,0
1772030237.6135879,1772030237.5902069,-779.78515625,925.29296875,668.9453125,172.36328125,0.0,0,0
1772030237.657799,1772030237.5942008,390.13671875,-899.4140625,-78.61328125,76.66015625,0.0,0,0
1772030237.657907,1772030237.5980968,-920.8984375,83.49609375,-679.19921875,-208.0078125,0.0,0,0
1772030237.657954,1772030237.6019928,-1000.0,-1000.0,-462.890625,-327.63671875,0.0,0,0
1772030237.65801,1772030237.6058888,-182.12890625,-405.76171875,346.19140625,-83.0078125,0.0,0,0
1772030237.6580532,1772030237.609785,-852.5390625,905.76171875,680.17578125,143.06640625,0.0,0,0
1772030237.6580951,1772030237.613681,613.28125,-884.27734375,79.58984375,60.546875,0.0,0,0
1772030237.658137,1772030237.617577,-773.4375,204.58984375,-574.21875,-215.33203125,0.0,0,0
1772030237.658179,1772030237.621473,-1000.0,-1000.0,-516.6015625,-377.44140625,0.0,0,0
1772030237.658218,1772030237.625369,-207.03125,-787.59765625,331.54296875,-184.08203125,0.0,0,0
1772030237.658265,1772030237.6292653,-934.08203125,584.9609375,733.3984375,84.9609375,0.0,0,0
1772030237.6583061,1772030237.6331613,858.88671875,-807.12890625,224.12109375,87.40234375,0.0,0,0
1772030237.6583629,1772030237.6370573,-472.16796875,155.2734375,-527.83203125,-184.5703125,0.0,0,0
1772030237.717068,1772030237.6411166,-1000.0,-1000.0,-577.63671875,-359.375,0.0,0,0
1772030237.717172,1772030237.6450126,-177.734375,-1000.0,279.296875,-201.66015625,0.0,0,0
1772030237.717217,1772030237.6489089,-986.328125,197.75390625,699.21875,59.5703125,0.0,0,0
1772030237.717262,1772030237.6528049,-979.98046875,-762.6953125,281.73828125,117.67578125,0.0,0,0
1772030237.7173052,1772030237.6567008,-157.2265625,140.13671875,-521.484375,-122.55859375,0.0,0,0
1772030237.71735,1772030237.660597,-1000.0,-1000.0,-668.9453125,-312.5,0.0,0,0
1772030237.717389,1772030237.664493,-301.7578125,-1000.0,136.23046875,-168.45703125,0.0,0,0
1772030237.717431,1772030237.668389,948.2421875,-33.69140625,614.2578125,98.6328125,0.0,0,0
1772030237.717473,1772030237.6722853,-916.50390625,-775.87890625,320.80078125,186.03515625,0.0,0,0
1772030237.717515,1772030237.6761813,50.78125,275.87890625,-496.58203125,-39.55078125,0.0,0,0
1772030237.717557,1772030237.6800773,-1000.0,-981.93359375,-758.30078125,-256.34765625,0.0,0,0
1772030237.717598,1772030237.6839733,-484.86328125,-1000.0,-37.109375,-169.43359375,0.0,0,0
1772030237.7626119,1772030237.6879575,858.88671875,-149.4140625,547.8515625,94.7265625,0.0,0,0
1772030237.7627468,1772030237.6918538,-870.1171875,-816.89453125,383.30078125,242.67578125,0.0,0,0
1772030237.762795,1772030237.6957498,191.89453125,499.51171875,-451.171875,41.50390625,0.0,0,0
1772030237.7628381,1772030237.699646,-1000.0,-873.046875,-836.42578125,-218.75,0.0,0,0
1772030237.76288,1772030237.703542,-719.7265625,-1000.0,-239.2578125,-180.17578125,0.0,0,0
1772030237.762922,1772030237.707438,666.50390625,-186.5234375,490.72265625,99.609375,0.0,0,0
1772030237.762963,1772030237.7113342,-823.73046875,-944.82421875,475.09765625,270.99609375,0.0,0,0
