timestamp,lsl_timestamp,TP9,AF7,AF8,TP10,Right AUX,keypress_A,keypress_B
1765394174.498667,1765394174.4292014,31.73828125,-27.83203125,-40.0390625,315.91796875,0.0,0,0
1765394174.4987361,1765394174.433094,168.9453125,-6.8359375,-19.04296875,-918.9453125,0.0,0,0
1765394174.498752,1765394174.4369864,115.72265625,-16.11328125,-7.32421875,486.81640625,0.0,0,0
1765394174.498764,1765394174.440879,-92.7734375,-42.96875,-21.484375,-895.5078125,0.0,0,0
1765394174.498773,1765394174.4447718,-104.00390625,-32.2265625,-40.52734375,-591.30859375,0.0,0,0
1765394174.498781,1765394174.4486644,18.5546875,-11.71875,-37.109375,263.671875,0.0,0,0
1765394174.4987898,1765394174.4525568,140.13671875,-7.8125,-22.94921875,-968.75,0.0,0,0
1765394174.4987981,1765394174.4564495,104.00390625,-32.2265625,-17.08984375,468.75,0.0,0,0
1765394174.498805,1765394174.4603422,-96.19140625,-53.7109375,-29.296875,-925.29296875,0.0,0,0
1765394174.498813,1765394174.4642348,-119.62890625,-34.66796875,-39.55078125,-461.9140625,0.0,0,0
1765394174.498821,1765394174.4681275,-34.66796875,-32.71484375,-52.24609375,31.73828125,0.0,0,0
1765394174.4988291,1765394174.47202,87.40234375,-35.64453125,-35.64453125,683.59375,0.0,0,0
1765394174.544694,1765394174.4760833,130.859375,-40.0390625,-15.13671875,887.20703125,0.0,0,0
1765394174.5447779,1765394174.479976,-78.61328125,-53.7109375,-25.87890625,-600.09765625,0.0,0,0
1765394174.5448132,1765394174.4838686,-145.5078125,-41.50390625,-40.52734375,-730.95703125,0.0,0,0
1765394174.544845,1765394174.4877613,-34.66796875,-31.25,-49.31640625,11.23046875,0.0,0,0
1765394174.544875,1765394174.4916537,82.03125,-17.08984375,-36.1328125,658.69140625,0.0,0,0
1765394174.544905,1765394174.4955463,137.6953125,-11.23046875,-4.8828125,-959.9609375,0.0,0,0
1765394174.544937,1765394174.499439,-55.17578125,-35.64453125,-9.765625,-288.57421875,0.0,0,0
1765394174.544965,1765394174.5033317,-161.62109375,-46.875,-45.8984375,-802.734375,0.0,0,0
1765394174.544994,1765394174.5072243,-69.3359375,-27.34375,-63.96484375,-227.5390625,0.0,0,0
1765394174.545023,1765394174.511117,51.26953125,-4.8828125,-37.109375,479.98046875,0.0,0,0
1765394174.5450518,1765394174.5150096,139.16015625,-15.625,-4.39453125,-931.15234375,0.0,0,0
1765394174.5450811,1765394174.5189023,-35.15625,-36.62109375,-13.18359375,-194.3359375,0.0,0,0
1765394174.5912268,1765394174.5229526,-166.015625,-40.0390625,-43.45703125,-925.29296875,0.0,0,0
1765394174.591338,1765394174.5268452,-83.49609375,-31.73828125,-58.59375,-295.8984375,0.0,0,0
1765394174.5913842,1765394174.5307379,39.55078125,-19.53125,-37.109375,489.74609375,0.0,0,0
1765394174.591425,1765394174.5346305,144.04296875,-12.6953125,-5.37109375,-918.45703125,0.0,0,0
1765394174.591464,1765394174.5385232,-12.6953125,-27.83203125,-3.41796875,-133.7890625,0.0,0,0
1765394174.591501,1765394174.5424159,-151.85546875,-31.25,-22.94921875,-802.24609375,0.0,0,0
1765394174.591538,1765394174.5463085,-88.37890625,-36.1328125,-52.24609375,-413.57421875,0.0,0,0
1765394174.5915751,1765394174.5502012,16.11328125,-36.62109375,-39.0625,117.67578125,0.0,0,0
1765394174.5916119,1765394174.5540938,144.04296875,-11.23046875,-6.34765625,-903.80859375,0.0,0,0
1765394174.59165,1765394174.5579865,8.30078125,-38.57421875,-19.04296875,-80.078125,0.0,0,0
1765394174.5916858,1765394174.5618792,-152.34375,-50.29296875,-26.3671875,-912.109375,0.0,0,0
1765394174.591723,1765394174.5657718,-104.00390625,-28.80859375,-35.64453125,-383.30078125,0.0,0,0
1765394174.6379032,1765394174.5698118,-4.8828125,-18.5546875,-34.66796875,119.62890625,0.0,0,0
1765394174.638293,1765394174.5737045,136.23046875,-2.9296875,-3.90625,-877.44140625,0.0,0,0
1765394174.63903,1765394174.5775971,41.015625,-20.01953125,2.9296875,232.91015625,0.0,0,0
1765394174.639659,1765394174.58149,-144.53125,-35.64453125,-12.20703125,-956.54296875,0.0,0,0
1765394174.6408262,1765394174.5853827,-107.91015625,-27.83203125,-31.73828125,-389.16015625,0.0,0,0
1765394174.6408792,1765394174.5892754,4.39453125,-20.5078125,-31.73828125,250.9765625,0.0,0,0
1765394174.6409118,1765394174.593168,130.37109375,-16.6015625,-5.859375,-917.48046875,0.0,0,0
1765394174.640952,1765394174.5970607,63.96484375,-24.4140625,-3.90625,392.08984375,0.0,0,0
1765394174.640984,1765394174.6009536,-134.765625,-39.0625,-32.71484375,-990.72265625,0.0,0,0
1765394174.641015,1765394174.6048462,-142.08984375,-46.875,-51.7578125,-648.92578125,0.0,0,0
1765394174.641045,1765394174.608739,-20.99609375,-33.69140625,-44.921875,186.5234375,0.0,0,0
1765394174.641078,1765394174.6126316,115.234375,-15.13671875,-21.97265625,-957.51953125,0.0,0,0
1765394174.6795368,1765394174.616649,66.40625,-36.1328125,-22.94921875,397.4609375,0.0,0,0
1765394174.679616,1765394174.6205416,-123.046875,-57.6171875,-31.25,-942.87109375,0.0,0,0
1765394174.679643,1765394174.6244345,-127.44140625,-39.55078125,-34.1796875,-540.0390625,0.0,0,0
1765394174.679668,1765394174.6283271,-34.66796875,-26.85546875,-40.52734375,65.91796875,0.0,0,0
1765394174.6796968,1765394174.6322198,88.8671875,-14.6484375,-23.4375,791.015625,0.0,0,0
1765394174.679722,1765394174.6361127,122.55859375,-16.11328125,0.9765625,920.41015625,0.0,0,0
1765394174.6797462,1765394174.6400054,-84.47265625,-43.9453125,-16.6015625,-553.7109375,0.0,0,0
1765394174.67977,1765394174.643898,-162.59765625,-34.66796875,-40.52734375,-700.68359375,0.0,0,0
1765394174.679797,1765394174.6477907,-63.4765625,-22.94921875,-52.734375,9.27734375,0.0,0,0
1765394174.679822,1765394174.6516836,56.15234375,-22.94921875,-29.296875,644.04296875,0.0,0,0
1765394174.6798458,1765394174.6555762,121.58203125,-18.5546875,-5.37109375,909.1796875,0.0,0,0
1765394174.679871,1765394174.659469,-68.84765625,-39.0625,-19.04296875,-511.23046875,0.0,0,0
1765394174.724778,1765394174.6634772,-150.87890625,-40.52734375,-30.76171875,-701.66015625,0.0,0,0
1765394174.7248929,1765394174.6673698,-58.10546875,-25.87890625,-43.45703125,-122.0703125,0.0,0,0
1765394174.724926,1765394174.6712627,48.828125,-14.6484375,-31.25,465.33203125,0.0,0,0
1765394174.724958,1765394174.6751554,124.0234375,-20.5078125,-12.20703125,971.19140625,0.0,0,0
1765394174.72499,1765394174.679048,-62.01171875,-49.8046875,-21.484375,-413.0859375,0.0,0,0
1765394174.725021,1765394174.682941,-160.15625,-49.31640625,-25.390625,-629.8828125,0.0,0,0
1765394174.7250502,1765394174.6868336,-83.984375,-25.390625,-39.55078125,-180.17578125,0.0,0,0
1765394174.725079,1765394174.6907265,16.6015625,-13.671875,-40.52734375,165.52734375,0.0,0,0
1765394174.725108,1765394174.6946192,132.8125,-23.4375,-20.5078125,-988.76953125,0.0,0,0
1765394174.725138,1765394174.6985118,-38.0859375,-45.8984375,-21.484375,-195.80078125,0.0,0,0
1765394174.725167,1765394174.7024047,-176.7578125,-46.38671875,-31.73828125,-896.97265625,0.0,0,0
1765394174.7251961,1765394174.7062974,-104.00390625,-31.25,-43.45703125,-447.75390625,0.0,0,0
1765394174.783246,1765394174.7102923,7.32421875,-18.06640625,-34.66796875,281.25,0.0,0,0
1765394174.783328,1765394174.714185,128.90625,-12.20703125,-8.30078125,-865.72265625,0.0,0,0
1765394174.783359,1765394174.718078,-17.08984375,-34.66796875,-8.30078125,-31.73828125,0.0,0,0
1765394174.783384,1765394174.7219706,-178.22265625,-44.921875,-24.90234375,-917.96875,0.0,0,0
1765394174.783411,1765394174.7258635,-122.55859375,-38.0859375,-44.921875,-399.4140625,0.0,0,0
1765394174.783435,1765394174.729756,-9.765625,-17.578125,-31.25,218.26171875,0.0,0,0
1765394174.783458,1765394174.733649,127.44140625,5.37109375,-5.859375,-925.29296875,0.0,0,0
1765394174.783482,1765394174.7375417,10.7421875,-29.296875,-12.6953125,-13.671875,0.0,0,0
1765394174.783506,1765394174.7414343,-156.25,-49.31640625,-18.06640625,-1000.0,0.0,0,0
1765394174.783529,1765394174.7453272,-118.1640625,-35.64453125,-32.2265625,-420.8984375,0.0,0,0
1765394174.7835531,1765394174.74922,-16.6015625,-24.90234375,-32.71484375,174.31640625,0.0,0,0
1765394174.783593,1765394174.7531128,117.1875,-10.25390625,-7.8125,-928.22265625,0.0,0,0
1765394174.829368,1765394174.75709,46.875,-28.3203125,-0.48828125,354.4921875,0.0,0,0
1765394174.8295271,1765394174.7609828,-146.97265625,-49.8046875,-14.16015625,-970.21484375,0.0,0,0
1765394174.830065,1765394174.7648757,-140.625,-39.55078125,-39.0625,-556.640625,0.0,0,0
1765394174.830097,1765394174.7687683,-36.1328125,-28.80859375,-50.78125,28.3203125,0.0,0,0
1765394174.830122,1765394174.7726612,104.00390625,-20.5078125,-20.01953125,933.10546875,0.0,0,0
1765394174.830147,1765394174.776554,77.1484375,-12.20703125,-2.9296875,616.69921875,0.0,0,0
1765394174.8301702,1765394174.7804468,-125.9765625,-18.06640625,-20.5078125,-825.68359375,0.0,0,0
1765394174.830194,1765394174.7843397,-148.92578125,-35.15625,-40.52734375,-727.5390625,0.0,0,0
1765394174.830217,1765394174.7882323,-45.8984375,-32.2265625,-50.78125,-60.546875,0.0,0,0
1765394174.830241,1765394174.7921252,80.56640625,-20.01953125,-31.73828125,807.12890625,0.0,0,0
1765394174.830264,1765394174.796018,100.5859375,-27.34375,-1.953125,768.06640625,0.0,0,0
1765394174.830288,1765394174.7999108,-97.16796875,-48.33984375,-6.8359375,-664.55078125,0.0,0,0
1765394174.8754299,1765394174.8039837,-157.71484375,-48.828125,-40.52734375,-717.28515625,0.0,0,0
1765394174.8755,1765394174.8078763,-66.40625,-47.8515625,-59.08203125,-88.37890625,0.0,0,0
1765394174.875537,1765394174.8117692,55.17578125,-40.52734375,-29.296875,667.48046875,0.0,0,0
1765394174.8755689,1765394174.8156621,112.3046875,-41.9921875,-13.18359375,934.08203125,0.0,0,0
1765394174.875647,1765394174.8195548,-87.40234375,-57.12890625,-20.5078125,-531.73828125,0.0,0,0
1765394174.875689,1765394174.8234477,-149.4140625,-36.1328125,-19.04296875,-440.91796875,0.0,0,0
1765394174.8757749,1765394174.8273406,-77.63671875,-31.25,-45.8984375,-265.13671875,0.0,0,0
1765394174.875865,1765394174.8312335,24.90234375,-29.78515625,-36.62109375,99.12109375,0.0,0,0
1765394174.875903,1765394174.8351262,140.625,-16.6015625,-6.34765625,-915.0390625,0.0,0,0
1765394174.875935,1765394174.839019,-47.36328125,-26.85546875,-14.16015625,-343.75,0.0,0,0
1765394174.875967,1765394174.842912,-152.34375,-34.66796875,-25.390625,-706.54296875,0.0,0,0
1765394174.8760161,1765394174.8468046,-81.0546875,-33.69140625,-42.96875,-184.08203125,0.0,0,0
1765394174.919497,1765394174.8508625,8.7890625,-30.2734375,-43.9453125,230.95703125,0.0,0,0
1765394174.9195971,1765394174.8547554,123.046875,-24.4140625,-17.578125,-930.17578125,0.0,0,0
1765394174.91967,1765394174.8586483,-40.52734375,-43.45703125,-16.11328125,-185.05859375,0.0,0,0
1765394174.919728,1765394174.862541,-169.921875,-48.33984375,-33.69140625,-821.77734375,0.0,0,0
1765394174.919762,1765394174.8664339,-97.65625,-42.96875,-50.29296875,-347.16796875,0.0,0,0
1765394174.919799,1765394174.8703268,11.71875,-30.76171875,-35.64453125,151.3671875,0.0,0,0
1765394174.9198751,1765394174.8742197,142.578125,-11.71875,-4.8828125,-876.46484375,0.0,0,0
1765394174.919915,1765394174.8781126,-2.44140625,-38.57421875,-4.39453125,29.78515625,0.0,0,0
1765394174.919947,1765394174.8820055,-168.9453125,-39.0625,-26.3671875,-987.79296875,0.0,0,0
1765394174.919977,1765394174.885898,-113.28125,-22.4609375,-44.43359375,-403.3203125,0.0,0,0
1765394174.9200058,1765394174.889791,8.30078125,-26.85546875,-31.25,398.92578125,0.0,0,0
1765394174.920038,1765394174.893684,127.44140625,-18.5546875,-8.7890625,-899.90234375,0.0,0,0
1765394174.965096,1765394174.897731,1.953125,-41.9921875,-10.25390625,14.6484375,0.0,0,0
1765394174.965228,1765394174.901624,-149.4140625,-50.29296875,-13.671875,-868.65234375,0.0,0,0
1765394174.965271,1765394174.9055169,-109.375,-44.921875,-28.3203125,-370.1171875,0.0,0,0
1765394174.965311,1765394174.9094098,-28.80859375,-45.41015625,-42.48046875,-43.9453125,0.0,0,0
1765394174.96535,1765394174.9133027,122.0703125,-26.3671875,-23.4375,-979.4921875,0.0,0,0
1765394174.965389,1765394174.9171956,59.08203125,-32.2265625,-4.39453125,421.875,0.0,0,0
1765394174.9654279,1765394174.9210885,-135.7421875,-49.31640625,-20.99609375,-1000.0,0.0,0,0
1765394174.965467,1765394174.9249814,-122.55859375,-41.9921875,-45.41015625,-590.8203125,0.0,0,0
1765394174.9655051,1765394174.9288743,-4.8828125,-14.6484375,-49.8046875,226.5625,0.0,0,0
1765394174.9655428,1765394174.9327672,118.1640625,-7.8125,-26.3671875,989.74609375,0.0,0,0
1765394174.9655712,1765394174.93666,91.30859375,-24.90234375,5.859375,558.59375,0.0,0,0
1765394174.9656,1765394174.940553,-103.515625,-39.0625,-5.37109375,-820.80078125,0.0,0,0
1765394175.026016,1765394174.944703,-128.41796875,-37.59765625,-29.296875,-589.35546875,0.0,0,0
1765394175.026206,1765394174.9485962,-23.4375,-26.3671875,-33.203125,74.70703125,0.0,0,0
1765394175.0262458,1765394174.9524891,110.3515625,-11.23046875,-9.765625,893.06640625,0.0,0,0
1765394175.026273,1765394174.956382,110.3515625,-24.90234375,2.44140625,690.4296875,0.0,0,0
1765394175.026298,1765394174.960275,-104.4921875,-50.78125,-14.6484375,-809.5703125,0.0,0,0
1765394175.026322,1765394174.9641678,-130.859375,-37.59765625,-25.390625,-409.66796875,0.0,0,0
1765394175.026347,1765394174.9680607,-50.78125,-20.99609375,-27.83203125,18.06640625,0.0,0,0
1765394175.0263722,1765394174.9719539,54.19921875,-0.48828125,-19.04296875,498.53515625,0.0,0,0
1765394175.026397,1765394174.9758468,108.88671875,-6.34765625,-9.765625,727.05078125,0.0,0,0
1765394175.026421,1765394174.9797397,-87.890625,-49.31640625,-10.7421875,-760.7421875,0.0,0,0
1765394175.0264452,1765394174.9836326,-141.6015625,-40.0390625,-17.578125,-590.8203125,0.0,0,0
1765394175.026468,1765394174.9875255,-56.15234375,-28.3203125,-27.34375,-60.05859375,0.0,0,0
1765394175.0551429,1765394174.9915555,42.48046875,-32.2265625,-20.5078125,381.8359375,0.0,0,0
1765394175.0552351,1765394174.9954484,133.30078125,-29.296875,1.953125,-996.58203125,0.0,0,0
1765394175.055265,1765394174.9993415,-47.8515625,-48.828125,0.48828125,-333.984375,0.0,0,0
1765394175.055291,1765394175.0032344,-163.0859375,-51.7578125,-18.06640625,-714.84375,0.0,0,0
1765394175.055315,1765394175.0071273,-90.8203125,-46.875,-46.38671875,-287.59765625,0.0,0,0
1765394175.055339,1765394175.0110202,16.11328125,-30.76171875,-29.296875,195.80078125,0.0,0,0
1765394175.0553632,1765394175.0149133,132.8125,-21.97265625,-1.953125,980.46875,0.0,0,0
1765394175.055388,1765394175.0188062,-36.1328125,-47.8515625,-5.859375,-297.36328125,0.0,0,0
1765394175.055412,1765394175.022699,-158.203125,-48.828125,-13.18359375,-767.578125,0.0,0,0
1765394175.0554361,1765394175.0265923,-92.7734375,-41.50390625,-35.64453125,-310.05859375,0.0,0,0
1765394175.055459,1765394175.0304852,9.27734375,-26.85546875,-31.25,214.84375,0.0,0,0
1765394175.0554821,1765394175.034378,129.8828125,-12.20703125,-6.34765625,-873.53515625,0.0,0,0
1765394175.116031,1765394175.0384908,-12.20703125,-38.0859375,0.0,-16.6015625,0.0,0,0
1765394175.1160882,1765394175.042384,-166.015625,-54.6875,-21.97265625,-912.109375,0.0,0,0
1765394175.11612,1765394175.0462768,-104.4921875,-37.109375,-43.45703125,-331.0546875,0.0,0,0
1765394175.11615,1765394175.05017,3.41796875,-26.3671875,-36.62109375,303.7109375,0.0,0,0
1765394175.1162,1765394175.0540628,124.0234375,-25.87890625,-16.6015625,-956.0546875,0.0,0,0
1765394175.1162329,1765394175.0579557,13.18359375,-44.43359375,-3.41796875,14.16015625,0.0,0,0
1765394175.1162639,1765394175.0618489,-161.62109375,-48.33984375,-17.578125,-861.328125,0.0,0,0
1765394175.116296,1765394175.0657418,-134.27734375,-36.1328125,-50.78125,-480.95703125,0.0,0,0
1765394175.11642,1765394175.069635,-22.4609375,-37.59765625,-46.875,-8.30078125,0.0,0,0
1765394175.1164548,1765394175.0735278,126.46484375,-26.85546875,-24.4140625,-927.24609375,0.0,0,0
1765394175.1164858,1765394175.077421,45.41015625,-37.109375,-11.71875,283.203125,0.0,0,0
1765394175.116517,1765394175.0813138,-149.90234375,-52.734375,-22.94921875,-1000.0,0.0,0,0
1765394175.160533,1765394175.0853171,-134.765625,-45.41015625,-52.24609375,-604.00390625,0.0,0,0
1765394175.160597,1765394175.08921,-6.8359375,-24.90234375,-44.921875,204.58984375,0.0,0,0
1765394175.16062,1765394175.0931032,118.65234375,-15.625,-18.06640625,-955.56640625,0.0,0,0
1765394175.160641,1765394175.096996,65.4296875,-36.1328125,-13.18359375,431.640625,0.0,0,0
1765394175.160662,1765394175.1008892,-124.51171875,-52.24609375,-28.80859375,-968.75,0.0,0,0
1765394175.160682,1765394175.104782,-117.1875,-36.62109375,-34.66796875,-348.6328125,0.0,0,0
1765394175.1607978,1765394175.1086752,-38.0859375,-36.62109375,-45.41015625,10.7421875,0.0,0,0
1765394175.160822,1765394175.1125681,81.54296875,-28.80859375,-29.296875,582.51953125,0.0,0,0
1765394175.160842,1765394175.1164613,105.46875,-30.76171875,-10.25390625,776.85546875,0.0,0,0
1765394175.160862,1765394175.1203544,-113.76953125,-51.26953125,-22.94921875,-746.58203125,0.0,0,0
1765394175.160894,1765394175.1242473,-155.2734375,-23.92578125,-40.52734375,-677.734375,0.0,0,0
1765394175.1609159,1765394175.1281404,-43.9453125,-14.6484375,-42.96875,59.08203125,0.0,0,0
1765394175.204275,1765394175.1321406,67.87109375,-20.01953125,-33.69140625,748.53515625,0.0,0,0
1765394175.204333,1765394175.1360335,98.14453125,-18.5546875,-9.27734375,820.3125,0.0,0,0
1765394175.20435,1765394175.1399267,-91.796875,-36.1328125,-10.7421875,-593.26171875,0.0,0,0
1765394175.2043672,1765394175.1438198,-158.69140625,-42.96875,-35.15625,-656.25,0.0,0,0
1765394175.204385,1765394175.1477127,-57.12890625,-33.203125,-41.015625,-61.03515625,0.0,0,0
1765394175.2044008,1765394175.1516058,50.78125,-6.8359375,-21.484375,473.6328125,0.0,0,0
1765394175.204417,1765394175.155499,123.53515625,-2.9296875,-8.7890625,955.078125,0.0,0,0
1765394175.204434,1765394175.1593919,-64.94140625,-42.96875,-22.4609375,-428.7109375,0.0,0,0
1765394175.2044501,1765394175.163285,-160.64453125,-44.921875,-33.69140625,-690.91796875,0.0,0,0
1765394175.2044659,1765394175.1671782,-81.54296875,-25.87890625,-44.921875,-220.703125,0.0,0,0
1765394175.204482,1765394175.171071,25.390625,-12.6953125,-29.78515625,303.22265625,0.0,0,0
1765394175.204499,1765394175.1749642,136.71875,-9.765625,-8.7890625,-914.55078125,0.0,0,0
1765394175.249575,1765394175.1790307,-36.1328125,-32.71484375,-15.13671875,-201.171875,0.0,0,0
1765394175.2496371,1765394175.1829238,-160.64453125,-37.59765625,-32.2265625,-833.49609375,0.0,0,0
1765394175.2496629,1765394175.186817,-75.68359375,-22.94921875,-40.52734375,-162.109375,0.0,0,0
1765394175.249683,1765394175.1907098,20.5078125,-21.484375,-32.71484375,404.78515625,0.0,0,0
1765394175.249703,1765394175.194603,127.9296875,-15.13671875,-12.20703125,-920.41015625,0.0,0,0
1765394175.249723,1765394175.198496,-20.5078125,-25.390625,-13.18359375,-104.98046875,0.0,0,0
1765394175.249742,1765394175.2023892,-168.9453125,-33.69140625,-33.203125,-764.16015625,0.0,0,0
1765394175.249762,1765394175.2062821,-127.9296875,-39.55078125,-57.6171875,-450.68359375,0.0,0,0
1765394175.249781,1765394175.2101753,-20.01953125,-33.69140625,-57.6171875,-23.92578125,0.0,0,0
1765394175.2498,1765394175.2140684,141.11328125,0.48828125,-20.01953125,-839.84375,0.0,0,0
1765394175.24982,1765394175.2179615,15.625,-25.390625,-7.32421875,133.30078125,0.0,0,0
1765394175.249839,1765394175.2218547,-156.25,-48.33984375,-21.484375,-900.87890625,0.0,0,0
1765394175.325196,1765394175.2261143,-111.328125,-33.69140625,-44.921875,-462.40234375,0.0,0,0
1765394175.325268,1765394175.2300074,-13.18359375,-23.4375,-45.41015625,58.10546875,0.0,0,0
1765394175.3253,1765394175.2339005,122.0703125,-15.13671875,-18.06640625,-892.08984375,0.0,0,0
1765394175.325326,1765394175.2377937,38.0859375,-36.1328125,-12.6953125,255.37109375,0.0,0,0
1765394175.325351,1765394175.2416868,-146.97265625,-47.36328125,-21.484375,-969.7265625,0.0,0,0
1765394175.325375,1765394175.24558,-114.2578125,-27.83203125,-24.90234375,-265.13671875,0.0,0,0
1765394175.325399,1765394175.249473,-29.78515625,-24.90234375,-35.64453125,110.3515625,0.0,0,0
1765394175.325423,1765394175.2533662,89.84375,-26.85546875,-23.4375,897.94921875,0.0,0,0
1765394175.3254468,1765394175.2572594,63.4765625,-22.4609375,-6.8359375,567.3828125,0.0,0,0
1765394175.325471,1765394175.2611525,-136.23046875,-32.2265625,-13.18359375,-907.71484375,0.0,0,0
1765394175.325495,1765394175.265046,-146.97265625,-40.52734375,-23.92578125,-489.2578125,0.0,0,0
1765394175.3255198,1765394175.268939,-45.41015625,-30.76171875,-29.78515625,125.0,0.0,0,0
1765394175.3392599,1765394175.2729838,77.1484375,-15.625,-18.5546875,816.40625,0.0,0,0
1765394175.339316,1765394175.276877,73.2421875,-27.83203125,-8.7890625,617.67578125,0.0,0,0
1765394175.339343,1765394175.28077,-120.1171875,-54.19921875,-16.6015625,-798.828125,0.0,0,0
1765394175.3393679,1765394175.2846632,-151.85546875,-46.875,-38.0859375,-550.78125,0.0,0,0
1765394175.339394,1765394175.2885566,-60.05859375,-33.203125,-49.31640625,5.37109375,0.0,0,0
1765394175.3394182,1765394175.2924497,63.96484375,-19.53125,-19.04296875,641.11328125,0.0,0,0
1765394175.3394449,1765394175.2963428,105.46875,-26.85546875,-2.9296875,837.40234375,0.0,0,0
1765394175.339542,1765394175.300236,-101.5625,-56.640625,-25.87890625,-666.9921875,0.0,0,0
1765394175.339576,1765394175.3041294,-155.76171875,-52.734375,-37.59765625,-537.109375,0.0,0,0
1765394175.3395998,1765394175.3080225,-64.453125,-36.1328125,-43.45703125,34.1796875,0.0,0,0
1765394175.339623,1765394175.3119156,35.64453125,-19.53125,-25.87890625,405.2734375,0.0,0,0
1765394175.339648,1765394175.3158088,128.41796875,-21.97265625,-4.8828125,-991.2109375,0.0,0,0
1765394175.38485,1765394175.3198342,-61.03515625,-57.12890625,-18.5546875,-398.92578125,0.0,0,0
1765394175.3849359,1765394175.3237276,-160.15625,-46.875,-30.76171875,-637.20703125,0.0,0,0
1765394175.385005,1765394175.3276207,-81.0546875,-40.0390625,-52.24609375,-160.64453125,0.0,0,0
1765394175.385042,1765394175.331514,11.71875,-32.71484375,-43.9453125,171.38671875,0.0,0,0
1765394175.385073,1765394175.3354073,126.953125,-6.8359375,-10.7421875,-872.0703125,0.0,0,0
1765394175.385104,1765394175.3393004,-37.109375,-39.55078125,-8.7890625,-97.65625,0.0,0,0
1765394175.385132,1765394175.3431935,-167.96875,-53.22265625,-24.4140625,-799.8046875,0.0,0,0
1765394175.385161,1765394175.347087,-99.609375,-33.203125,-54.19921875,-329.1015625,0.0,0,0
1765394175.3851898,1765394175.35098,6.8359375,-22.4609375,-47.8515625,197.265625,0.0,0,0
1765394175.385219,1765394175.3548732,133.30078125,-26.85546875,-10.25390625,-875.48828125,0.0,0,0
1765394175.385248,1765394175.3587666,-17.08984375,-50.29296875,-9.765625,-53.7109375,0.0,0,0
1765394175.385279,1765394175.3626597,-171.875,-61.5234375,-32.71484375,-847.65625,0.0,0,0
1765394175.430112,1765394175.3666735,-96.19140625,-43.9453125,-50.78125,-255.859375,0.0,0,0
1765394175.4302359,1765394175.3705668,28.3203125,-19.04296875,-37.109375,262.6953125,0.0,0,0
1765394175.430277,1765394175.37446,147.4609375,-7.32421875,-7.32421875,-918.9453125,0.0,0,0
1765394175.430316,1765394175.3783534,6.8359375,-39.0625,-8.30078125,-62.01171875,0.0,0,0
1765394175.430353,1765394175.3822465,-150.390625,-52.734375,-20.01953125,-848.6328125,0.0,0,0
1765394175.430391,1765394175.3861396,-95.21484375,-29.78515625,-24.4140625,-125.9765625,0.0,0,0
1765394175.430429,1765394175.390033,-25.87890625,-29.296875,-36.62109375,52.24609375,0.0,0,0
1765394175.430466,1765394175.3939261,105.95703125,-20.01953125,-25.390625,975.09765625,0.0,0,0
1765394175.430503,1765394175.3978195,29.78515625,-33.69140625,-1.46484375,276.85546875,0.0,0,0
1765394175.430568,1765394175.4017127,-158.203125,-56.15234375,-15.625,-968.26171875,0.0,0,0
1765394175.430636,1765394175.405606,-127.44140625,-35.15625,-34.1796875,-378.41796875,0.0,0,0
1765394175.4306839,1765394175.4094992,-36.1328125,-28.3203125,-41.9921875,59.08203125,0.0,0,0
1765394175.475777,1765394175.4135077,91.30859375,-27.83203125,-31.73828125,888.18359375,0.0,0,0
1765394175.475935,1765394175.417401,49.31640625,-40.0390625,-14.6484375,400.87890625,0.0,0,0
1765394175.475992,1765394175.4212942,-140.13671875,-50.78125,-18.06640625,-835.44921875,0.0,0,0
1765394175.476046,1765394175.4251876,-146.97265625,-43.9453125,-33.69140625,-463.8671875,0.0,0,0
1765394175.476098,1765394175.4290807,-59.5703125,-39.0625,-43.45703125,4.8828125,0.0,0,0
1765394175.476186,1765394175.432974,79.1015625,-21.484375,-12.20703125,882.8125,0.0,0,0
1765394175.4762602,1765394175.4368672,83.49609375,-11.23046875,13.671875,693.359375,0.0,0,0
1765394175.476379,1765394175.4407606,-108.3984375,-25.87890625,-13.671875,-764.16015625,0.0,0,0
1765394175.476474,1765394175.4446537,-154.78515625,-51.26953125,-44.43359375,-852.05078125,0.0,0,0
1765394175.476831,1765394175.4485471,-47.36328125,-40.0390625,-47.8515625,-2.9296875,0.0,0,0
1765394175.476875,1765394175.4524403,88.8671875,-17.08984375,-21.484375,925.29296875,0.0,0,0
1765394175.476913,1765394175.4563336,106.4453125,-24.90234375,0.9765625,680.6640625,0.0,0,0
1765394175.5354218,1765394175.4603214,-81.0546875,-44.43359375,-16.11328125,-788.57421875,0.0,0,0
1765394175.5354729,1765394175.4642148,-115.72265625,-33.69140625,-25.87890625,-576.171875,0.0,0,0
1765394175.5354922,1765394175.468108,-34.66796875,-27.34375,-39.55078125,-108.88671875,0.0,0,0
1765394175.535507,1765394175.4720013,65.91796875,-23.92578125,-26.85546875,387.20703125,0.0,0,0
1765394175.535522,1765394175.4758945,147.4609375,-23.4375,-0.48828125,986.328125,0.0,0,0
1765394175.535537,1765394175.4797878,-47.36328125,-43.9453125,-5.859375,-356.4453125,0.0,0,0
1765394175.535552,1765394175.4836812,-155.76171875,-46.38671875,-41.50390625,-847.16796875,0.0,0,0
1765394175.535567,1765394175.4875743,-59.08203125,-34.66796875,-51.7578125,-151.3671875,0.0,0,0
1765394175.5355809,1765394175.4914677,51.26953125,-29.78515625,-31.73828125,604.98046875,0.0,0,0
1765394175.535595,1765394175.4953609,125.48828125,-31.25,-15.625,978.02734375,0.0,0,0
1765394175.5356102,1765394175.4992542,-44.43359375,-48.33984375,-6.34765625,-284.66796875,0.0,0,0
1765394175.535624,1765394175.5031476,-178.7109375,-62.98828125,-28.3203125,-846.6796875,0.0,0,0
1765394175.579365,1765394175.5071442,-99.609375,-50.29296875,-43.9453125,-235.3515625,0.0,0,0
1765394175.579394,1765394175.5110376,10.25390625,-33.69140625,-31.73828125,373.53515625,0.0,0,0
1765394175.5794072,1765394175.514931,115.72265625,-25.87890625,-14.6484375,-991.69921875,0.0,0,0
1765394175.5794199,1765394175.518824,-39.55078125,-52.734375,-20.99609375,-197.265625,0.0,0,0
1765394175.579433,1765394175.5227175,-171.875,-65.4296875,-37.109375,-833.49609375,0.0,0,0
1765394175.579445,1765394175.5266109,-108.3984375,-35.15625,-50.78125,-278.3203125,0.0,0,0
1765394175.579458,1765394175.530504,-9.765625,-16.11328125,-42.48046875,218.75,0.0,0,0
1765394175.5794702,1765394175.5343974,121.09375,-27.83203125,-23.4375,-973.14453125,0.0,0,0
1765394175.579484,1765394175.5382907,-8.30078125,-55.6640625,-21.484375,-107.91015625,0.0,0,0
1765394175.5794969,1765394175.5421839,-163.0859375,-57.12890625,-32.71484375,-886.23046875,0.0,0,0
1765394175.57951,1765394175.5460773,-109.375,-35.64453125,-41.50390625,-298.828125,0.0,0,0
1765394175.579536,1765394175.5499706,-8.7890625,-27.83203125,-38.0859375,179.19921875,0.0,0,0
1765394175.624213,1765394175.5540318,122.0703125,-20.01953125,-20.99609375,-912.59765625,0.0,0,0
1765394175.6242628,1765394175.557925,33.203125,-33.69140625,-2.9296875,214.35546875,0.0,0,0
1765394175.6242838,1765394175.5618184,-148.92578125,-43.45703125,-10.7421875,-960.44921875,0.0,0,0
1765394175.6243021,1765394175.5657117,-116.2109375,-31.73828125,-29.78515625,-437.01171875,0.0,0,0
1765394175.624319,1765394175.569605,-17.578125,-27.83203125,-32.71484375,119.140625,0.0,0,0
1765394175.6243358,1765394175.5734985,107.421875,-10.25390625,-10.7421875,-977.05078125,0.0,0,0
1765394175.624353,1765394175.5773919,39.55078125,-33.203125,-9.27734375,305.17578125,0.0,0,0
1765394175.6243699,1765394175.581285,-155.76171875,-59.08203125,-21.484375,-1000.0,0.0,0,0
1765394175.624386,1765394175.5851784,-141.11328125,-42.96875,-31.25,-462.40234375,0.0,0,0
1765394175.624403,1765394175.5890718,-42.48046875,-26.3671875,-33.69140625,97.65625,0.0,0,0
1765394175.624419,1765394175.5929651,84.47265625,-16.11328125,-19.04296875,884.27734375,0.0,0,0
1765394175.624435,1765394175.5968585,77.63671875,-30.76171875,-1.46484375,640.13671875,0.0,0,0
1765394175.6692789,1765394175.6009068,-125.0,-54.19921875,-12.6953125,-860.3515625,0.0,0,0
1765394175.669324,1765394175.6048002,-157.71484375,-46.875,-27.34375,-586.42578125,0.0,0,0
1765394175.6693408,1765394175.6086936,-59.5703125,-31.73828125,-34.1796875,31.73828125,0.0,0,0
1765394175.669357,1765394175.612587,54.6875,-28.3203125,-26.85546875,639.6484375,0.0,0,0
1765394175.669371,1765394175.6164804,86.9140625,-33.203125,-3.90625,806.15234375,0.0,0,0
1765394175.669389,1765394175.6203737,-108.3984375,-50.78125,-11.23046875,-664.55078125,0.0,0,0
1765394175.6694038,1765394175.624267,-148.92578125,-41.015625,-33.203125,-635.7421875,0.0,0,0
1765394175.669419,1765394175.6281605,-58.59375,-40.52734375,-55.17578125,-103.515625,0.0,0,0
1765394175.669433,1765394175.6320539,45.8984375,-19.04296875,-40.52734375,451.66015625,0.0,0,0
1765394175.669482,1765394175.6359472,113.76953125,-0.9765625,-5.859375,980.46875,0.0,0,0
1765394175.669502,1765394175.6398406,-80.078125,-42.48046875,-1.46484375,-437.01171875,0.0,0,0
1765394175.669517,1765394175.643734,-153.3203125,-44.921875,-17.578125,-677.734375,0.0,0,0
1765394175.713968,1765394175.647769,-71.77734375,-36.62109375,-34.1796875,-105.46875,0.0,0,0
1765394175.714001,1765394175.6516623,26.85546875,-25.87890625,-15.13671875,357.421875,0.0,0,0
1765394175.714011,1765394175.6555557,135.25390625,-13.18359375,6.8359375,-941.89453125,0.0,0,0
1765394175.71402,1765394175.659449,-53.22265625,-40.0390625,-3.90625,-278.80859375,0.0,0,0
1765394175.714029,1765394175.6633425,-166.015625,-42.48046875,-18.5546875,-652.83203125,0.0,0,0
1765394175.7140381,1765394175.6672359,-87.890625,-30.76171875,-30.2734375,-190.91796875,0.0,0,0
1765394175.714046,1765394175.6711292,-2.9296875,-34.1796875,-35.64453125,166.9921875,0.0,0,0
1765394175.7140539,1765394175.6750226,120.60546875,-31.25,-15.13671875,-937.01171875,0.0,0,0
1765394175.7140632,1765394175.678916,-32.2265625,-31.25,-4.8828125,-174.31640625,0.0,0,0
1765394175.714071,1765394175.6828094,-172.8515625,-35.64453125,-20.01953125,-813.4765625,0.0,0,0
1765394175.714079,1765394175.6867027,-112.3046875,-41.015625,-37.59765625,-356.4453125,0.0,0,0
1765394175.714087,1765394175.6905963,-2.44140625,-25.87890625,-29.78515625,187.98828125,0.0,0,0
1765394175.7589078,1765394175.6946182,117.1875,-14.16015625,-9.765625,-981.93359375,0.0,0,0
1765394175.758934,1765394175.6985116,-18.06640625,-40.52734375,-6.8359375,-164.55078125,0.0,0,0
1765394175.758943,1765394175.702405,-161.62109375,-50.29296875,-16.11328125,-913.57421875,0.0,0,0
1765394175.758952,1765394175.7062984,-119.62890625,-42.96875,-39.0625,-448.73046875,0.0,0,0
1765394175.758961,1765394175.7101917,-18.06640625,-33.69140625,-35.64453125,85.9375,0.0,0,0
1765394175.758969,1765394175.7140853,124.51171875,-16.11328125,-1.953125,-881.34765625,0.0,0,0
1765394175.758992,1765394175.7179787,27.83203125,-36.1328125,2.44140625,182.12890625,0.0,0,0
1765394175.759014,1765394175.721872,-145.5078125,-29.78515625,-19.04296875,-945.3125,0.0,0,0
1765394175.7590241,1765394175.7257655,-125.9765625,-11.71875,-46.38671875,-611.328125,0.0,0,0
1765394175.7590332,1765394175.7296588,-20.01953125,-27.83203125,-49.31640625,-52.24609375,0.0,0,0
1765394175.759042,1765394175.7335522,136.71875,-14.6484375,-21.97265625,-933.59375,0.0,0,0
1765394175.75905,1765394175.7374458,63.4765625,-33.69140625,-11.23046875,254.8828125,0.0,0,0
1765394175.8041332,1765394175.741455,-129.39453125,-49.8046875,-21.484375,-1000.0,0.0,0,0
1765394175.804157,1765394175.7453485,-110.3515625,-35.64453125,-39.0625,-490.234375,0.0,0,0
1765394175.80417,1765394175.7492418,-7.32421875,-22.94921875,-41.9921875,92.7734375,0.0,0,0
1765394175.804182,1765394175.7531354,118.1640625,-13.671875,-22.4609375,927.24609375,0.0,0,0
1765394175.804193,1765394175.7570288,89.84375,-30.2734375,-2.9296875,537.109375,0.0,0,0
1765394175.804204,1765394175.7609222,-98.14453125,-41.015625,-3.90625,-837.890625,0.0,0,0
1765394175.8042161,1765394175.7648156,-117.67578125,-35.15625,-32.71484375,-504.8828125,0.0,0,0
1765394175.804227,1765394175.7687092,-44.921875,-29.78515625,-54.19921875,-103.02734375,0.0,0,0
1765394175.804238,1765394175.7726026,70.3125,-23.4375,-32.71484375,676.7578125,0.0,0,0
1765394175.804286,1765394175.776496,104.4921875,-35.15625,-11.71875,856.4453125,0.0,0,0
1765394175.80431,1765394175.7803893,-81.0546875,-45.8984375,-12.20703125,-601.5625,0.0,0,0
1765394175.8043242,1765394175.784283,-136.71875,-42.48046875,-34.66796875,-679.19921875,0.0,0,0
1765394175.849021,1765394175.7882805,-39.0625,-34.66796875,-49.8046875,-80.56640625,0.0,0,0
1765394175.84907,1765394175.792174,82.03125,-19.53125,-29.296875,669.43359375,0.0,0,0
1765394175.849086,1765394175.7960675,121.09375,-26.3671875,-11.23046875,855.95703125,0.0,0,0
1765394175.8491,1765394175.7999609,-69.3359375,-45.8984375,-17.08984375,-576.171875,0.0,0,0
1765394175.849113,1765394175.8038545,-136.71875,-41.50390625,-37.59765625,-724.12109375,0.0,0,0
1765394175.849128,1765394175.8077478,-38.57421875,-30.76171875,-41.9921875,-33.69140625,0.0,0,0
1765394175.849141,1765394175.8116412,55.6640625,-10.25390625,-26.85546875,622.55859375,0.0,0,0
1765394175.849153,1765394175.8155348,101.07421875,-18.5546875,-26.3671875,708.49609375,0.0,0,0
1765394175.8491662,1765394175.8194282,-69.3359375,-54.19921875,-23.4375,-622.0703125,0.0,0,0
1765394175.8491788,1765394175.8233216,-155.2734375,-51.7578125,-29.78515625,-664.0625,0.0,0,0
1765394175.849191,1765394175.8272152,-86.42578125,-41.50390625,-51.7578125,-312.01171875,0.0,0,0
1765394175.849204,1765394175.8311086,16.11328125,-26.85546875,-44.921875,201.171875,0.0,0,0
1765394175.9248,1765394175.8352966,118.1640625,-24.4140625,-21.484375,-970.703125,0.0,0,0
1765394175.924858,1765394175.8391902,-37.109375,-41.50390625,-9.765625,-196.77734375,0.0,0,0
1765394175.924879,1765394175.8430836,-176.26953125,-47.8515625,-36.1328125,-908.69140625,0.0,0,0
1765394175.924899,1765394175.8469772,-121.58203125,-42.96875,-65.4296875,-422.8515625,0.0,0,0
1765394175.924918,1765394175.8508706,-3.90625,-27.34375,-44.921875,305.17578125,0.0,0,0
1765394175.924938,1765394175.8547642,122.55859375,-12.20703125,-12.6953125,-861.328125,0.0,0,0
1765394175.924957,1765394175.8586578,-12.20703125,-23.92578125,-20.01953125,9.765625,0.0,0,0
1765394175.92498,1765394175.8625512,-173.33984375,-43.45703125,-42.48046875,-977.05078125,0.0,0,0
1765394175.925,1765394175.8664448,-116.69921875,-38.0859375,-52.734375,-455.56640625,0.0,0,0
1765394175.9250188,1765394175.8703382,-5.37109375,-25.390625,-46.875,219.7265625,0.0,0,0
1765394175.925038,1765394175.8742318,127.9296875,-17.08984375,-17.578125,-893.5546875,0.0,0,0
1765394175.925057,1765394175.8781252,16.6015625,-39.55078125,-11.23046875,92.28515625,0.0,0,0
1765394175.953515,1765394175.8821018,-152.34375,-51.26953125,-23.4375,-910.64453125,0.0,0,0
1765394175.953579,1765394175.8859954,-113.28125,-38.0859375,-36.1328125,-363.76953125,0.0,0,0
1765394175.953604,1765394175.889889,-13.18359375,-24.90234375,-38.57421875,89.84375,0.0,0,0
1765394175.9536252,1765394175.8937824,117.67578125,-16.6015625,-23.4375,-955.078125,0.0,0,0
1765394175.953645,1765394175.897676,48.33984375,-31.73828125,-12.20703125,306.640625,0.0,0,0
1765394175.953666,1765394175.9015696,-132.32421875,-42.48046875,-19.04296875,-938.96484375,0.0,0,0
1765394175.953686,1765394175.905463,-119.62890625,-32.71484375,-43.45703125,-451.171875,0.0,0,0
1765394175.953706,1765394175.9093566,-37.109375,-29.296875,-59.08203125,-25.87890625,0.0,0,0
1765394175.953783,1765394175.9132502,98.6328125,-21.97265625,-39.0625,872.55859375,0.0,0,0
1765394175.953814,1765394175.9171436,89.35546875,-28.3203125,-16.11328125,598.14453125,0.0,0,0
1765394175.953834,1765394175.9210372,-117.67578125,-49.8046875,-27.83203125,-878.90625,0.0,0,0
1765394175.9538538,1765394175.9249306,-133.7890625,-49.8046875,-40.52734375,-561.5234375,0.0,0,0
1765394175.999277,1765394175.9289923,-40.0390625,-46.38671875,-47.36328125,91.30859375,0.0,0,0
1765394175.999339,1765394175.9328856,76.171875,-11.71875,-29.296875,788.57421875,0.0,0,0
1765394175.99936,1765394175.9367793,92.7734375,-7.8125,-7.8125,790.0390625,0.0,0,0
1765394175.999379,1765394175.9406729,-107.91015625,-51.26953125,-19.53125,-681.15234375,0.0,0,0
1765394175.9994009,1765394175.9445665,-152.34375,-43.9453125,-35.64453125,-633.30078125,0.0,0,0
1765394175.9994218,1765394175.9484599,-51.26953125,-24.90234375,-37.59765625,106.4453125,0.0,0,0
1765394175.999441,1765394175.9523535,48.33984375,-25.87890625,-31.73828125,635.25390625,0.0,0,0
1765394175.99946,1765394175.956247,108.3984375,-31.73828125,-5.859375,971.6796875,0.0,0,0
1765394175.99948,1765394175.9601407,-73.73046875,-46.38671875,-6.8359375,-338.37890625,0.0,0,0
1765394175.9995,1765394175.964034,-176.26953125,-44.921875,-38.0859375,-829.1015625,0.0,0,0
1765394175.9995189,1765394175.9679277,-76.171875,-28.3203125,-46.38671875,-76.171875,0.0,0,0
1765394175.999538,1765394175.9718213,40.0390625,-22.94921875,-27.34375,645.5078125,0.0,0,0
1765394176.0442948,1765394175.9758685,109.86328125,-27.83203125,-10.7421875,971.19140625,0.0,0,0
1765394176.0443652,1765394175.979762,-68.359375,-42.48046875,-8.7890625,-347.65625,0.0,0,0
1765394176.044397,1765394175.9836557,-163.57421875,-39.55078125,-20.99609375,-661.1328125,0.0,0,0
1765394176.0444229,1765394175.987549,-95.21484375,-40.0390625,-46.38671875,-252.44140625,0.0,0,0
1765394176.044447,1765394175.9914427,-3.41796875,-34.1796875,-36.1328125,170.41015625,0.0,0,0
1765394176.044472,1765394175.9953363,131.8359375,-12.20703125,-2.44140625,-878.41796875,0.0,0,0
1765394176.0444958,1765394175.99923,-25.87890625,-35.64453125,-13.671875,-62.98828125,0.0,0,0
1765394176.044519,1765394176.0031235,-181.15234375,-57.12890625,-42.96875,-936.03515625,0.0,0,0
1765394176.044543,1765394176.0070171,-113.76953125,-45.8984375,-68.84765625,-447.265625,0.0,0,0
1765394176.044566,1765394176.0109107,3.90625,-28.80859375,-47.36328125,294.43359375,0.0,0,0
1765394176.044589,1765394176.0148044,133.7890625,-11.23046875,-5.859375,-844.23828125,0.0,0,0
1765394176.0446122,1765394176.018698,-7.32421875,-32.2265625,-13.18359375,5.37109375,0.0,0,0
1765394176.089623,1765394176.0227334,-169.43359375,-49.31640625,-37.59765625,-863.76953125,0.0,0,0
1765394176.0896928,1765394176.026627,-109.375,-34.1796875,-43.9453125,-305.17578125,0.0,0,0
1765394176.089719,1765394176.0305207,-1.46484375,-21.97265625,-31.25,176.7578125,0.0,0,0
1765394176.0897431,1765394176.0344143,133.7890625,-13.671875,-12.20703125,-877.9296875,0.0,0,0
1765394176.089768,1765394176.038308,18.5546875,-41.015625,-7.8125,114.2578125,0.0,0,0
1765394176.089792,1765394176.0422015,-145.01953125,-38.0859375,-16.11328125,-821.77734375,0.0,0,0
1765394176.089816,1765394176.0460951,-124.51171875,-27.83203125,-40.0390625,-427.24609375,0.0,0,0
1765394176.0898402,1765394176.0499887,-35.64453125,-35.64453125,-48.828125,-50.78125,0.0,0,0
1765394176.0898628,1765394176.0538824,126.46484375,-10.7421875,-22.94921875,-920.41015625,0.0,0,0
1765394176.089886,1765394176.057776,39.0625,-26.3671875,-12.20703125,263.18359375,0.0,0,0
1765394176.089909,1765394176.0616696,-146.97265625,-46.875,-21.484375,-945.3125,0.0,0,0
1765394176.089932,1765394176.0655632,-126.46484375,-34.1796875,-39.0625,-485.83984375,0.0,0,0
1765394176.1343439,1765394176.0695856,-29.296875,-31.73828125,-50.29296875,18.5546875,0.0,0,0
1765394176.134397,1765394176.0734792,113.28125,-17.08984375,-21.97265625,959.47265625,0.0,0,0
1765394176.134422,1765394176.0773728,83.49609375,-24.90234375,-2.44140625,560.05859375,0.0,0,0
1765394176.1344461,1765394176.0812666,-120.60546875,-51.26953125,-20.01953125,-895.01953125,0.0,0,0
1765394176.13447,1765394176.0851603,-139.16015625,-45.41015625,-41.9921875,-656.25,0.0,0,0
1765394176.134496,1765394176.0890539,-18.06640625,-25.390625,-39.0625,240.234375,0.0,0,0
1765394176.134559,1765394176.0929475,106.4453125,-18.06640625,-14.6484375,-999.0234375,0.0,0,0
1765394176.134618,1765394176.096841,94.23828125,-23.92578125,-6.34765625,560.05859375,0.0,0,0
1765394176.134648,1765394176.1007347,-104.4921875,-38.57421875,-27.34375,-836.42578125,0.0,0,0
1765394176.134728,1765394176.1046283,-146.97265625,-41.9921875,-44.921875,-677.24609375,0.0,0,0
1765394176.134785,1765394176.108522,-34.1796875,-22.4609375,-46.875,109.86328125,0.0,0,0
1765394176.134814,1765394176.1124156,82.51953125,-10.25390625,-27.83203125,808.59375,0.0,0,0
1765394176.178876,1765394176.116424,105.46875,-21.484375,-5.37109375,812.01171875,0.0,0,0
1765394176.178899,1765394176.1203177,-89.84375,-44.43359375,-14.16015625,-587.40234375,0.0,0,0
1765394176.1789079,1765394176.1242115,-169.43359375,-41.9921875,-33.203125,-692.3828125,0.0,0,0
1765394176.178973,1765394176.1281052,-71.2890625,-28.80859375,-40.0390625,-32.71484375,0.0,0,0
1765394176.178983,1765394176.1319988,49.8046875,-19.04296875,-22.94921875,547.36328125,0.0,0,0
1765394176.178992,1765394176.1358924,129.39453125,-18.06640625,-0.48828125,-943.359375,0.0,0,0
1765394176.179001,1765394176.139786,-61.03515625,-52.24609375,-17.08984375,-229.98046875,0.0,0,0
1765394176.1790102,1765394176.1436799,-180.17578125,-57.12890625,-38.57421875,-894.04296875,0.0,0,0
1765394176.179018,1765394176.1475735,-74.21875,-38.0859375,-41.9921875,-163.57421875,0.0,0,0
1765394176.179026,1765394176.151467,42.48046875,-24.90234375,-20.01953125,580.078125,0.0,0,0
1765394176.179034,1765394176.1553607,132.8125,-14.16015625,0.9765625,-970.21484375,0.0,0,0
1765394176.179041,1765394176.1592546,-33.203125,-36.62109375,-9.765625,-268.5546875,0.0,0,0
1765394176.2245529,1765394176.1632524,-160.15625,-41.50390625,-22.94921875,-718.75,0.0,0,0
1765394176.2246091,1765394176.167146,-89.35546875,-27.34375,-37.59765625,-218.26171875,0.0,0,0
1765394176.2246358,1765394176.1710396,10.25390625,-17.08984375,-33.203125,139.6484375,0.0,0,0
1765394176.2246609,1765394176.1749332,133.7890625,-10.25390625,-6.34765625,-876.46484375,0.0,0,0
1765394176.2246861,1765394176.178827,-14.16015625,-33.203125,-11.23046875,-24.4140625,0.0,0,0
1765394176.22471,1765394176.1827207,-159.1796875,-40.0390625,-21.97265625,-773.92578125,0.0,0,0
1765394176.224734,1765394176.1866143,-111.328125,-23.92578125,-42.48046875,-346.19140625,0.0,0,0
1765394176.224758,1765394176.1905081,-18.06640625,-16.6015625,-41.015625,65.91796875,0.0,0,0
1765394176.224782,1765394176.1944017,116.69921875,-27.34375,-18.5546875,-920.8984375,0.0,0,0
1765394176.224836,1765394176.1982954,-10.7421875,-49.31640625,-19.04296875,-11.71875,0.0,0,0
1765394176.224877,1765394176.202189,-178.22265625,-55.6640625,-28.3203125,-932.12890625,0.0,0,0
1765394176.224902,1765394176.2060828,-137.20703125,-43.45703125,-41.50390625,-406.73828125,0.0,0,0
1765394176.282629,1765394176.210068,-34.66796875,-33.69140625,-42.48046875,146.97265625,0.0,0,0
1765394176.282665,1765394176.2139616,105.46875,-18.5546875,-18.06640625,-890.625,0.0,0,0
1765394176.282676,1765394176.2178555,30.2734375,-32.2265625,-6.34765625,312.5,0.0,0,0
1765394176.282685,1765394176.221749,-160.64453125,-48.33984375,-26.85546875,-955.078125,0.0,0,0
1765394176.2826931,1765394176.2256427,-140.625,-39.55078125,-46.875,-435.05859375,0.0,0,0
1765394176.282702,1765394176.2295365,-19.53125,-23.4375,-36.1328125,291.015625,0.0,0,0
1765394176.28271,1765394176.2334301,103.515625,2.9296875,-25.87890625,975.5859375,0.0,0,0
1765394176.282719,1765394176.2373238,46.875,-24.4140625,-27.34375,294.43359375,0.0,0,0
1765394176.282753,1765394176.2412176,-139.6484375,-57.12890625,-28.80859375,-919.921875,0.0,0,0
1765394176.28277,1765394176.2451112,-144.04296875,-41.9921875,-43.9453125,-543.45703125,0.0,0,0
1765394176.282778,1765394176.249005,-36.62109375,-27.83203125,-41.50390625,133.30078125,0.0,0,0
1765394176.2827861,1765394176.2528987,88.8671875,-17.08984375,-17.578125,915.52734375,0.0,0,0
1765394176.3297548,1765394176.2568767,96.19140625,-31.25,-3.41796875,725.5859375,0.0,0,0
1765394176.329824,1765394176.2607703,-98.6328125,-48.33984375,-8.30078125,-737.79296875,0.0,0,0
1765394176.329893,1765394176.2646642,-145.01953125,-40.52734375,-31.73828125,-566.89453125,0.0,0,0
1765394176.329946,1765394176.2685578,-47.36328125,-33.69140625,-42.48046875,71.77734375,0.0,0,0
1765394176.3299782,1765394176.2724516,66.40625,-32.71484375,-26.3671875,656.73828125,0.0,0,0
1765394176.330004,1765394176.2763453,115.234375,-16.11328125,-8.7890625,951.66015625,0.0,0,0
1765394176.330029,1765394176.280239,-75.68359375,-19.53125,-10.7421875,-457.51953125,0.0,0,0
1765394176.330056,1765394176.2841327,-153.80859375,-43.45703125,-37.109375,-759.765625,0.0,0,0
1765394176.330081,1765394176.2880263,-46.38671875,-36.62109375,-56.15234375,-88.37890625,0.0,0,0
1765394176.330106,1765394176.2919202,72.265625,-24.90234375,-30.2734375,600.09765625,0.0,0,0
1765394176.3301299,1765394176.2958138,125.0,-34.66796875,-11.23046875,883.30078125,0.0,0,0
1765394176.330155,1765394176.2997077,-76.171875,-61.03515625,-25.390625,-516.11328125,0.0,0,0
1765394176.389987,1765394176.3038664,-168.9453125,-48.828125,-34.1796875,-733.88671875,0.0,0,0
1765394176.390101,1765394176.3077602,-73.2421875,-25.390625,-44.43359375,-47.36328125,0.0,0,0
1765394176.3901298,1765394176.311654,38.57421875,-19.53125,-36.1328125,456.0546875,0.0,0,0
1765394176.390155,1765394176.3155477,133.30078125,-23.92578125,-16.6015625,998.046875,0.0,0,0
1765394176.39018,1765394176.3194416,-49.8046875,-41.9921875,-17.578125,-303.22265625,0.0,0,0
1765394176.390204,1765394176.3233354,-157.2265625,-25.87890625,-16.11328125,-598.6328125,0.0,0,0
1765394176.390229,1765394176.327229,-85.44921875,-23.92578125,-37.59765625,-257.32421875,0.0,0,0
1765394176.390253,1765394176.3311229,4.8828125,-27.83203125,-35.64453125,-61.5234375,0.0,0,0
1765394176.3902779,1765394176.3350167,151.3671875,-10.7421875,-6.8359375,-885.7421875,0.0,0,0
1765394176.390303,1765394176.3389103,-12.6953125,-26.85546875,-15.625,-94.7265625,0.0,0,0
1765394176.390327,1765394176.3428042,-163.57421875,-34.1796875,-19.53125,-815.4296875,0.0,0,0
1765394176.390351,1765394176.3466978,-90.8203125,-28.3203125,-26.85546875,-191.89453125,0.0,0,0
1765394176.419796,1765394176.3507473,-1.46484375,-24.4140625,-33.69140625,156.73828125,0.0,0,0
1765394176.419918,1765394176.3546412,134.765625,-10.25390625,-12.20703125,-890.625,0.0,0,0
1765394176.4199529,1765394176.358535,10.7421875,-30.2734375,-7.8125,130.37109375,0.0,0,0
1765394176.419988,1765394176.362429,-173.828125,-48.828125,-23.92578125,-994.62890625,0.0,0,0
1765394176.420018,1765394176.3663225,-119.62890625,-27.83203125,-35.64453125,-336.9140625,0.0,0,0
1765394176.420047,1765394176.3702164,-14.16015625,-13.671875,-38.57421875,294.921875,0.0,0,0
1765394176.420083,1765394176.3741102,116.2109375,-10.25390625,-22.4609375,-920.41015625,0.0,0,0
1765394176.420171,1765394176.378004,31.73828125,-36.62109375,-22.94921875,234.375,0.0,0,0
1765394176.4202082,1765394176.3818977,-163.0859375,-58.10546875,-38.0859375,-1000.0,0.0,0,0
1765394176.420244,1765394176.3857915,-138.18359375,-42.48046875,-41.015625,-531.73828125,0.0,0,0
1765394176.420275,1765394176.3896854,-18.5546875,-26.85546875,-31.73828125,208.0078125,0.0,0,0
1765394176.4203038,1765394176.3935792,119.140625,-18.5546875,-5.37109375,-943.84765625,0.0,0,0
1765394176.465285,1765394176.3976142,74.21875,-25.87890625,-3.41796875,453.61328125,0.0,0,0
1765394176.465405,1765394176.4015079,-123.046875,-38.0859375,-19.04296875,-914.55078125,0.0,0,0
1765394176.465452,1765394176.4054017,-127.9296875,-36.1328125,-29.296875,-567.87109375,0.0,0,0
1765394176.465492,1765394176.4092956,-13.18359375,-25.87890625,-40.0390625,155.2734375,0.0,0,0
1765394176.4655302,1765394176.4131894,118.1640625,-11.23046875,-15.13671875,926.26953125,0.0,0,0
1765394176.465569,1765394176.4170833,120.1171875,-17.08984375,5.37109375,788.57421875,0.0,0,0
1765394176.465607,1765394176.420977,-98.6328125,-47.36328125,-16.11328125,-719.23828125,0.0,0,0
1765394176.4656441,1765394176.424871,-146.97265625,-42.48046875,-25.87890625,-621.58203125,0.0,0,0
1765394176.465686,1765394176.4287646,-34.1796875,-20.5078125,-37.109375,88.37890625,0.0,0,0
1765394176.4657228,1765394176.4326584,78.61328125,-17.578125,-25.87890625,629.39453125,0.0,0,0
1765394176.465761,1765394176.4365523,127.9296875,-24.4140625,-1.46484375,903.80859375,0.0,0,0
1765394176.465798,1765394176.4404461,-70.3125,-41.9921875,-10.7421875,-553.22265625,0.0,0,0
1765394176.52606,1765394176.4445689,-147.94921875,-35.15625,-21.97265625,-690.91796875,0.0,0,0
1765394176.526245,1765394176.4484627,-45.8984375,-19.04296875,-33.69140625,49.8046875,0.0,0,0
1765394176.526305,1765394176.4523566,66.40625,-17.578125,-19.53125,610.3515625,0.0,0,0
1765394176.526359,1765394176.4562504,138.671875,-19.53125,6.34765625,958.984375,0.0,0,0
1765394176.526412,1765394176.4601443,-52.24609375,-36.62109375,-1.46484375,-437.01171875,0.0,0,0
1765394176.526465,1765394176.4640381,-138.18359375,-31.25,-13.18359375,-625.9765625,0.0,0,0
1765394176.5266151,1765394176.467932,-56.640625,-24.90234375,-24.4140625,-123.53515625,0.0,0,0
1765394176.5266602,1765394176.4718258,30.76171875,-11.71875,-22.94921875,259.765625,0.0,0,0
1765394176.526699,1765394176.4757197,137.6953125,1.46484375,-12.6953125,-977.05078125,0.0,0,0
1765394176.526738,1765394176.4796135,-42.48046875,-41.50390625,-17.578125,-322.265625,0.0,0,0
1765394176.5267751,1765394176.4835074,-159.1796875,-41.9921875,-22.4609375,-646.484375,0.0,0,0
1765394176.5268118,1765394176.4874012,-84.47265625,-28.3203125,-41.015625,-232.91015625,0.0,0,0
1765394176.554497,1765394176.491411,15.13671875,-28.80859375,-35.15625,49.31640625,0.0,0,0
1765394176.554589,1765394176.4953048,156.73828125,-18.5546875,-6.8359375,-835.9375,0.0,0,0
1765394176.5546172,1765394176.4991987,0.48828125,-36.62109375,-12.6953125,31.25,0.0,0,0
1765394176.554643,1765394176.5030925,-164.55078125,-45.41015625,-31.73828125,-881.34765625,0.0,0,0
1765394176.554668,1765394176.5069864,-110.83984375,-38.57421875,-51.26953125,-416.50390625,0.0,0,0
1765394176.554692,1765394176.5108802,-0.48828125,-21.484375,-37.59765625,194.82421875,0.0,0,0
1765394176.5547168,1765394176.5147743,139.16015625,-10.7421875,-10.7421875,-907.2265625,0.0,0,0
1765394176.554741,1765394176.5186682,7.8125,-41.9921875,-17.578125,13.18359375,0.0,0,0
1765394176.554765,1765394176.522562,-172.8515625,-52.24609375,-30.76171875,-1000.0,0.0,0,0
1765394176.554788,1765394176.5264559,-132.32421875,-41.9921875,-42.48046875,-531.25,0.0,0,0
1765394176.554812,1765394176.5303497,-4.8828125,-28.80859375,-28.80859375,249.51171875,0.0,0,0
1765394176.554836,1765394176.5342436,136.71875,9.27734375,-6.8359375,-888.18359375,0.0,0,0
1765394176.5997272,1765394176.5382411,48.33984375,-17.578125,-8.30078125,236.81640625,0.0,0,0
1765394176.599829,1765394176.5421352,-147.4609375,-52.24609375,-14.6484375,-1000.0,0.0,0,0
1765394176.5998669,1765394176.546029,-149.90234375,-41.9921875,-35.64453125,-637.6953125,0.0,0,0
1765394176.599898,1765394176.549923,-24.90234375,-34.66796875,-35.64453125,225.5859375,0.0,0,0
1765394176.5999281,1765394176.5538168,109.375,-28.3203125,-7.8125,-919.921875,0.0,0,0
1765394176.599956,1765394176.557711,50.78125,-39.0625,4.8828125,464.84375,0.0,0,0
1765394176.599985,1765394176.5616047,-144.04296875,-41.015625,-7.8125,-858.88671875,0.0,0,0
1765394176.600014,1765394176.5654986,-170.8984375,-33.69140625,-34.66796875,-676.26953125,0.0,0,0
1765394176.600044,1765394176.5693924,-70.3125,-47.8515625,-45.8984375,21.484375,0.0,0,0
1765394176.600072,1765394176.5732863,77.63671875,-40.0390625,-23.4375,955.56640625,0.0,0,0
1765394176.6001012,1765394176.5771804,76.171875,-41.015625,-3.41796875,675.29296875,0.0,0,0
1765394176.60013,1765394176.5810742,-132.8125,-59.5703125,-14.6484375,-785.64453125,0.0,0,0
1765394176.65874,1765394176.585057,-180.6640625,-55.6640625,-38.57421875,-696.77734375,0.0,0,0
1765394176.6588612,1765394176.5889509,-62.98828125,-40.52734375,-46.875,122.55859375,0.0,0,0
1765394176.65892,1765394176.5928447,73.2421875,-26.3671875,-18.5546875,848.14453125,0.0,0,0
1765394176.658973,1765394176.5967386,115.72265625,-26.3671875,3.41796875,895.5078125,0.0,0,0
1765394176.659026,1765394176.6006327,-81.0546875,-40.52734375,-4.8828125,-531.25,0.0,0,0
1765394176.6590772,1765394176.6045265,-160.15625,-41.015625,-20.01953125,-718.26171875,0.0,0,0
1765394176.659127,1765394176.6084204,-61.03515625,-29.296875,-41.015625,-82.51953125,0.0,0,0
1765394176.659178,1765394176.6123142,58.10546875,-23.92578125,-30.76171875,536.1328125,0.0,0,0
1765394176.65923,1765394176.6162083,137.6953125,-28.80859375,-2.9296875,973.14453125,0.0,0,0
1765394176.6592798,1765394176.6201022,-52.734375,-44.921875,-10.25390625,-383.30078125,0.0,0,0
1765394176.659331,1765394176.623996,-169.43359375,-45.41015625,-29.296875,-836.9140625,0.0,0,0
1765394176.659383,1765394176.62789,-72.265625,-27.83203125,-42.48046875,-117.1875,0.0,0,0
1765394176.704766,1765394176.6318622,48.33984375,-19.53125,-40.0390625,536.1328125,0.0,0,0
1765394176.704864,1765394176.6357563,137.20703125,-17.578125,-19.53125,-949.21875,0.0,0,0
1765394176.7049081,1765394176.63965,-38.0859375,-29.296875,-15.625,-182.12890625,0.0,0,0
1765394176.704948,1765394176.643544,-173.828125,-37.59765625,-32.71484375,-852.5390625,0.0,0,0
1765394176.7049868,1765394176.647438,-79.58984375,-28.3203125,-40.52734375,-138.671875,0.0,0,0
1765394176.705025,1765394176.651332,33.69140625,-3.90625,-20.99609375,465.33203125,0.0,0,0
1765394176.7050629,1765394176.6552258,140.13671875,2.9296875,-6.8359375,-909.1796875,0.0,0,0
1765394176.705101,1765394176.6591198,-19.53125,-38.57421875,-5.859375,11.71875,0.0,0,0
1765394176.705139,1765394176.6630137,-205.078125,-62.98828125,-26.85546875,-1000.0,0.0,0,0
1765394176.705175,1765394176.6669075,-132.32421875,-43.9453125,-48.33984375,-495.60546875,0.0,0,0
1765394176.7052128,1765394176.6708016,14.16015625,-19.04296875,-23.92578125,471.19140625,0.0,0,0
1765394176.705251,1765394176.6746955,127.44140625,-15.625,0.48828125,-953.61328125,0.0,0,0
1765394176.751224,1765394176.678759,-5.37109375,-41.9921875,-12.6953125,-62.98828125,0.0,0,0
1765394176.7513542,1765394176.682653,-173.828125,-57.6171875,-33.203125,-1000.0,0.0,0,0
1765394176.751414,1765394176.686547,-129.39453125,-46.875,-45.41015625,-459.47265625,0.0,0,0
1765394176.7514691,1765394176.690441,-10.7421875,-35.64453125,-41.50390625,326.66015625,0.0,0,0
1765394176.751521,1765394176.694335,122.55859375,-21.484375,-17.578125,-893.06640625,0.0,0,0
1765394176.751574,1765394176.6982288,41.9921875,-24.90234375,-5.859375,295.8984375,0.0,0,0
1765394176.751625,1765394176.702123,-156.73828125,-46.875,-28.3203125,-1000.0,0.0,0,0
1765394176.751675,1765394176.7060168,-142.08984375,-42.96875,-47.8515625,-611.81640625,0.0,0,0
1765394176.7517262,1765394176.7099109,-8.30078125,-22.4609375,-41.9921875,282.2265625,0.0,0,0
1765394176.7517781,1765394176.7138047,125.9765625,-2.44140625,-20.5078125,-929.6875,0.0,0,0
1765394176.751828,1765394176.7176988,67.3828125,-20.01953125,-9.27734375,422.8515625,0.0,0,0
1765394176.75188,1765394176.7215927,-134.765625,-51.7578125,-31.25,-937.5,0.0,0,0
1765394176.824471,1765394176.7258365,-145.99609375,-42.96875,-46.875,-653.80859375,0.0,0,0
1765394176.824546,1765394176.7297304,-31.25,-27.83203125,-43.9453125,138.18359375,0.0,0,0
1765394176.824574,1765394176.7336245,106.4453125,-11.71875,-20.01953125,984.86328125,0.0,0,0
1765394176.824599,1765394176.7375185,92.28515625,-22.4609375,-3.41796875,623.53515625,0.0,0,0
1765394176.824624,1765394176.7414126,-115.234375,-44.921875,-16.6015625,-816.40625,0.0,0,0
1765394176.824648,1765394176.7453065,-142.08984375,-26.85546875,-21.484375,-526.3671875,0.0,0,0
1765394176.824672,1765394176.7492006,-40.0390625,-18.5546875,-35.15625,97.16796875,0.0,0,0
1765394176.824696,1765394176.7530947,77.63671875,-25.390625,-33.69140625,735.3515625,0.0,0,0
1765394176.82472,1765394176.7569885,110.3515625,-21.97265625,-21.484375,808.59375,0.0,0,0
1765394176.8247428,1765394176.7608826,-92.7734375,-31.73828125,-31.25,-677.24609375,0.0,0,0
1765394176.824766,1765394176.7647767,-156.73828125,-39.55078125,-42.48046875,-668.45703125,0.0,0,0
1765394176.8247921,1765394176.7686708,-55.17578125,-33.203125,-54.6875,8.30078125,0.0,0,0
1765394176.840409,1765394176.7727137,66.89453125,-24.90234375,-35.64453125,611.81640625,0.0,0,0
1765394176.840477,1765394176.7766078,138.671875,-24.4140625,-4.39453125,-976.5625,0.0,0,0
1765394176.840506,1765394176.7805018,-60.546875,-49.31640625,-16.11328125,-379.39453125,0.0,0,0
1765394176.8405309,1765394176.784396,-167.96875,-48.33984375,-35.64453125,-744.140625,0.0,0,0
1765394176.8405561,1765394176.78829,-78.125,-37.109375,-42.48046875,-101.07421875,0.0,0,0
1765394176.84058,1765394176.7921839,40.0390625,-23.92578125,-18.06640625,476.5625,0.0,0,0
1765394176.8406038,1765394176.796078,135.25390625,-21.484375,5.37109375,964.84375,0.0,0,0
1765394176.840627,1765394176.799972,-53.22265625,-50.78125,-8.30078125,-360.83984375,0.0,0,0
1765394176.840651,1765394176.8038661,-169.921875,-46.875,-27.83203125,-734.375,0.0,0,0
1765394176.840678,1765394176.8077602,-79.58984375,-27.34375,-35.64453125,-153.80859375,0.0,0,0
1765394176.840791,1765394176.8116543,25.390625,-20.5078125,-20.5078125,362.79296875,0.0,0,0
1765394176.840818,1765394176.8155484,121.58203125,-17.08984375,-0.48828125,-914.55078125,0.0,0,0
1765394176.884683,1765394176.8195734,-38.57421875,-35.64453125,0.0,-127.9296875,0.0,0,0
1765394176.884773,1765394176.8234675,-173.828125,-36.1328125,-13.18359375,-830.078125,0.0,0,0
1765394176.884809,1765394176.8273616,-110.3515625,-26.85546875,-32.2265625,-326.66015625,0.0,0,0
1765394176.88484,1765394176.8312557,-15.13671875,-15.625,-31.25,158.69140625,0.0,0,0
1765394176.8848698,1765394176.8351498,128.41796875,6.8359375,-7.32421875,-864.74609375,0.0,0,0
1765394176.8848991,1765394176.8390436,0.48828125,-25.87890625,-10.25390625,65.4296875,0.0,0,0
1765394176.884929,1765394176.8429377,-178.22265625,-48.33984375,-22.4609375,-871.09375,0.0,0,0
1765394176.884958,1765394176.8468318,-136.71875,-33.203125,-45.41015625,-462.890625,0.0,0,0
1765394176.8849869,1765394176.850726,-26.3671875,-25.390625,-52.734375,20.01953125,0.0,0,0
1765394176.885029,1765394176.85462,118.65234375,-24.90234375,-20.99609375,-889.6484375,0.0,0,0
1765394176.8850582,1765394176.858514,11.23046875,-46.875,-11.71875,198.2421875,0.0,0,0
1765394176.885086,1765394176.8624082,-178.22265625,-56.15234375,-25.390625,-1000.0,0.0,0,0
1765394176.9307468,1765394176.8664231,-162.109375,-48.33984375,-50.29296875,-624.51171875,0.0,0,0
1765394176.9308789,1765394176.8703172,-35.15625,-36.1328125,-52.734375,127.9296875,0.0,0,0
1765394176.930922,1765394176.8742113,113.76953125,-18.06640625,-22.94921875,-907.2265625,0.0,0,0
1765394176.930963,1765394176.8781054,44.43359375,-34.1796875,-10.25390625,358.88671875,0.0,0,0
1765394176.9310038,1765394176.8819995,-163.0859375,-56.640625,-33.69140625,-1000.0,0.0,0,0
1765394176.931045,1765394176.8858936,-148.92578125,-37.109375,-40.0390625,-455.56640625,0.0,0,0
1765394176.931083,1765394176.8897877,-29.296875,-24.90234375,-39.0625,322.265625,0.0,0,0
1765394176.9311202,1765394176.8936818,85.9375,-13.671875,-34.1796875,840.8203125,0.0,0,0
1765394176.931159,1765394176.8975759,64.453125,-25.390625,-15.13671875,447.265625,0.0,0,0
1765394176.9311948,1765394176.90147,-134.27734375,-53.7109375,-20.5078125,-913.57421875,0.0,0,0
1765394176.931233,1765394176.905364,-152.34375,-41.9921875,-33.69140625,-613.28125,0.0,0,0
1765394176.931294,1765394176.9092581,-44.43359375,-28.3203125,-37.109375,52.24609375,0.0,0,0
1765394176.9776,1765394176.9132652,84.47265625,-17.578125,-18.5546875,814.453125,0.0,0,0
1765394176.977748,1765394176.9171593,103.02734375,-26.3671875,-6.8359375,683.10546875,0.0,0,0
1765394176.9778051,1765394176.9210536,-104.4921875,-44.43359375,-16.6015625,-756.34765625,0.0,0,0
1765394176.9778628,1765394176.9249477,-164.0625,-40.52734375,-31.25,-662.109375,0.0,0,0
1765394176.977918,1765394176.9288418,-53.7109375,-28.80859375,-37.59765625,125.9765625,0.0,0,0
1765394176.977969,1765394176.932736,72.75390625,-15.625,-10.25390625,738.76953125,0.0,0,0
1765394176.9780202,1765394176.93663,131.34765625,-4.8828125,8.7890625,946.77734375,0.0,0,0
1765394176.9780731,1765394176.940524,-70.3125,-29.78515625,-15.625,-382.32421875,0.0,0,0
1765394176.978123,1765394176.9444182,-187.5,-58.10546875,-40.52734375,-905.2734375,0.0,0,0
1765394176.978174,1765394176.9483123,-81.54296875,-39.55078125,-44.43359375,-141.11328125,0.0,0,0
1765394176.978225,1765394176.9522066,53.7109375,-19.53125,-26.3671875,671.38671875,0.0,0,0
1765394176.978276,1765394176.9561007,133.30078125,-26.3671875,-10.25390625,-972.16796875,0.0,0,0
1765394177.035102,1765394176.9600933,-51.26953125,-47.36328125,-19.04296875,-251.46484375,0.0,0,0
1765394177.035137,1765394176.9639874,-180.6640625,-52.24609375,-29.78515625,-821.2890625,0.0,0,0
1765394177.03515,1765394176.9678814,-97.16796875,-40.52734375,-40.0390625,-241.69921875,0.0,0,0
1765394177.0351622,1765394176.9717758,18.5546875,-28.80859375,-36.62109375,357.421875,0.0,0,0
1765394177.0351732,1765394176.9756699,127.44140625,-29.296875,-8.7890625,-933.59375,0.0,0,0
1765394177.0351841,1765394176.979564,-31.25,-49.31640625,-2.44140625,-92.28515625,0.0,0,0
1765394177.0351949,1765394176.983458,-187.5,-43.45703125,-30.2734375,-915.52734375,0.0,0,0
1765394177.0352058,1765394176.9873521,-127.44140625,-37.59765625,-57.12890625,-490.72265625,0.0,0,0
1765394177.0352168,1765394176.9912465,-4.8828125,-38.57421875,-43.45703125,216.30859375,0.0,0,0
1765394177.035228,1765394176.9951406,133.7890625,-20.01953125,-9.765625,-875.9765625,0.0,0,0
1765394177.0352378,1765394176.9990346,0.48828125,-34.1796875,-11.71875,7.8125,0.0,0,0
1765394177.035249,1765394177.0029287,-178.22265625,-50.29296875,-31.25,-963.37890625,0.0,0,0
1765394177.079592,1765394177.0068996,-124.51171875,-41.9921875,-41.9921875,-342.28515625,0.0,0,0
1765394177.079654,1765394177.0107937,-8.7890625,-30.2734375,-37.109375,329.58984375,0.0,0,0
1765394177.079686,1765394177.014688,117.67578125,-19.53125,-20.99609375,-897.4609375,0.0,0,0
1765394177.0797172,1765394177.018582,20.01953125,-40.52734375,-11.71875,118.65234375,0.0,0,0
1765394177.079747,1765394177.0224762,-156.73828125,-57.12890625,-20.5078125,-928.22265625,0.0,0,0
1765394177.079778,1765394177.0263703,-123.046875,-27.34375,-29.296875,-291.50390625,0.0,0,0
1765394177.079808,1765394177.0302646,-20.99609375,-7.32421875,-32.71484375,216.796875,0.0,0,0
1765394177.0798469,1765394177.0341587,113.76953125,-17.578125,-26.85546875,-984.86328125,0.0,0,0
1765394177.079953,1765394177.0380528,46.875,-45.41015625,-17.08984375,270.01953125,0.0,0,0
1765394177.080009,1765394177.041947,-149.4140625,-54.19921875,-23.4375,-1000.0,0.0,0,0
1765394177.080041,1765394177.0458412,-139.6484375,-39.55078125,-40.0390625,-524.90234375,0.0,0,0
1765394177.080074,1765394177.0497353,-26.3671875,-30.2734375,-39.0625,160.64453125,0.0,0,0
1765394177.1245482,1765394177.05379,115.72265625,-19.04296875,-10.7421875,-1000.0,0.0,0,0
1765394177.124613,1765394177.0576842,83.0078125,-36.1328125,-1.953125,501.953125,0.0,0,0
1765394177.124641,1765394177.0615785,-125.48828125,-57.12890625,-17.08984375,-899.4140625,0.0,0,0
1765394177.124667,1765394177.0654726,-140.625,-52.734375,-33.69140625,-620.60546875,0.0,0,0
1765394177.124692,1765394177.0693667,-32.2265625,-37.109375,-41.9921875,138.18359375,0.0,0,0
1765394177.124716,1765394177.073261,96.19140625,-21.97265625,-21.97265625,949.70703125,0.0,0,0
1765394177.124747,1765394177.077155,102.05078125,-37.59765625,-13.671875,613.76953125,0.0,0,0
1765394177.124772,1765394177.0810494,-101.5625,-63.96484375,-25.87890625,-824.21875,0.0,0,0
1765394177.124795,1765394177.0849435,-161.1328125,-59.08203125,-38.0859375,-723.14453125,0.0,0,0
1765394177.124819,1765394177.0888376,-43.45703125,-24.4140625,-40.0390625,121.09375,0.0,0,0
1765394177.1248431,1765394177.092732,79.58984375,-14.6484375,-18.06640625,790.0390625,0.0,0,0
1765394177.124866,1765394177.096626,122.55859375,-27.34375,-2.44140625,916.9921875,0.0,0,0
1765394177.170377,1765394177.100678,-69.82421875,-48.33984375,-9.27734375,-463.37890625,0.0,0,0
1765394177.170454,1765394177.1045723,-162.59765625,-41.9921875,-21.97265625,-743.65234375,0.0,0,0
1765394177.170489,1765394177.1084664,-72.265625,-31.25,-39.55078125,-125.48828125,0.0,0,0
1765394177.170523,1765394177.1123607,49.8046875,-27.83203125,-24.4140625,500.48828125,0.0,0,0
1765394177.1705542,1765394177.1162548,152.83203125,-23.4375,-2.44140625,-910.15625,0.0,0,0
1765394177.1705852,1765394177.1201491,-32.2265625,-39.55078125,-7.32421875,-181.15234375,0.0,0,0
1765394177.170615,1765394177.1240432,-166.9921875,-41.015625,-30.2734375,-823.73046875,0.0,0,0
1765394177.170645,1765394177.1279376,-76.171875,-37.59765625,-55.17578125,-270.99609375,0.0,0,0
1765394177.170675,1765394177.1318316,46.38671875,-11.23046875,-45.41015625,395.01953125,0.0,0,0
1765394177.1707351,1765394177.135726,143.5546875,4.39453125,-20.01953125,-956.0546875,0.0,0,0
1765394177.1708229,1765394177.13962,-23.4375,-40.52734375,-12.6953125,-205.56640625,0.0,0,0
1765394177.1708632,1765394177.1435144,-158.203125,-45.41015625,-20.99609375,-794.43359375,0.0,0,0
1765394177.214581,1765394177.1475515,-104.00390625,-39.55078125,-43.45703125,-387.6953125,0.0,0,0
1765394177.2148511,1765394177.1514456,8.7890625,-32.2265625,-34.66796875,128.90625,0.0,0,0
1765394177.21488,1765394177.15534,145.99609375,-15.625,-10.25390625,-842.7734375,0.0,0,0
1765394177.2149062,1765394177.1592343,-9.27734375,-41.015625,-14.16015625,23.4375,0.0,0,0
1765394177.2149298,1765394177.1631284,-182.6171875,-52.24609375,-29.296875,-884.765625,0.0,0,0
1765394177.214955,1765394177.1670227,-112.3046875,-31.25,-32.71484375,-215.33203125,0.0,0,0
1765394177.2149792,1765394177.170917,-8.30078125,-28.3203125,-39.0625,286.62109375,0.0,0,0
1765394177.2150028,1765394177.1748111,111.328125,-34.66796875,-32.71484375,-946.2890625,0.0,0,0
1765394177.215026,1765394177.1787055,2.9296875,-42.96875,-19.04296875,51.26953125,0.0,0,0
1765394177.21505,1765394177.1825995,-170.41015625,-50.29296875,-21.97265625,-911.62109375,0.0,0,0
1765394177.215073,1765394177.1864939,-126.46484375,-45.8984375,-33.69140625,-336.9140625,0.0,0,0
1765394177.2150972,1765394177.1903882,-34.1796875,-42.48046875,-44.921875,27.83203125,0.0,0,0
1765394177.2613719,1765394177.1944144,104.98046875,-29.78515625,-17.08984375,-972.16796875,0.0,0,0
1765394177.261499,1765394177.1983087,56.640625,-44.43359375,4.39453125,477.5390625,0.0,0,0
1765394177.2615411,1765394177.202203,-139.6484375,-62.5,-13.18359375,-943.359375,0.0,0,0
1765394177.261581,1765394177.2060971,-142.08984375,-43.45703125,-36.1328125,-546.875,0.0,0,0
1765394177.2616189,1765394177.2099915,-29.296875,-32.2265625,-44.43359375,212.40234375,0.0,0,0
1765394177.2616582,1765394177.2138858,102.05078125,-13.671875,-15.625,-989.74609375,0.0,0,0
1765394177.261696,1765394177.2177799,70.80078125,-23.92578125,-9.27734375,560.05859375,0.0,0,0
1765394177.2617338,1765394177.2216742,-143.06640625,-41.9921875,-43.9453125,-879.39453125,0.0,0,0
1765394177.261772,1765394177.2255685,-173.828125,-19.53125,-54.19921875,-697.75390625,0.0,0,0
1765394177.2618089,1765394177.2294629,-55.6640625,-17.08984375,-58.59375,26.3671875,0.0,0,0
1765394177.261846,1765394177.233357,80.078125,-13.18359375,-39.0625,840.8203125,0.0,0,0
1765394177.2618828,1765394177.2372513,101.07421875,-16.6015625,-9.765625,780.76171875,0.0,0,0
1765394177.3045619,1765394177.2412627,-114.2578125,-39.0625,-16.11328125,-699.21875,0.0,0,0
1765394177.304634,1765394177.245157,-179.19921875,-38.57421875,-37.59765625,-741.69921875,0.0,0,0
1765394177.3046641,1765394177.2490513,-54.6875,-22.4609375,-46.875,90.8203125,0.0,0,0
1765394177.304689,1765394177.2529457,70.3125,-17.08984375,-27.83203125,756.8359375,0.0,0,0
1765394177.304714,1765394177.25684,117.1875,-27.83203125,-13.18359375,866.2109375,0.0,0,0
1765394177.304737,1765394177.260734,-71.77734375,-39.55078125,-24.90234375,-484.375,0.0,0,0
1765394177.3047612,1765394177.2646284,-179.6875,-40.52734375,-49.8046875,-913.57421875,0.0,0,0
1765394177.304787,1765394177.2685227,-79.1015625,-21.484375,-59.5703125,-116.2109375,0.0,0,0
1765394177.30481,1765394177.272417,55.17578125,-9.27734375,-35.64453125,733.88671875,0.0,0,0
1765394177.3048341,1765394177.2763114,127.9296875,-23.4375,-13.18359375,962.890625,0.0,0,0
1765394177.304859,1765394177.2802055,-57.6171875,-44.43359375,-20.01953125,-399.90234375,0.0,0,0
1765394177.3048818,1765394177.2840998,-157.71484375,-42.96875,-29.296875,-642.578125,0.0,0,0
1765394177.3497128,1765394177.2880995,-80.56640625,-33.69140625,-46.38671875,-150.390625,0.0,0,0
1765394177.3497689,1765394177.2919939,21.484375,-25.87890625,-39.55078125,223.6328125,0.0,0,0
1765394177.349795,1765394177.2958882,142.578125,-15.625,-16.6015625,-953.125,0.0,0,0
1765394177.3498182,1765394177.2997825,-31.25,-37.59765625,-24.90234375,-216.796875,0.0,0,0
1765394177.3498418,1765394177.3036768,-174.31640625,-38.0859375,-33.203125,-756.34765625,0.0,0,0
1765394177.349866,1765394177.3075712,-108.88671875,-29.78515625,-43.45703125,-238.76953125,0.0,0,0
1765394177.3498912,1765394177.3114653,17.578125,-2.9296875,-31.73828125,298.828125,0.0,0,0
1765394177.349914,1765394177.3153596,136.23046875,8.30078125,-18.06640625,970.21484375,0.0,0,0
1765394177.349938,1765394177.319254,-21.484375,-44.43359375,-25.390625,-234.375,0.0,0,0
1765394177.349961,1765394177.3231483,-168.9453125,-51.26953125,-38.0859375,-940.91796875,0.0,0,0
1765394177.349986,1765394177.3270426,-118.65234375,-31.73828125,-48.828125,-446.77734375,0.0,0,0
1765394177.3500092,1765394177.330937,-2.44140625,-26.3671875,-38.57421875,250.0,0.0,0,0
1765394177.425649,1765394177.3351138,142.08984375,-18.06640625,-14.16015625,-919.43359375,0.0,0,0
1765394177.425777,1765394177.339008,28.80859375,-35.15625,-13.18359375,49.31640625,0.0,0,0
1765394177.425836,1765394177.3429024,-158.69140625,-49.31640625,-32.2265625,-990.234375,0.0,0,0
1765394177.42589,1765394177.3467968,-131.34765625,-39.0625,-46.875,-540.52734375,0.0,0,0
1765394177.425945,1765394177.350691,-6.8359375,-27.83203125,-43.45703125,221.19140625,0.0,0,0
1765394177.425997,1765394177.3545854,137.6953125,-14.6484375,-16.11328125,-880.859375,0.0,0,0
1765394177.426052,1765394177.3584797,53.22265625,-11.71875,-9.765625,279.78515625,0.0,0,0
1765394177.426102,1765394177.362374,-157.2265625,-34.1796875,-27.34375,-1000.0,0.0,0,0
1765394177.426154,1765394177.3662686,-153.80859375,-45.41015625,-41.9921875,-652.34375,0.0,0,0
1765394177.426205,1765394177.370163,-11.71875,-25.390625,-33.203125,254.8828125,0.0,0,0
1765394177.426254,1765394177.3740573,131.34765625,-12.20703125,-12.20703125,-926.26953125,0.0,0,0
1765394177.426304,1765394177.3779516,89.35546875,-28.80859375,-3.90625,472.65625,0.0,0,0
1765394177.4567308,1765394177.381943,-124.51171875,-48.828125,-20.5078125,-916.50390625,0.0,0,0
1765394177.4568582,1765394177.3858373,-155.76171875,-42.96875,-33.203125,-627.9296875,0.0,0,0
1765394177.4569018,1765394177.3897316,-41.015625,-29.78515625,-35.15625,104.98046875,0.0,0,0
1765394177.456942,1765394177.393626,91.30859375,-20.99609375,-21.97265625,853.02734375,0.0,0,0
1765394177.456981,1765394177.3975203,103.02734375,-26.3671875,-6.8359375,745.60546875,0.0,0,0
1765394177.4570189,1765394177.4014146,-114.2578125,-38.57421875,-12.20703125,-714.84375,0.0,0,0
1765394177.457058,1765394177.4053092,-175.78125,-35.15625,-38.57421875,-693.359375,0.0,0,0
1765394177.4570959,1765394177.4092035,-75.68359375,-34.66796875,-59.5703125,-64.453125,0.0,0,0
1765394177.4571352,1765394177.4130979,48.828125,-35.64453125,-35.64453125,654.78515625,0.0,0,0
1765394177.457172,1765394177.4169922,110.83984375,-36.1328125,-8.30078125,953.61328125,0.0,0,0
1765394177.457213,1765394177.4208865,-89.84375,-49.8046875,-20.01953125,-448.2421875,0.0,0,0
1765394177.457252,1765394177.4247808,-192.87109375,-49.8046875,-44.43359375,-875.9765625,0.0,0,0
1765394177.500584,1765394177.4288397,-72.75390625,-37.59765625,-46.875,-50.29296875,0.0,0,0
1765394177.5006988,1765394177.432734,56.640625,-5.37109375,-24.90234375,720.21484375,0.0,0,0
1765394177.500742,1765394177.4366283,122.0703125,3.41796875,-2.44140625,-989.2578125,0.0,0,0
1765394177.500781,1765394177.440523,-67.3828125,-48.33984375,-10.7421875,-309.5703125,0.0,0,0
1765394177.500819,1765394177.4444172,-188.96484375,-52.24609375,-25.87890625,-778.3203125,0.0,0,0
1765394177.500857,1765394177.4483116,-95.21484375,-29.78515625,-34.66796875,-127.9296875,0.0,0,0
1765394177.500899,1765394177.452206,15.13671875,-31.73828125,-32.71484375,402.83203125,0.0,0,0
1765394177.500937,1765394177.4561005,117.67578125,-38.0859375,-13.18359375,-960.44921875,0.0,0,0
1765394177.5009742,1765394177.4599948,-49.8046875,-54.19921875,-12.6953125,-178.22265625,0.0,0,0
1765394177.501012,1765394177.4638891,-194.3359375,-42.96875,-27.83203125,-870.60546875,0.0,0,0
1765394177.50105,1765394177.4677837,-120.1171875,-27.34375,-38.57421875,-249.51171875,0.0,0,0
1765394177.501097,1765394177.471678,-7.8125,-25.390625,-29.296875,326.66015625,0.0,0,0
1765394177.544945,1765394177.4757242,126.953125,-10.25390625,-0.9765625,-854.98046875,0.0,0,0
1765394177.5450501,1765394177.4796185,-12.20703125,-31.25,0.48828125,90.33203125,0.0,0,0
1765394177.545085,1765394177.483513,-188.96484375,-51.26953125,-25.390625,-961.42578125,0.0,0,0
1765394177.545116,1765394177.4874074,-125.0,-32.2265625,-39.55078125,-367.67578125,0.0,0,0
1765394177.5452921,1765394177.4913018,-2.44140625,-17.08984375,-29.296875,343.75,0.0,0,0
1765394177.5453188,1765394177.4951963,130.37109375,-7.8125,-4.39453125,-885.7421875,0.0,0,0
1765394177.545343,1765394177.4990907,4.8828125,-32.71484375,-11.71875,139.6484375,0.0,0,0
1765394177.545368,1765394177.5029852,-182.12890625,-58.59375,-35.64453125,-1000.0,0.0,0,0
1765394177.545391,1765394177.5068796,-133.7890625,-37.109375,-49.8046875,-463.37890625,0.0,0,0
1765394177.5454159,1765394177.510774,-12.20703125,-20.5078125,-41.9921875,349.609375,0.0,0,0
1765394177.545439,1765394177.5146685,127.44140625,-17.08984375,-11.71875,-897.4609375,0.0,0,0
1765394177.545463,1765394177.5185628,52.734375,-27.34375,-6.34765625,347.16796875,0.0,0,0
1765394177.590081,1765394177.5225933,-146.97265625,-47.36328125,-25.390625,-970.703125,0.0,0,0
1765394177.590223,1765394177.5264878,-126.953125,-33.69140625,-32.2265625,-455.078125,0.0,0,0
1765394177.590281,1765394177.5303822,-22.94921875,-28.80859375,-42.48046875,238.76953125,0.0,0,0
1765394177.590335,1765394177.5342767,103.02734375,-21.97265625,-19.04296875,-976.5625,0.0,0,0
1765394177.590388,1765394177.538171,67.87109375,-35.64453125,-5.37109375,452.1484375,0.0,0,0
1765394177.5904388,1765394177.5420656,-138.18359375,-54.6875,-29.78515625,-904.78515625,0.0,0,0
1765394177.5904799,1765394177.54596,-169.921875,-53.7109375,-51.7578125,-845.21484375,0.0,0,0
1765394177.590517,1765394177.5498545,-48.33984375,-43.45703125,-54.6875,-121.09375,0.0,0,0
1765394177.590554,1765394177.5537488,109.375,0.9765625,-22.4609375,-994.62890625,0.0,0,0
1765394177.590593,1765394177.5576434,95.21484375,-13.671875,-8.7890625,538.0859375,0.0,0,0
1765394177.5906298,1765394177.5615377,-111.81640625,-49.8046875,-25.390625,-847.16796875,0.0,0,0
1765394177.590668,1765394177.5654323,-170.41015625,-44.43359375,-43.45703125,-887.6953125,0.0,0,0
1765394177.635424,1765394177.5694509,-56.15234375,-36.62109375,-52.24609375,-92.28515625,0.0,0,0
1765394177.6355698,1765394177.5733454,84.47265625,-24.90234375,-27.83203125,891.6015625,0.0,0,0
1765394177.635629,1765394177.57724,102.5390625,-33.203125,-8.30078125,691.40625,0.0,0,0
1765394177.6356852,1765394177.5811343,-83.984375,-53.22265625,-22.4609375,-672.36328125,0.0,0,0
1765394177.635741,1765394177.585029,-164.0625,-53.7109375,-41.015625,-882.32421875,0.0,0,0
1765394177.635805,1765394177.5889232,-71.2890625,-39.55078125,-51.7578125,-109.86328125,0.0,0,0
1765394177.635856,1765394177.5928178,54.6875,-33.69140625,-34.66796875,738.28125,0.0,0,0
1765394177.635922,1765394177.5967124,120.60546875,-19.04296875,-11.23046875,901.85546875,0.0,0,0
1765394177.635974,1765394177.6006067,-61.03515625,-25.87890625,-27.34375,-426.7578125,0.0,0,0
1765394177.636039,1765394177.6045012,-175.78125,-52.24609375,-41.9921875,-926.26953125,0.0,0,0
1765394177.636092,1765394177.6083956,-83.49609375,-40.52734375,-44.43359375,-283.69140625,0.0,0,0
1765394177.6361442,1765394177.6122901,46.875,-20.5078125,-26.3671875,546.875,0.0,0,0
1765394177.679636,1765394177.6162963,139.6484375,-16.11328125,-12.20703125,-939.94140625,0.0,0,0
1765394177.679756,1765394177.6201906,-36.1328125,-37.59765625,-12.20703125,-181.15234375,0.0,0,0
1765394177.679799,1765394177.6240852,-170.8984375,-44.43359375,-21.484375,-899.90234375,0.0,0,0
1765394177.679839,1765394177.6279798,-95.703125,-37.59765625,-46.38671875,-420.41015625,0.0,0,0
1765394177.679877,1765394177.631874,19.04296875,-26.3671875,-39.0625,272.4609375,0.0,0,0
1765394177.679917,1765394177.6357687,147.4609375,-13.671875,0.48828125,-830.56640625,0.0,0,0
1765394177.679956,1765394177.6396632,-4.8828125,-48.828125,-4.8828125,64.94140625,0.0,0,0
1765394177.6799932,1765394177.6435575,-174.8046875,-51.7578125,-25.390625,-921.38671875,0.0,0,0
1765394177.680031,1765394177.647452,-109.375,-34.66796875,-40.0390625,-413.0859375,0.0,0,0
1765394177.6800792,1765394177.6513467,14.6484375,-27.83203125,-29.78515625,240.72265625,0.0,0,0
1765394177.680117,1765394177.655241,149.4140625,-13.671875,-0.9765625,-884.27734375,0.0,0,0
1765394177.680157,1765394177.6591356,17.08984375,-40.0390625,-5.37109375,66.89453125,0.0,0,0
1765394177.7248561,1765394177.663131,-162.59765625,-47.36328125,-17.08984375,-984.375,0.0,0,0
1765394177.7249799,1765394177.6670256,-120.1171875,-35.15625,-38.57421875,-394.04296875,0.0,0,0
1765394177.725023,1765394177.67092,-12.6953125,-27.34375,-36.1328125,277.34375,0.0,0,0
1765394177.7250612,1765394177.6748145,119.140625,-20.01953125,-14.6484375,-885.7421875,0.0,0,0
1765394177.7251,1765394177.678709,29.78515625,-35.15625,-12.6953125,234.86328125,0.0,0,0
1765394177.725139,1765394177.6826036,-156.25,-46.875,-17.08984375,-964.35546875,0.0,0,0
1765394177.725176,1765394177.686498,-134.27734375,-17.08984375,-36.62109375,-401.85546875,0.0,0,0
1765394177.7252128,1765394177.6903925,-48.33984375,-9.27734375,-54.6875,43.9453125,0.0,0,0
1765394177.72526,1765394177.694287,95.21484375,-21.97265625,-33.203125,937.01171875,0.0,0,0
1765394177.7253141,1765394177.6981816,75.68359375,-32.2265625,-14.16015625,583.984375,0.0,0,0
1765394177.725352,1765394177.702076,-134.27734375,-41.50390625,-20.99609375,-885.25390625,0.0,0,0
1765394177.7253902,1765394177.7059705,-162.59765625,-37.59765625,-39.55078125,-585.44921875,0.0,0,0
1765394177.770271,1765394177.709953,-53.7109375,-34.1796875,-43.9453125,156.73828125,0.0,0,0
1765394177.7704,1765394177.7138476,85.9375,-13.671875,-17.578125,913.0859375,0.0,0,0
1765394177.770444,1765394177.717742,83.49609375,-20.99609375,-5.859375,700.68359375,0.0,0,0
1765394177.770483,1765394177.7216365,-123.046875,-44.921875,-13.18359375,-743.65234375,0.0,0,0
1765394177.77052,1765394177.725531,-170.8984375,-41.50390625,-34.66796875,-688.4765625,0.0,0,0
1765394177.7705579,1765394177.7294257,-53.22265625,-22.4609375,-39.55078125,222.16796875,0.0,0,0
1765394177.770596,1765394177.7333202,67.87109375,7.32421875,-20.5078125,920.41015625,0.0,0,0
1765394177.770633,1765394177.7372146,91.30859375,-10.25390625,-15.625,792.48046875,0.0,0,0
1765394177.7706702,1765394177.7411091,-106.4453125,-47.8515625,-12.6953125,-576.66015625,0.0,0,0
1765394177.770708,1765394177.7450037,-185.05859375,-43.9453125,-24.90234375,-719.7265625,0.0,0,0
1765394177.7707462,1765394177.7488983,-82.51953125,-29.296875,-39.55078125,54.19921875,0.0,0,0
1765394177.770783,1765394177.7527928,27.83203125,-16.6015625,-24.4140625,682.6171875,0.0,0,0
1765394177.832652,1765394177.7567694,98.6328125,-19.53125,-9.27734375,949.70703125,0.0,0,0
1765394177.8326871,1765394177.7606637,-91.796875,-42.96875,-16.11328125,-376.953125,0.0,0,0
1765394177.832696,1765394177.7645583,-215.33203125,-45.41015625,-38.0859375,-844.7265625,0.0,0,0
1765394177.832705,1765394177.768453,-116.2109375,-31.25,-46.875,-95.21484375,0.0,0,0
1765394177.832713,1765394177.7723475,12.20703125,-24.90234375,-18.06640625,574.21875,0.0,0,0
1765394177.832723,1765394177.776242,113.76953125,-4.8828125,9.765625,-874.51171875,0.0,0,0
1765394177.832746,1765394177.7801366,-63.96484375,-4.8828125,1.46484375,18.06640625,0.0,0,0
1765394177.832764,1765394177.7840312,-231.93359375,-41.015625,-26.85546875,-1000.0,0.0,0,0
1765394177.8327732,1765394177.7879255,-144.53125,-37.109375,-43.45703125,-369.140625,0.0,0,0
1765394177.832792,1765394177.79182,-11.23046875,-6.8359375,-21.484375,607.421875,0.0,0,0
1765394177.832834,1765394177.7957146,87.40234375,9.27734375,16.11328125,-895.5078125,0.0,0,0
1765394177.832911,1765394177.7996092,-77.1484375,-23.92578125,3.41796875,-32.2265625,0.0,0,0
1765394177.874495,1765394177.8036582,-259.765625,-44.921875,-21.484375,-958.984375,0.0,0,0
1765394177.874578,1765394177.8075528,-205.56640625,-26.85546875,-27.34375,-415.0390625,0.0,0,0
1765394177.874611,1765394177.8114474,-101.07421875,-14.6484375,-9.765625,294.43359375,0.0,0,0
1765394177.874642,1765394177.815342,3.41796875,-3.41796875,21.484375,-920.8984375,0.0,0,0
1765394177.8746712,1765394177.8192365,-134.27734375,-13.18359375,26.3671875,9.27734375,0.0,0,0
1765394177.874701,1765394177.823131,-320.3125,-12.20703125,15.13671875,-980.46875,0.0,0,0
1765394177.8747299,1765394177.8270257,-315.91796875,-13.18359375,-14.16015625,-722.16796875,0.0,0,0
1765394177.87485,1765394177.8309202,-200.1953125,-20.01953125,-16.6015625,44.921875,0.0,0,0
1765394177.874882,1765394177.8348148,-37.59765625,-6.34765625,17.08984375,-878.41796875,0.0,0,0
1765394177.874911,1765394177.8387094,-138.18359375,-21.484375,33.203125,108.88671875,0.0,0,0
1765394177.8749409,1765394177.842604,-327.1484375,-31.73828125,18.06640625,-1000.0,0.0,0,0
1765394177.874969,1765394177.8464985,-312.98828125,-27.83203125,-1.46484375,-742.67578125,0.0,0,0
1765394177.9200351,1765394177.8505383,-187.5,-18.06640625,-15.13671875,88.37890625,0.0,0,0
1765394177.920139,1765394177.8544328,-51.26953125,-9.27734375,-14.6484375,-938.96484375,0.0,0,0
1765394177.920182,1765394177.8583276,-109.375,-24.90234375,2.44140625,301.26953125,0.0,0,0
1765394177.92022,1765394177.8622222,-279.296875,-26.85546875,2.9296875,-979.98046875,0.0,0,0
1765394177.920258,1765394177.8661168,-275.87890625,-16.11328125,-18.5546875,-667.96875,0.0,0,0
1765394177.920296,1765394177.8700113,-148.4375,-11.71875,-25.87890625,156.25,0.0,0,0
1765394177.9203331,1765394177.873906,-11.71875,1.46484375,-12.20703125,995.1171875,0.0,0,0
1765394177.9203699,1765394177.8778005,-21.484375,-21.484375,-7.8125,397.94921875,0.0,0,0
1765394177.920408,1765394177.881695,-195.3125,-59.5703125,-32.71484375,-979.98046875,0.0,0,0
1765394177.920445,1765394177.8855896,-215.33203125,-44.921875,-41.50390625,-584.47265625,0.0,0,0
1765394177.9204879,1765394177.8894842,-103.02734375,-35.64453125,-49.31640625,161.62109375,0.0,0,0
1765394177.920532,1765394177.8933787,41.9921875,-33.69140625,-34.1796875,802.734375,0.0,0,0
1765394177.9647338,1765394177.8974085,91.796875,-39.55078125,-18.5546875,808.10546875,0.0,0,0
1765394177.9648561,1765394177.9013033,-119.140625,-57.6171875,-38.0859375,-626.46484375,0.0,0,0
1765394177.96489,1765394177.9051979,-195.3125,-53.7109375,-46.38671875,-750.48828125,0.0,0,0
1765394177.9649222,1765394177.9090924,-79.58984375,-42.48046875,-63.4765625,23.92578125,0.0,0,0
1765394177.964952,1765394177.912987,53.7109375,-32.2265625,-55.6640625,659.66796875,0.0,0,0
1765394177.964982,1765394177.9168816,134.27734375,-29.296875,-23.4375,-887.20703125,0.0,0,0
1765394177.965011,1765394177.9207761,-65.91796875,-61.03515625,-41.50390625,-162.109375,0.0,0,0
1765394177.965041,1765394177.924671,-206.54296875,-59.08203125,-68.359375,-840.8203125,0.0,0,0
1765394177.9650922,1765394177.9285655,-99.12109375,-34.66796875,-79.1015625,-138.18359375,0.0,0,0
1765394177.965122,1765394177.93246,35.64453125,-36.62109375,-61.03515625,449.70703125,0.0,0,0
1765394177.965177,1765394177.9363546,146.97265625,-24.4140625,-25.87890625,-842.7734375,0.0,0,0
1765394177.965206,1765394177.9402492,-20.5078125,-52.24609375,-39.55078125,-1.953125,0.0,0,0
1765394178.0248792,1765394177.9443586,-176.7578125,-65.4296875,-51.7578125,-861.81640625,0.0,0,0
1765394178.0250502,1765394177.9482532,-85.44921875,-40.0390625,-62.98828125,-165.0390625,0.0,0,0
1765394178.025084,1765394177.952148,44.921875,-30.2734375,-59.08203125,354.00390625,0.0,0,0
1765394178.025116,1765394177.9560425,154.78515625,-24.4140625,-26.85546875,-870.1171875,0.0,0,0
1765394178.025148,1765394177.959937,-19.53125,-43.45703125,-35.64453125,1.953125,0.0,0,0
1765394178.025177,1765394177.963832,-171.38671875,-43.45703125,-45.8984375,-770.01953125,0.0,0,0
1765394178.025207,1765394177.9677265,-97.16796875,-33.203125,-58.10546875,-144.53125,0.0,0,0
1765394178.025236,1765394177.971621,-2.9296875,-36.62109375,-64.94140625,220.703125,0.0,0,0
1765394178.025265,1765394177.9755158,122.0703125,-31.73828125,-34.66796875,-871.58203125,0.0,0,0
1765394178.025295,1765394177.9794104,-1.953125,-51.26953125,-27.34375,172.8515625,0.0,0,0
1765394178.025323,1765394177.983305,-216.30859375,-56.15234375,-50.78125,-1000.0,0.0,0,0
1765394178.025352,1765394177.9871998,-163.57421875,-40.52734375,-62.98828125,-317.3828125,0.0,0,0
1765394178.054629,1765394177.9912033,-25.390625,-35.15625,-42.48046875,487.79296875,0.0,0,0
1765394178.054697,1765394177.9950979,112.79296875,-29.78515625,-18.06640625,-872.0703125,0.0,0,0
1765394178.054723,1765394177.9989927,12.6953125,-42.48046875,-22.94921875,322.265625,0.0,0,0
1765394178.0547478,1765394178.0028872,-216.30859375,-49.31640625,-32.71484375,-902.34375,0.0,0,0
1765394178.054772,1765394178.006782,-186.5234375,-19.04296875,-48.828125,-370.1171875,0.0,0,0
1765394178.054795,1765394178.0106766,-64.94140625,-5.37109375,-51.26953125,308.10546875,0.0,0,0
1765394178.054819,1765394178.0145712,55.6640625,-13.18359375,-26.85546875,-934.08203125,0.0,0,0
1765394178.054842,1765394178.018466,-3.41796875,-28.80859375,-19.04296875,543.45703125,0.0,0,0
1765394178.054865,1765394178.0223606,-201.171875,-35.15625,-32.71484375,-900.87890625,0.0,0,0
1765394178.054889,1765394178.0262554,-208.49609375,-33.203125,-47.8515625,-571.77734375,0.0,0,0
1765394178.054913,1765394178.03015,-93.75,-22.4609375,-52.734375,317.87109375,0.0,0,0
1765394178.054966,1765394178.0340447,32.2265625,0.48828125,-36.62109375,989.74609375,0.0,0,0
1765394178.115425,1765394178.038045,7.32421875,-20.5078125,-25.87890625,698.73046875,0.0,0,0
1765394178.1154828,1765394178.0419395,-220.703125,-44.43359375,-33.69140625,-758.7890625,0.0,0,0
1765394178.11551,1765394178.0458343,-261.71875,-29.78515625,-49.8046875,-593.26171875,0.0,0,0
1765394178.115538,1765394178.0497289,-119.62890625,-21.97265625,-61.03515625,308.10546875,0.0,0,0
1765394178.115563,1765394178.0536237,-20.01953125,-17.578125,-45.8984375,828.125,0.0,0,0
1765394178.115586,1765394178.0575182,6.34765625,-7.8125,-7.8125,-992.67578125,0.0,0,0
1765394178.1156092,1765394178.061413,-208.0078125,-18.5546875,-22.94921875,-353.515625,0.0,0,0
1765394178.1156852,1765394178.0653076,-328.125,-32.2265625,-62.5,-801.7578125,0.0,0,0
1765394178.115724,1765394178.0692024,-198.73046875,-16.6015625,-69.82421875,121.58203125,0.0,0,0
1765394178.1157491,1765394178.073097,-73.2421875,-4.39453125,-41.015625,764.6484375,0.0,0,0
1765394178.115772,1765394178.0769918,1.46484375,-8.30078125,-9.27734375,-989.74609375,0.0,0,0
1765394178.1157959,1765394178.0808864,-174.31640625,-23.92578125,-27.83203125,-279.78515625,0.0,0,0
1765394178.160523,1765394178.084883,-323.2421875,-29.296875,-50.78125,-864.74609375,0.0,0,0
1765394178.1605902,1765394178.0887778,-234.86328125,-19.04296875,-60.05859375,-77.1484375,0.0,0,0
1765394178.1606212,1765394178.0926723,-83.0078125,-9.765625,-39.0625,653.3203125,0.0,0,0
1765394178.160651,1765394178.0965672,4.39453125,-5.37109375,-2.9296875,-934.5703125,0.0,0,0
1765394178.160681,1765394178.1004617,-187.98828125,-26.3671875,-8.7890625,-239.2578125,0.0,0,0
1765394178.1607108,1765394178.1043565,-284.66796875,-22.94921875,-24.4140625,-654.78515625,0.0,0,0
1765394178.1607418,1765394178.1082513,-235.3515625,-12.6953125,-55.6640625,-377.44140625,0.0,0,0
1765394178.160827,1765394178.112146,-127.44140625,-20.5078125,-56.15234375,-41.50390625,0.0,0,0
1765394178.160884,1765394178.1160407,52.24609375,-11.71875,-14.6484375,-863.28125,0.0,0,0
1765394178.160915,1765394178.1199353,-113.28125,-29.78515625,-4.39453125,28.80859375,0.0,0,0
1765394178.160946,1765394178.12383,-305.6640625,-37.109375,-27.83203125,-1000.0,0.0,0,0
1765394178.1609778,1765394178.1277246,-209.9609375,-20.99609375,-62.5,-454.58984375,0.0,0,0
1765394178.205577,1765394178.1317139,-97.16796875,-11.23046875,-43.9453125,490.72265625,0.0,0,0
1765394178.205633,1765394178.1356084,38.57421875,-5.37109375,-10.7421875,-891.11328125,0.0,0,0
1765394178.2056599,1765394178.1395032,-60.546875,-26.3671875,-18.5546875,3.41796875,0.0,0,0
1765394178.205684,1765394178.143398,-275.87890625,-39.55078125,-28.80859375,-950.1953125,0.0,0,0
1765394178.205708,1765394178.1472926,-219.7265625,-24.90234375,-42.48046875,-488.28125,0.0,0,0
1765394178.205732,1765394178.1511874,-84.9609375,1.46484375,-41.015625,180.6640625,0.0,0,0
1765394178.205755,1765394178.1550822,41.9921875,16.6015625,-4.8828125,-870.60546875,0.0,0,0
1765394178.205778,1765394178.1589768,-49.8046875,-27.83203125,-13.671875,193.359375,0.0,0,0
1765394178.2058408,1765394178.1628716,-252.44140625,-48.33984375,-41.9921875,-1000.0,0.0,0,0
1765394178.205898,1765394178.1667662,-218.26171875,-32.2265625,-46.875,-524.90234375,0.0,0,0
1765394178.206038,1765394178.170661,-77.63671875,-11.71875,-40.52734375,353.515625,0.0,0,0
1765394178.206066,1765394178.1745558,41.50390625,0.0,-17.08984375,-950.68359375,0.0,0,0
1765394178.2511308,1765394178.1786094,-34.66796875,-17.08984375,-2.9296875,353.515625,0.0,0,0
1765394178.251202,1765394178.1825042,-200.1953125,-33.203125,-19.53125,-923.828125,0.0,0,0
1765394178.2512362,1765394178.1863987,-218.26171875,-31.25,-49.8046875,-628.90625,0.0,0,0
1765394178.251267,1765394178.1902936,-115.72265625,-26.85546875,-56.640625,216.30859375,0.0,0,0
1765394178.2512991,1765394178.1941884,43.9453125,-7.8125,-21.97265625,-999.51171875,0.0,0,0
1765394178.251329,1765394178.1980832,40.0390625,-1.953125,4.39453125,706.54296875,0.0,0,0
1765394178.251362,1765394178.2019777,-197.75390625,-26.3671875,-24.4140625,-747.0703125,0.0,0,0
1765394178.251393,1765394178.2058725,-266.6015625,-30.2734375,-48.33984375,-829.58984375,0.0,0,0
1765394178.251423,1765394178.2097673,-107.91015625,-11.71875,-50.29296875,228.515625,0.0,0,0
1765394178.251453,1765394178.2136621,35.15625,-8.7890625,-25.87890625,-995.1171875,0.0,0,0
1765394178.251483,1765394178.2175567,26.85546875,-21.484375,-0.9765625,681.640625,0.0,0,0
1765394178.251513,1765394178.2214515,-168.9453125,-36.62109375,-10.7421875,-674.31640625,0.0,0,0
1765394178.325666,1765394178.225673,-243.1640625,-36.62109375,-37.109375,-890.625,0.0,0,0
1765394178.325718,1765394178.2295678,-138.18359375,-28.3203125,-45.8984375,32.71484375,0.0,0,0
1765394178.325749,1765394178.2334626,-3.41796875,-17.08984375,-27.34375,854.00390625,0.0,0,0
1765394178.325781,1765394178.2373574,71.77734375,-20.99609375,12.20703125,978.515625,0.0,0,0
1765394178.325811,1765394178.2412522,-141.11328125,-42.96875,4.39453125,-305.6640625,0.0,0,0
1765394178.325841,1765394178.245147,-273.92578125,-37.59765625,-25.390625,-823.73046875,0.0,0,0
1765394178.325871,1765394178.2490418,-151.85546875,-20.5078125,-31.73828125,-119.140625,0.0,0,0
1765394178.325901,1765394178.2529366,-25.87890625,-33.203125,-27.34375,575.1953125,0.0,0,0
1765394178.325931,1765394178.2568314,67.87109375,-22.4609375,-5.37109375,-916.015625,0.0,0,0
1765394178.325963,1765394178.2607262,-139.16015625,-31.25,2.9296875,-185.546875,0.0,0,0
1765394178.3260438,1765394178.264621,-264.16015625,-41.9921875,-11.23046875,-863.76953125,0.0,0,0
1765394178.326109,1765394178.2685158,-160.64453125,-20.5078125,-33.203125,-166.9921875,0.0,0,0
1765394178.339954,1765394178.2725518,-45.8984375,-19.04296875,-26.3671875,459.47265625,0.0,0,0
1765394178.340002,1765394178.2764466,104.00390625,-34.1796875,0.0,-896.97265625,0.0,0,0
1765394178.3400269,1765394178.2803414,-73.2421875,-45.8984375,0.0,-15.625,0.0,0,0
1765394178.340051,1765394178.2842362,-272.94921875,-52.24609375,-19.04296875,-1000.0,0.0,0,0
1765394178.340075,1765394178.288131,-181.640625,-31.25,-42.96875,-275.87890625,0.0,0,0
1765394178.3400981,1765394178.2920258,-26.85546875,-13.671875,-21.484375,544.921875,0.0,0,0
1765394178.3401222,1765394178.2959206,106.93359375,-13.671875,13.18359375,-867.1875,0.0,0,0
1765394178.34018,1765394178.2998154,-41.015625,-31.25,-2.44140625,188.96484375,0.0,0,0
1765394178.34021,1765394178.3037102,-271.484375,-55.17578125,-40.0390625,-1000.0,0.0,0,0
1765394178.3402371,1765394178.3076053,-203.125,-42.96875,-46.875,-532.71484375,0.0,0,0
1765394178.3402612,1765394178.3115,-26.85546875,-17.578125,-29.296875,535.64453125,0.0,0,0
1765394178.340309,1765394178.3153949,114.2578125,-15.625,2.9296875,-866.2109375,0.0,0,0
1765394178.3848698,1765394178.3194087,-12.6953125,-39.55078125,-11.23046875,180.6640625,0.0,0,0
1765394178.384982,1765394178.3233037,-244.140625,-51.7578125,-36.1328125,-1000.0,0.0,0,0
1765394178.385024,1765394178.3271985,-224.12109375,-39.0625,-37.59765625,-631.34765625,0.0,0,0
1765394178.385068,1765394178.3310933,-65.91796875,-19.04296875,-40.0390625,302.734375,0.0,0,0
1765394178.3851058,1765394178.334988,104.00390625,-1.953125,-14.6484375,-884.27734375,0.0,0,0
1765394178.3851469,1765394178.338883,36.62109375,-23.4375,-1.46484375,483.3984375,0.0,0,0
1765394178.385185,1765394178.3427777,-218.26171875,-43.9453125,-33.203125,-936.03515625,0.0,0,0
1765394178.3852239,1765394178.3466728,-259.27734375,-39.0625,-57.6171875,-834.9609375,0.0,0,0
1765394178.385262,1765394178.3505676,-62.5,-18.5546875,-40.52734375,253.90625,0.0,0,0
1765394178.385299,1765394178.3544624,120.1171875,-2.9296875,1.953125,-903.80859375,0.0,0,0
1765394178.385335,1765394178.3583572,84.47265625,-18.06640625,-3.41796875,630.37109375,0.0,0,0
1765394178.385372,1765394178.362252,-182.12890625,-42.96875,-35.64453125,-804.19921875,0.0,0,0
1765394178.430877,1765394178.366261,-253.41796875,-37.109375,-53.7109375,-823.73046875,0.0,0,0
1765394178.4310951,1765394178.3701558,-91.30859375,-21.97265625,-44.921875,282.71484375,0.0,0,0
1765394178.4311528,1765394178.3740506,96.19140625,-12.6953125,-7.32421875,-983.88671875,0.0,0,0
1765394178.431207,1765394178.3779454,134.27734375,-21.484375,6.34765625,848.6328125,0.0,0,0
1765394178.4312599,1765394178.3818405,-160.15625,-51.26953125,-16.11328125,-558.10546875,0.0,0,0
1765394178.431382,1765394178.3857353,-257.8125,-40.0390625,-34.1796875,-816.40625,0.0,0,0
1765394178.431424,1765394178.38963,-82.51953125,-18.06640625,-48.33984375,263.18359375,0.0,0,0
1765394178.431461,1765394178.393525,97.16796875,-34.1796875,-22.94921875,908.69140625,0.0,0,0
1765394178.431498,1765394178.39742,173.828125,-35.64453125,3.41796875,989.74609375,0.0,0,0
1765394178.4315362,1765394178.4013147,-96.19140625,-40.52734375,-28.80859375,-277.83203125,0.0,0,0
1765394178.431573,1765394178.4052095,-272.94921875,-51.26953125,-52.24609375,-1000.0,0.0,0,0
1765394178.431612,1765394178.4091043,-97.65625,-32.2265625,-48.33984375,19.53125,0.0,0,0
1765394178.474407,1765394178.413099,109.375,-13.18359375,-2.9296875,945.3125,0.0,0,0
1765394178.474485,1765394178.416994,209.47265625,-7.32421875,10.25390625,-939.94140625,0.0,0,0
1765394178.4745119,1765394178.420889,-43.45703125,-32.2265625,-33.203125,-47.36328125,0.0,0,0
1765394178.474538,1765394178.4247837,-273.92578125,-47.8515625,-48.33984375,-1000.0,0.0,0,0
1765394178.4745631,1765394178.4286785,-133.30078125,-32.71484375,-42.48046875,-110.83984375,0.0,0,0
1765394178.474588,1765394178.4325736,91.30859375,-9.27734375,-7.32421875,874.51171875,0.0,0,0
1765394178.474612,1765394178.4364684,222.65625,-5.37109375,21.484375,-905.76171875,0.0,0,0
1765394178.474637,1765394178.4403632,-12.20703125,-37.59765625,-27.83203125,140.13671875,0.0,0,0
1765394178.474661,1765394178.4442582,-295.8984375,-58.59375,-64.94140625,-1000.0,0.0,0,0
1765394178.474684,1765394178.448153,-206.0546875,-41.015625,-48.828125,-517.08984375,0.0,0,0
1765394178.474708,1765394178.4520478,51.7578125,-7.8125,-15.625,768.5546875,0.0,0,0
1765394178.474731,1765394178.4559429,225.09765625,1.953125,11.23046875,-860.83984375,0.0,0,0
1765394178.5363588,1765394178.4599342,16.11328125,-25.87890625,-29.78515625,180.17578125,0.0,0,0
1765394178.536544,1765394178.4638293,-288.0859375,-49.8046875,-62.98828125,-1000.0,0.0,0,0
1765394178.536602,1765394178.467724,-238.76953125,-36.1328125,-48.828125,-687.5,0.0,0,0
1765394178.5366669,1765394178.4716191,17.08984375,-6.8359375,-8.7890625,553.22265625,0.0,0,0
1765394178.5367198,1765394178.475514,229.00390625,12.20703125,14.6484375,-833.0078125,0.0,0,0
1765394178.536772,1765394178.4794087,78.61328125,-18.5546875,-23.92578125,257.8125,0.0,0,0
1765394178.536823,1765394178.4833038,-248.53515625,-54.6875,-66.40625,-1000.0,0.0,0,0
1765394178.536881,1765394178.4871986,-277.34375,-39.55078125,-61.5234375,-898.92578125,0.0,0,0
1765394178.536931,1765394178.4910936,8.7890625,-17.08984375,-6.8359375,298.828125,0.0,0,0
1765394178.53698,1765394178.4949884,279.296875,-2.9296875,32.2265625,-812.98828125,0.0,0,0
1765394178.537029,1765394178.4988832,152.83203125,-10.7421875,-8.7890625,361.328125,0.0,0,0
1765394178.53708,1765394178.5027783,-244.62890625,-47.36328125,-56.640625,-988.76953125,0.0,0,0
1765394178.5806122,1765394178.506768,-322.75390625,-36.1328125,-56.640625,-939.94140625,0.0,0,0
1765394178.58075,1765394178.510663,-2.9296875,-13.18359375,2.44140625,203.125,0.0,0,0
1765394178.580904,1765394178.5145578,295.41015625,-4.39453125,55.17578125,-849.609375,0.0,0,0
1765394178.5809321,1765394178.518453,200.68359375,-18.5546875,-4.8828125,548.828125,0.0,0,0
1765394178.580957,1765394178.5223477,-191.40625,-54.19921875,-63.4765625,-854.98046875,0.0,0,0
1765394178.580982,1765394178.5262427,-319.82421875,-41.50390625,-41.50390625,-981.93359375,0.0,0,0
1765394178.581007,1765394178.5301375,-64.94140625,-7.32421875,2.9296875,143.06640625,0.0,0,0
1765394178.5810308,1765394178.5340326,236.328125,5.859375,33.69140625,-905.76171875,0.0,0,0
1765394178.581055,1765394178.5379274,243.1640625,-33.69140625,-17.578125,713.8671875,0.0,0,0
1765394178.581078,1765394178.5418222,-146.484375,-59.08203125,-79.58984375,-627.44140625,0.0,0,0
1765394178.5811021,1765394178.5457172,-373.53515625,-47.8515625,-74.21875,-1000.0,0.0,0,0
1765394178.581126,1765394178.549612,-115.72265625,-19.53125,-11.23046875,-116.2109375,0.0,0,0
1765394178.6261702,1765394178.5536659,221.6796875,-1.46484375,43.9453125,-954.1015625,0.0,0,0
1765394178.626326,1765394178.5575607,283.203125,-17.08984375,12.6953125,931.15234375,0.0,0,0
1765394178.626368,1765394178.5614557,-108.3984375,-42.96875,-62.98828125,-301.7578125,0.0,0,0
1765394178.626407,1765394178.5653505,-427.24609375,-52.24609375,-84.47265625,-1000.0,0.0,0,0
1765394178.626446,1765394178.5692456,-159.66796875,-27.83203125,-21.484375,-224.12109375,0.0,0,0
1765394178.626485,1765394178.5731404,224.609375,-1.953125,44.921875,993.65234375,0.0,0,0
1765394178.6265228,1765394178.5770354,333.49609375,-11.71875,9.765625,-972.16796875,0.0,0,0
1765394178.626561,1765394178.5809305,-50.29296875,-44.43359375,-94.23828125,-104.98046875,0.0,0,0
1765394178.6265988,1765394178.5848253,-399.90234375,-55.17578125,-104.00390625,-1000.0,0.0,0,0
1765394178.626636,1765394178.5887203,-189.94140625,-32.2265625,-5.37109375,-312.98828125,0.0,0,0
1765394178.626673,1765394178.5926151,196.2890625,-5.37109375,27.83203125,934.5703125,0.0,0,0
1765394178.62671,1765394178.5965102,370.1171875,-5.859375,13.18359375,-910.64453125,0.0,0,0
1765394178.6711512,1765394178.600553,10.25390625,-39.0625,-73.2421875,120.60546875,0.0,0,0
1765394178.671299,1765394178.6044478,-436.5234375,-55.6640625,-124.51171875,-1000.0,0.0,0,0
1765394178.671341,1765394178.608343,-308.59375,-20.01953125,-26.3671875,-543.45703125,0.0,0,0
1765394178.671381,1765394178.612238,142.08984375,2.44140625,41.50390625,803.22265625,0.0,0,0
1765394178.671419,1765394178.6161327,411.62109375,6.8359375,44.43359375,-861.81640625,0.0,0,0
1765394178.671457,1765394178.6200278,69.82421875,-19.53125,-54.19921875,174.8046875,0.0,0,0
1765394178.671494,1765394178.6239228,-408.69140625,-45.41015625,-122.0703125,-1000.0,0.0,0,0
1765394178.671531,1765394178.6278176,-386.71875,-26.3671875,-51.26953125,-854.98046875,0.0,0,0
1765394178.671575,1765394178.6317127,64.94140625,-17.08984375,40.0390625,468.75,0.0,0,0
1765394178.671618,1765394178.6356077,424.8046875,-27.83203125,63.96484375,-800.29296875,0.0,0,0
1765394178.671655,1765394178.6395025,140.625,-33.203125,-53.7109375,154.78515625,0.0,0,0
1765394178.6716979,1765394178.6433976,-341.30859375,-28.3203125,-129.39453125,-1000.0,0.0,0,0
1765394178.715968,1765394178.6474285,-411.62109375,-16.6015625,-54.6875,-1000.0,0.0,0,0
1765394178.7161589,1765394178.6513236,19.53125,-14.6484375,44.921875,200.1953125,0.0,0,0
1765394178.716203,1765394178.6552186,442.87109375,8.7890625,73.2421875,-777.34375,0.0,0,0
1765394178.716241,1765394178.6591136,215.8203125,-12.20703125,-47.36328125,241.2109375,0.0,0,0
1765394178.71628,1765394178.6630085,-329.1015625,-58.10546875,-133.7890625,-1000.0,0.0,0,0
1765394178.716318,1765394178.6669035,-448.2421875,-36.62109375,-57.12890625,-1000.0,0.0,0,0
1765394178.7163541,1765394178.6707985,-17.578125,4.39453125,56.15234375,3.41796875,0.0,0,0
1765394178.7163908,1765394178.6746936,432.6171875,11.71875,92.28515625,-792.96875,0.0,0,0
1765394178.716428,1765394178.6785884,286.1328125,-20.99609375,-27.34375,405.2734375,0.0,0,0
1765394178.716466,1765394178.6824834,-284.66796875,-46.38671875,-123.53515625,-910.15625,0.0,0,0
1765394178.716504,1765394178.6863785,-520.99609375,-34.66796875,-90.33203125,-1000.0,0.0,0,0
1765394178.716536,1765394178.6902735,-89.35546875,-7.8125,38.57421875,-171.875,0.0,0,0
1765394178.76084,1765394178.694293,402.34375,19.53125,108.88671875,-865.72265625,0.0,0,0
1765394178.760993,1765394178.698188,360.3515625,-2.44140625,-3.90625,637.20703125,0.0,0,0
1765394178.761035,1765394178.702083,-221.19140625,-41.9921875,-134.765625,-731.93359375,0.0,0,0
1765394178.761075,1765394178.7059782,-564.94140625,-41.015625,-100.5859375,-1000.0,0.0,0,0
1765394178.7611141,1765394178.7098732,-168.9453125,-4.39453125,41.9921875,-199.70703125,0.0,0,0
1765394178.761153,1765394178.713768,341.30859375,23.4375,113.28125,-941.89453125,0.0,0,0
1765394178.7611892,1765394178.717663,428.22265625,5.859375,20.5078125,871.58203125,0.0,0,0
1765394178.761245,1765394178.721558,-164.0625,-50.78125,-136.23046875,-433.10546875,0.0,0,0
1765394178.761282,1765394178.7254531,-620.1171875,-61.03515625,-133.7890625,-1000.0,0.0,0,0
1765394178.761337,1765394178.7293482,-265.625,-19.04296875,36.62109375,-197.265625,0.0,0,0
1765394178.7613819,1765394178.7332432,262.20703125,3.90625,107.91015625,-996.09375,0.0,0,0
1765394178.761426,1765394178.7371383,465.33203125,-3.41796875,40.0390625,-980.46875,0.0,0,0
1765394178.806022,1765394178.7411444,-101.5625,-41.50390625,-120.1171875,-140.13671875,0.0,0,0
1765394178.806102,1765394178.7450395,-661.1328125,-61.03515625,-146.484375,-1000.0,0.0,0,0
1765394178.806133,1765394178.7489345,-365.72265625,-30.2734375,31.73828125,-291.015625,0.0,0,0
1765394178.806158,1765394178.7528296,215.33203125,0.48828125,118.65234375,949.70703125,0.0,0,0
1765394178.806184,1765394178.7567246,499.51171875,-7.32421875,69.82421875,-922.8515625,0.0,0,0
1765394178.806211,1765394178.7606196,-35.64453125,-46.38671875,-104.98046875,57.6171875,0.0,0,0
1765394178.8062348,1765394178.7645147,-663.0859375,-69.3359375,-156.73828125,-1000.0,0.0,0,0
1765394178.806259,1765394178.7684097,-484.86328125,-47.36328125,0.0,-511.23046875,0.0,0,0
1765394178.806297,1765394178.7723048,124.0234375,-18.5546875,117.67578125,833.984375,0.0,0,0
1765394178.806321,1765394178.7761996,536.1328125,-12.6953125,102.5390625,-869.140625,0.0,0,0
1765394178.806344,1765394178.7800946,57.6171875,-51.26953125,-103.02734375,174.8046875,0.0,0,0
1765394178.806367,1765394178.7839897,-660.64453125,-84.47265625,-187.5,-1000.0,0.0,0,0
1765394178.849288,1765394178.787984,-612.79296875,-59.08203125,-24.4140625,-738.76953125,0.0,0,0
1765394178.849362,1765394178.791879,89.84375,-10.7421875,142.08984375,631.8359375,0.0,0,0
1765394178.84939,1765394178.795774,641.11328125,4.8828125,110.3515625,-825.68359375,0.0,0,0
1765394178.849416,1765394178.799669,190.91796875,-32.2265625,-27.34375,174.8046875,0.0,0,0
1765394178.849439,1765394178.803564,-698.2421875,-96.19140625,-458.49609375,-1000.0,0.0,0,0
1765394178.849463,1765394178.807459,-1000.0,-124.51171875,-615.72265625,-875.48828125,0.0,0,0
1765394178.849486,1765394178.8113542,-110.3515625,45.8984375,568.359375,460.44921875,0.0,0,0
1765394178.849514,1765394178.8152492,-820.3125,132.8125,729.4921875,-796.38671875,0.0,0,0
1765394178.849538,1765394178.8191442,457.03125,-61.03515625,-462.890625,154.78515625,0.0,0,0
1765394178.8495622,1765394178.8230393,-864.74609375,-214.84375,-812.01171875,-1000.0,0.0,0,0
1765394178.8495848,1765394178.8269343,-1000.0,-153.3203125,-155.76171875,-1000.0,0.0,0,0
1765394178.849607,1765394178.8308294,-159.66796875,40.0390625,642.08984375,236.81640625,0.0,0,0
1765394178.9565299,1765394178.834993,-882.8125,127.44140625,721.6796875,-769.53125,0.0,0,0
1765394178.956667,1765394178.838888,675.78125,-31.25,-354.98046875,197.75390625,0.0,0,0
1765394178.956727,1765394178.8427832,-649.90234375,-199.21875,-863.76953125,-1000.0,0.0,0,0
1765394178.956779,1765394178.8466783,-1000.0,-170.41015625,-273.92578125,-1000.0,0.0,0,0
1765394178.95683,1765394178.8505733,-210.44921875,28.80859375,566.89453125,-5.859375,0.0,0,0
1765394178.9568808,1765394178.8544683,-953.125,146.97265625,747.55859375,-783.203125,0.0,0,0
1765394178.957094,1765394178.8583634,877.9296875,9.27734375,-227.05078125,386.71875,0.0,0,0
1765394178.95715,1765394178.8622587,-375.0,-186.03515625,-877.9296875,-920.41015625,0.0,0,0
1765394178.957202,1765394178.8661537,-1000.0,-181.640625,-400.87890625,-1000.0,0.0,0,0
1765394178.957251,1765394178.8700488,-284.66796875,9.27734375,515.625,-189.453125,0.0,0,0
1765394178.957302,1765394178.8739438,972.16796875,132.8125,750.9765625,-857.91015625,0.0,0,0
1765394178.957346,1765394178.8778389,-984.86328125,43.45703125,-59.08203125,611.328125,0.0,0,0
1765394178.970047,1765394178.881924,-116.2109375,-155.76171875,-830.078125,-773.92578125,0.0,0,0
1765394178.970166,1765394178.885819,-1000.0,-202.1484375,-560.05859375,-1000.0,0.0,0,0
1765394178.970222,1765394178.889714,-425.29296875,-14.6484375,481.93359375,-207.03125,0.0,0,0
1765394178.970277,1765394178.8936093,870.1171875,128.41796875,777.83203125,-940.91796875,0.0,0,0
1765394178.97033,1765394178.8975043,-901.85546875,72.75390625,93.26171875,867.67578125,0.0,0,0
1765394178.970382,1765394178.9013994,56.640625,-128.90625,-735.83984375,-455.078125,0.0,0,0
1765394178.970434,1765394178.9052947,-1000.0,-204.58984375,-670.8984375,-1000.0,0.0,0,0
1765394178.9704828,1765394178.9091897,-630.859375,-40.0390625,417.48046875,-176.7578125,0.0,0,0
1765394178.9705348,1765394178.9130847,689.94140625,104.98046875,817.87109375,-994.140625,0.0,0,0
1765394178.9705868,1765394178.91698,-846.6796875,87.890625,246.58203125,-971.6796875,0.0,0,0
1765394178.970638,1765394178.920875,135.7421875,-126.46484375,-618.65234375,-127.9296875,0.0,0,0
1765394178.970689,1765394178.92477,-1000.0,-231.4453125,-737.3046875,-1000.0,0.0,0,0
1765394179.000725,1765394178.928816,-837.890625,-65.4296875,311.03515625,-307.12890625,0.0,0,0
1765394179.0008802,1765394178.9327111,441.89453125,103.515625,852.5390625,942.87109375,0.0,0,0
1765394179.000939,1765394178.9366064,-806.15234375,109.375,392.08984375,-916.9921875,0.0,0,0
1765394179.0009952,1765394178.9405015,187.98828125,-103.515625,-520.01953125,66.89453125,0.0,0,0
1765394179.0010471,1765394178.9443967,-1000.0,-232.421875,-769.53125,-1000.0,0.0,0,0
1765394179.001097,1765394178.9482918,-989.74609375,-85.9375,163.0859375,-501.46484375,0.0,0,0
1765394179.00115,1765394178.952187,184.5703125,99.609375,850.09765625,848.14453125,0.0,0,0
1765394179.001203,1765394178.956082,-794.921875,127.9296875,529.296875,-869.62890625,0.0,0,0
1765394179.0012531,1765394178.9599771,278.3203125,-70.3125,-475.09765625,196.2890625,0.0,0,0
1765394179.0013041,1765394178.9638724,-981.4453125,-214.84375,-777.34375,-1000.0,0.0,0,0
1765394179.001354,1765394178.9677675,-1000.0,-114.74609375,-6.34765625,-763.671875,0.0,0,0
1765394179.0014029,1765394178.9716628,-37.109375,75.1953125,764.6484375,614.2578125,0.0,0,0
1765394179.044842,1765394178.9757001,-822.265625,137.20703125,644.04296875,-817.87109375,0.0,0,0
1765394179.0449421,1765394178.9795954,447.265625,-50.78125,-447.75390625,158.69140625,0.0,0,0
1765394179.0449789,1765394178.9834905,-866.69921875,-208.0078125,-810.05859375,-1000.0,0.0,0,0
1765394179.045012,1765394178.9873857,-1000.0,-145.01953125,-147.94921875,-990.234375,0.0,0,0
1765394179.045043,1765394178.9912808,-147.94921875,48.33984375,652.83203125,266.6015625,0.0,0,0
1765394179.0450728,1765394178.995176,-877.44140625,146.484375,718.75,-772.4609375,0.0,0,0
1765394179.045104,1765394178.9990711,659.66796875,-14.6484375,-369.140625,178.22265625,0.0,0,0
1765394179.04514,1765394179.0029664,-666.50390625,-185.05859375,-853.515625,-1000.0,0.0,0,0
1765394179.0451698,1765394179.0068614,-1000.0,-155.2734375,-270.99609375,-1000.0,0.0,0,0
1765394179.045197,1765394179.0107567,-200.68359375,42.96875,561.03515625,15.625,0.0,0,0
1765394179.0452201,1765394179.0146518,-944.82421875,152.34375,749.51171875,-778.80859375,0.0,0,0
1765394179.045255,1765394179.018547,859.86328125,4.39453125,-243.65234375,369.62890625,0.0,0,0
1765394179.090861,1765394179.0225728,-400.390625,-183.10546875,-883.30078125,-930.17578125,0.0,0,0
1765394179.090951,1765394179.026468,-1000.0,-184.08203125,-392.08984375,-1000.0,0.0,0,0
1765394179.090988,1765394179.030363,-275.87890625,12.20703125,516.11328125,-166.015625,0.0,0,0
1765394179.091021,1765394179.0342584,980.95703125,142.578125,750.9765625,-844.23828125,0.0,0,0
1765394179.091052,1765394179.0381536,-998.046875,36.62109375,-87.890625,580.56640625,0.0,0,0
1765394179.091083,1765394179.0420487,-145.99609375,-161.62109375,-850.09765625,-801.7578125,0.0,0,0
1765394179.091114,1765394179.045944,-1000.0,-198.2421875,-537.59765625,-1000.0,0.0,0,0
1765394179.091142,1765394179.049839,-408.203125,-8.7890625,489.2578125,-211.42578125,0.0,0,0
1765394179.091172,1765394179.0537343,883.30078125,127.44140625,768.5546875,-934.08203125,0.0,0,0
1765394179.091202,1765394179.0576296,-909.66796875,63.4765625,85.9375,843.26171875,0.0,0,0
1765394179.091233,1765394179.0615246,40.52734375,-137.6953125,-739.2578125,-493.1640625,0.0,0,0
1765394179.091263,1765394179.06542,-1000.0,-201.66015625,-649.90234375,-1000.0,0.0,0,0
1765394179.134559,1765394179.0694344,-602.5390625,-26.85546875,440.91796875,-178.22265625,0.0,0,0
1765394179.1346219,1765394179.0733294,716.30859375,118.1640625,812.98828125,-991.69921875,0.0,0,0
1765394179.1346471,1765394179.0772247,-853.02734375,89.84375,241.2109375,-976.07421875,0.0,0,0
1765394179.134672,1765394179.08112,129.39453125,-122.0703125,-620.1171875,-151.3671875,0.0,0,0
1765394179.134696,1765394179.085015,-1000.0,-215.8203125,-724.12109375,-1000.0,0.0,0,0
1765394179.134719,1765394179.0889103,-819.82421875,-46.38671875,346.19140625,-275.87890625,0.0,0,0
1765394179.134746,1765394179.0928056,466.796875,110.3515625,855.46875,957.03125,0.0,0,0
1765394179.134846,1765394179.0967007,-809.08203125,90.8203125,372.0703125,-924.8046875,0.0,0,0
1765394179.134902,1765394179.100596,179.19921875,-116.2109375,-529.296875,44.921875,0.0,0,0
1765394179.13493,1765394179.1044912,-1000.0,-227.5390625,-761.71875,-1000.0,0.0,0,0
1765394179.134969,1765394179.1083865,-975.09765625,-90.8203125,164.0625,-475.5859375,0.0,0,0
1765394179.134997,1765394179.1122816,212.890625,93.26171875,837.40234375,860.83984375,0.0,0,0
1765394179.18044,1765394179.1162832,-794.43359375,125.0,526.85546875,-875.0,0.0,0,0
1765394179.180469,1765394179.1201785,264.16015625,-74.21875,-468.26171875,193.359375,0.0,0,0
1765394179.180507,1765394179.1240737,-990.72265625,-213.8671875,-772.94921875,-1000.0,0.0,0,0
1765394179.180522,1765394179.127969,-1000.0,-113.76953125,13.671875,-727.5390625,0.0,0,0
1765394179.180532,1765394179.1318643,-14.16015625,77.1484375,773.4375,657.2265625,0.0,0,0
1765394179.180543,1765394179.1357594,-816.40625,143.06640625,651.85546875,-826.171875,0.0,0,0
1765394179.180553,1765394179.1396546,417.48046875,-42.96875,-437.98828125,165.0390625,0.0,0,0
1765394179.180563,1765394179.14355,-890.13671875,-215.33203125,-802.734375,-1000.0,0.0,0,0
1765394179.180574,1765394179.1474452,-1000.0,-146.97265625,-125.0,-953.125,0.0,0,0
1765394179.180584,1765394179.1513402,-138.671875,54.19921875,659.66796875,335.9375,0.0,0,0
1765394179.180594,1765394179.1552355,-871.09375,131.8359375,721.19140625,-778.80859375,0.0,0,0
1765394179.180606,1765394179.1591308,642.578125,-29.78515625,-355.46875,157.2265625,0.0,0,0
1765394179.2247171,1765394179.1631227,-685.546875,-187.98828125,-845.703125,-1000.0,0.0,0,0
1765394179.2247732,1765394179.167018,-1000.0,-156.25,-237.79296875,-1000.0,0.0,0,0
1765394179.224799,1765394179.170913,-197.265625,35.64453125,584.9609375,49.8046875,0.0,0,0
1765394179.224824,1765394179.1748083,-936.5234375,149.90234375,743.65234375,-771.97265625,0.0,0,0
1765394179.2248478,1765394179.1787035,837.40234375,0.0,-251.953125,331.54296875,0.0,0,0
1765394179.224871,1765394179.1825988,-438.4765625,-187.5,-872.0703125,-948.2421875,0.0,0,0
1765394179.224894,1765394179.186494,-1000.0,-170.41015625,-372.0703125,-1000.0,0.0,0,0
1765394179.224919,1765394179.1903894,-267.578125,21.484375,516.6015625,-144.53125,0.0,0,0
1765394179.2249432,1765394179.1942844,990.234375,132.32421875,750.9765625,-827.63671875,0.0,0,0
1765394179.224967,1765394179.1981797,985.83984375,30.2734375,-91.796875,532.71484375,0.0,0,0
1765394179.225075,1765394179.202075,-184.08203125,-167.96875,-837.40234375,-843.75,0.0,0,0
1765394179.225101,1765394179.2059703,-1000.0,-191.40625,-506.34765625,-1000.0,0.0,0,0
1765394179.2717462,1765394179.2099528,-382.8125,1.46484375,494.62890625,-217.7734375,0.0,0,0
1765394179.271926,1765394179.213848,898.4375,128.90625,764.16015625,-922.36328125,0.0,0,0
1765394179.271991,1765394179.2177434,-916.015625,61.03515625,62.5,804.19921875,0.0,0,0
1765394179.272032,1765394179.2216387,30.2734375,-149.90234375,-755.37109375,-550.29296875,0.0,0,0
1765394179.272071,1765394179.225534,-1000.0,-216.796875,-642.578125,-1000.0,0.0,0,0
1765394179.272109,1765394179.2294292,-578.125,-18.06640625,451.171875,-182.6171875,0.0,0,0
1765394179.272146,1765394179.2333245,739.2578125,137.20703125,801.26953125,-984.86328125,0.0,0,0
1765394179.2721841,1765394179.2372196,-858.88671875,93.26171875,201.171875,-994.62890625,0.0,0,0
1765394179.2722208,1765394179.2411149,125.48828125,-133.30078125,-638.671875,-203.61328125,0.0,0,0
1765394179.272258,1765394179.2450101,-1000.0,-231.4453125,-714.84375,-1000.0,0.0,0,0
1765394179.2722938,1765394179.2489054,-791.50390625,-49.31640625,349.609375,-250.9765625,0.0,0,0
1765394179.2723331,1765394179.2528007,504.8828125,114.2578125,843.75,967.7734375,0.0,0,0
1765394179.3287418,1765394179.2567658,-814.453125,110.3515625,356.93359375,-933.59375,0.0,0,0
1765394179.3288069,1765394179.2606611,170.8984375,-102.5390625,-534.66796875,11.23046875,0.0,0,0
1765394179.328841,1765394179.2645564,-1000.0,-227.05078125,-757.8125,-1000.0,0.0,0,0
1765394179.328875,1765394179.2684517,-956.0546875,-76.66015625,192.3828125,-445.80078125,0.0,0,0
1765394179.328907,1765394179.272347,248.046875,104.00390625,849.12109375,874.51171875,0.0,0,0
1765394179.32894,1765394179.2762423,-794.43359375,141.11328125,504.39453125,-880.37109375,0.0,0,0
1765394179.328972,1765394179.2801375,250.48828125,-64.453125,-484.86328125,189.94140625,0.0,0,0
1765394179.329004,1765394179.2840328,-998.53515625,-211.9140625,-775.390625,-1000.0,0.0,0,0
1765394179.329056,1765394179.287928,-1000.0,-99.609375,29.296875,-686.5234375,0.0,0,0
1765394179.329104,1765394179.2918234,3.90625,94.23828125,781.73828125,704.1015625,0.0,0,0
1765394179.3291368,1765394179.2957187,-812.01171875,143.06640625,616.69921875,-834.47265625,0.0,0,0
1765394179.3291688,1765394179.299614,396.97265625,-63.96484375,-452.1484375,168.9453125,0.0,0,0
1765394179.374418,1765394179.3036559,-905.2734375,-215.8203125,-796.875,-1000.0,0.0,0,0
1765394179.3745039,1765394179.3075511,-1000.0,-141.11328125,-121.58203125,-934.08203125,0.0,0,0
1765394179.374532,1765394179.3114464,-132.32421875,56.15234375,665.0390625,370.60546875,0.0,0,0
1765394179.374557,1765394179.3153417,-863.28125,140.13671875,701.171875,-782.2265625,0.0,0,0
1765394179.374584,1765394179.3192372,615.234375,-36.62109375,-387.20703125,142.08984375,0.0,0,0
1765394179.3746078,1765394179.3231325,-715.8203125,-188.4765625,-839.35546875,-1000.0,0.0,0,0
1765394179.374634,1765394179.3270278,-1000.0,-150.87890625,-241.2109375,-1000.0,0.0,0,0
1765394179.374658,1765394179.330923,-188.4765625,35.15625,573.2421875,66.40625,0.0,0,0
1765394179.3746848,1765394179.3348184,-929.6875,144.04296875,743.65234375,-769.04296875,0.0,0,0
1765394179.37471,1765394179.3387136,821.77734375,4.8828125,-264.6484375,316.40625,0.0,0,0
1765394179.3747368,1765394179.342609,-459.47265625,-175.29296875,-874.0234375,-956.54296875,0.0,0,0
1765394179.374763,1765394179.3465042,-1000.0,-170.41015625,-350.09765625,-1000.0,0.0,0,0
1765394179.42015,1765394179.3505368,-251.953125,29.296875,534.66796875,-125.0,0.0,0,0
1765394179.420286,1765394179.354432,998.53515625,145.01953125,747.0703125,-819.3359375,0.0,0,0
1765394179.420328,1765394179.3583274,978.515625,32.71484375,-120.1171875,509.765625,0.0,0,0
1765394179.420369,1765394179.362223,-193.84765625,-162.59765625,-852.05078125,-858.88671875,0.0,0,0
1765394179.4204118,1765394179.3661182,-1000.0,-187.98828125,-495.1171875,-1000.0,0.0,0,0
1765394179.420449,1765394179.3700135,-360.83984375,11.23046875,501.953125,-221.19140625,0.0,0,0
1765394179.420491,1765394179.3739088,915.0390625,132.8125,759.765625,-916.50390625,0.0,0,0
1765394179.4205282,1765394179.377804,-924.31640625,50.29296875,43.45703125,782.71484375,0.0,0,0
1765394179.420566,1765394179.3816993,18.06640625,-147.4609375,-760.7421875,-579.1015625,0.0,0,0
1765394179.420604,1765394179.3855946,-1000.0,-200.68359375,-622.55859375,-1000.0,0.0,0,0
1765394179.42064,1765394179.3894901,-549.8046875,-14.16015625,457.51953125,-184.5703125,0.0,0,0
1765394179.420682,1765394179.3933854,766.11328125,125.0,801.7578125,-981.4453125,0.0,0,0
1765394179.465488,1765394179.3974073,-865.234375,80.078125,197.75390625,994.140625,0.0,0,0
1765394179.4656541,1765394179.4013028,121.09375,-129.8828125,-650.390625,-227.05078125,0.0,0,0
