timestamp,lsl_timestamp,TP9,AF7,AF8,TP10,Right AUX,keypress_A,keypress_B
1772214153.731101,1772214153.6599174,166.9921875,-23.92578125,29.78515625,136.23046875,0.0,0,0
1772214153.731219,1772214153.6638122,71.2890625,-45.41015625,25.87890625,20.99609375,0.0,0,0
1772214153.7312582,1772214153.667707,47.36328125,-20.5078125,57.12890625,33.203125,0.0,0,0
1772214153.731287,1772214153.6716015,51.7578125,15.13671875,88.37890625,131.34765625,0.0,0,0
1772214153.731312,1772214153.6754963,54.19921875,12.6953125,90.33203125,180.6640625,0.0,0,0
1772214153.7313359,1772214153.6793911,82.03125,-25.87890625,92.7734375,125.48828125,0.0,0,0
1772214153.73136,1772214153.683286,41.50390625,-68.359375,100.5859375,47.8515625,0.0,0,0
1772214153.7313879,1772214153.6871808,-30.2734375,-63.4765625,95.21484375,45.41015625,0.0,0,0
1772214153.731412,1772214153.6910753,-38.0859375,-30.2734375,87.890625,110.83984375,0.0,0,0
1772214153.731435,1772214153.6949701,-30.76171875,-26.85546875,93.75,158.69140625,0.0,0,0
1772214153.7314591,1772214153.698865,-28.3203125,-59.5703125,94.23828125,104.98046875,0.0,0,0
1772214153.731483,1772214153.7027597,-47.8515625,-98.6328125,91.30859375,2.44140625,0.0,0,0
1772214153.7765021,1772214153.7067976,-87.890625,-99.609375,112.3046875,-46.875,0.0,0,0
1772214153.776598,1772214153.7106924,-79.58984375,-59.08203125,150.87890625,40.52734375,0.0,0,0
1772214153.7766259,1772214153.7145872,-35.15625,-50.78125,170.8984375,133.7890625,0.0,0,0
1772214153.776651,1772214153.7184818,-23.92578125,-91.30859375,164.55078125,85.9375,0.0,0,0
1772214153.7766762,1772214153.7223766,-85.44921875,-119.62890625,155.2734375,-15.13671875,0.0,0,0
1772214153.7767,1772214153.7262714,-151.3671875,-99.609375,167.96875,-28.80859375,0.0,0,0
1772214153.776725,1772214153.7301662,-171.875,-60.546875,187.98828125,73.73046875,0.0,0,0
1772214153.7767491,1772214153.734061,-116.2109375,-52.734375,197.75390625,148.92578125,0.0,0,0
1772214153.7767732,1772214153.7379558,-34.66796875,-83.984375,187.01171875,109.86328125,0.0,0,0
1772214153.7767968,1772214153.7418506,-42.48046875,-113.28125,190.4296875,39.0625,0.0,0,0
1772214153.776821,1772214153.7457454,-88.8671875,-101.5625,219.23828125,-8.30078125,0.0,0,0
1772214153.776844,1772214153.7496402,-100.09765625,-59.08203125,247.0703125,60.05859375,0.0,0,0
1772214153.821277,1772214153.7536676,-61.03515625,-24.4140625,262.6953125,166.50390625,0.0,0,0
1772214153.8213792,1772214153.7575624,-38.0859375,-54.6875,235.83984375,106.4453125,0.0,0,0
1772214153.821406,1772214153.7614572,-79.58984375,-87.890625,206.54296875,10.7421875,0.0,0,0
1772214153.821432,1772214153.765352,-175.78125,-92.28515625,213.8671875,-26.3671875,0.0,0,0
1772214153.821457,1772214153.7692468,-179.6875,-49.8046875,192.87109375,-2.44140625,0.0,0,0
1772214153.821482,1772214153.7731416,-101.07421875,-11.23046875,191.89453125,84.47265625,0.0,0,0
1772214153.821506,1772214153.7770364,-71.77734375,-36.1328125,205.078125,113.28125,0.0,0,0
1772214153.82153,1772214153.7809312,-115.72265625,-97.16796875,166.015625,-2.9296875,0.0,0,0
1772214153.8215559,1772214153.784826,-159.66796875,-104.00390625,145.01953125,-70.80078125,0.0,0,0
1772214153.8215811,1772214153.7887208,-109.375,-54.19921875,165.0390625,-14.6484375,0.0,0,0
1772214153.8216052,1772214153.7926157,-14.16015625,-11.71875,170.41015625,48.828125,0.0,0,0
1772214153.8216288,1772214153.7965105,-6.34765625,-8.7890625,186.03515625,40.52734375,0.0,0,0
1772214153.866323,1772214153.800527,-79.1015625,-56.640625,188.96484375,-26.85546875,0.0,0,0
1772214153.866418,1772214153.804422,-166.015625,-84.9609375,168.9453125,-85.9375,0.0,0,0
1772214153.866451,1772214153.8083167,-175.78125,-53.22265625,202.1484375,-59.5703125,0.0,0,0
1772214153.866482,1772214153.8122115,-48.33984375,-5.37109375,209.47265625,44.921875,0.0,0,0
1772214153.8665411,1772214153.8161063,18.5546875,-9.27734375,172.8515625,85.44921875,0.0,0,0
1772214153.866583,1772214153.8200011,-69.3359375,-62.01171875,156.73828125,19.53125,0.0,0,0
1772214153.866612,1772214153.823896,-168.45703125,-90.8203125,156.73828125,-88.8671875,0.0,0,0
1772214153.8666408,1772214153.8277907,-179.19921875,-43.9453125,143.5546875,-89.84375,0.0,0,0
1772214153.8666701,1772214153.8316855,-77.63671875,14.16015625,152.83203125,33.203125,0.0,0,0
1772214153.866699,1772214153.8355803,2.44140625,26.85546875,160.64453125,91.30859375,0.0,0,0
1772214153.8667278,1772214153.8394754,-69.3359375,-21.484375,148.4375,20.5078125,0.0,0,0
1772214153.8667572,1772214153.8433702,-147.4609375,-74.70703125,109.86328125,-63.4765625,0.0,0,0
1772214153.9118059,1772214153.8473744,-115.72265625,-47.36328125,81.54296875,-66.40625,0.0,0,0
1772214153.911902,1772214153.8512692,-30.2734375,26.85546875,93.26171875,18.5546875,0.0,0,0
1772214153.911933,1772214153.855164,35.15625,41.015625,105.46875,73.73046875,0.0,0,0
1772214153.911978,1772214153.859059,32.2265625,-29.78515625,89.84375,71.2890625,0.0,0,0
1772214153.9120052,1772214153.862954,-78.61328125,-93.26171875,76.66015625,-8.7890625,0.0,0,0
1772214153.91203,1772214153.8668487,-91.30859375,-62.5,63.4765625,-25.87890625,0.0,0,0
1772214153.912054,1772214153.8707435,38.57421875,-3.41796875,57.6171875,95.703125,0.0,0,0
1772214153.9120781,1772214153.8746383,148.92578125,1.953125,67.3828125,116.69921875,0.0,0,0
1772214153.912104,1772214153.8785331,139.6484375,-28.80859375,50.78125,69.82421875,0.0,0,0
1772214153.912129,1772214153.8824282,-3.41796875,-57.6171875,36.1328125,-15.13671875,0.0,0,0
1772214153.912153,1772214153.886323,-44.921875,-38.57421875,26.3671875,-23.92578125,0.0,0,0
1772214153.912179,1772214153.8902178,85.44921875,25.390625,39.0625,50.78125,0.0,0,0
1772214153.957536,1772214153.8942122,196.77734375,44.921875,46.875,98.6328125,0.0,0,0
1772214153.957634,1772214153.898107,137.20703125,-24.4140625,26.3671875,78.61328125,0.0,0,0
1772214153.9576619,1772214153.9020019,-26.85546875,-77.63671875,10.25390625,39.0625,0.0,0,0
1772214153.957688,1772214153.905897,-110.83984375,-48.33984375,2.44140625,14.16015625,0.0,0,0
1772214153.957715,1772214153.9097917,2.44140625,6.8359375,11.71875,42.48046875,0.0,0,0
1772214153.95774,1772214153.9136865,184.08203125,45.41015625,8.30078125,112.79296875,0.0,0,0
1772214153.957765,1772214153.9175813,193.84765625,15.625,-0.48828125,124.51171875,0.0,0,0
1772214153.957789,1772214153.9214764,70.3125,-69.3359375,-23.92578125,65.91796875,0.0,0,0
1772214153.957813,1772214153.9253712,-13.18359375,-68.84765625,-40.52734375,17.578125,0.0,0,0
1772214153.957837,1772214153.929266,49.31640625,25.87890625,-36.1328125,55.17578125,0.0,0,0
1772214153.95786,1772214153.9331608,207.51953125,72.75390625,-48.828125,136.71875,0.0,0,0
1772214153.9578838,1772214153.9370558,238.28125,31.25,-46.38671875,170.41015625,0.0,0,0
1772214154.001321,1772214153.9410386,82.03125,-27.83203125,-39.0625,114.2578125,0.0,0,0
1772214154.001428,1772214153.9449334,-35.15625,-41.9921875,-53.22265625,51.26953125,0.0,0,0
1772214154.001462,1772214153.9488285,71.77734375,9.27734375,-27.34375,75.68359375,0.0,0,0
1772214154.001492,1772214153.9527233,293.9453125,55.6640625,-1.46484375,156.73828125,0.0,0,0
1772214154.001527,1772214153.956618,334.9609375,8.7890625,-6.34765625,186.5234375,0.0,0,0
1772214154.0015569,1772214153.9605129,171.875,-60.05859375,-17.578125,126.46484375,0.0,0,0
1772214154.001586,1772214153.964408,15.625,-84.47265625,-35.15625,76.66015625,0.0,0,0
1772214154.001615,1772214153.9683027,85.44921875,-31.73828125,-15.625,95.21484375,0.0,0,0
1772214154.001643,1772214153.9721975,260.25390625,32.2265625,4.8828125,164.0625,0.0,0,0
1772214154.0016708,1772214153.9760926,278.3203125,19.04296875,1.953125,196.2890625,0.0,0,0
1772214154.001703,1772214153.9799874,130.859375,-53.22265625,-15.13671875,134.765625,0.0,0,0
1772214154.0017312,1772214153.9838822,15.625,-87.40234375,-29.78515625,73.73046875,0.0,0,0
1772214154.061049,1772214153.9878528,84.9609375,-20.99609375,-17.08984375,77.1484375,0.0,0,0
1772214154.061137,1772214153.9917476,279.296875,35.15625,-12.20703125,132.8125,0.0,0,0
1772214154.061196,1772214153.9956427,384.765625,19.04296875,-16.6015625,161.1328125,0.0,0,0
1772214154.06126,1772214153.9995375,255.37109375,-47.8515625,-26.3671875,128.41796875,0.0,0,0
1772214154.061671,1772214154.0034325,81.0546875,-71.2890625,-37.59765625,69.3359375,0.0,0,0
1772214154.061711,1772214154.0073273,101.07421875,-17.578125,-26.3671875,67.87109375,0.0,0,0
1772214154.061738,1772214154.0112221,291.9921875,24.90234375,-4.39453125,135.7421875,0.0,0,0
1772214154.061763,1772214154.0151172,402.83203125,13.671875,-25.87890625,157.2265625,0.0,0,0
1772214154.061787,1772214154.019012,293.45703125,-44.921875,-56.15234375,124.0234375,0.0,0,0
1772214154.061811,1772214154.0229068,101.5625,-75.68359375,-55.6640625,61.5234375,0.0,0,0
1772214154.061835,1772214154.0268018,97.16796875,-34.1796875,-62.01171875,34.1796875,0.0,0,0
1772214154.0618591,1772214154.0306966,293.9453125,23.92578125,-39.55078125,84.47265625,0.0,0,0
1772214154.107432,1772214154.034746,438.4765625,36.62109375,-5.37109375,130.859375,0.0,0,0
1772214154.107521,1772214154.0386407,363.76953125,-13.18359375,-11.71875,120.60546875,0.0,0,0
1772214154.10755,1772214154.0425358,200.68359375,-46.875,-25.87890625,58.10546875,0.0,0,0
1772214154.107577,1772214154.0464306,182.6171875,-22.94921875,-33.203125,32.2265625,0.0,0,0
1772214154.107602,1772214154.0503256,337.890625,30.2734375,-16.11328125,88.37890625,0.0,0,0
1772214154.107626,1772214154.0542204,479.00390625,44.43359375,1.953125,146.97265625,0.0,0,0
1772214154.10765,1772214154.0581155,391.6015625,-15.13671875,-13.18359375,144.53125,0.0,0,0
1772214154.1076741,1772214154.0620103,151.85546875,-44.43359375,-41.9921875,55.17578125,0.0,0,0
1772214154.107699,1772214154.0659053,69.82421875,-35.15625,-64.94140625,1.953125,0.0,0,0
1772214154.107723,1772214154.0698001,225.09765625,16.6015625,-57.12890625,76.66015625,0.0,0,0
1772214154.107747,1772214154.0736952,371.58203125,50.29296875,-26.3671875,157.2265625,0.0,0,0
1772214154.107771,1772214154.07759,327.1484375,7.32421875,-19.53125,141.11328125,0.0,0,0
1772214154.151395,1772214154.0816283,142.08984375,-35.64453125,-36.62109375,76.66015625,0.0,0,0
1772214154.151495,1772214154.0855231,54.6875,-21.97265625,-34.66796875,41.50390625,0.0,0,0
1772214154.151526,1772214154.0894182,212.890625,49.31640625,-22.4609375,59.08203125,0.0,0,0
1772214154.151551,1772214154.0933132,407.71484375,80.078125,-7.8125,132.8125,0.0,0,0
1772214154.151575,1772214154.097208,404.296875,36.1328125,9.765625,149.4140625,0.0,0,0
1772214154.1516001,1772214154.101103,172.36328125,-19.53125,6.34765625,87.40234375,0.0,0,0
1772214154.151625,1772214154.1049979,19.04296875,-24.90234375,-13.18359375,14.6484375,0.0,0,0
1772214154.151649,1772214154.108893,166.9921875,23.4375,0.48828125,21.97265625,0.0,0,0
1772214154.151673,1772214154.1127877,414.55078125,55.17578125,35.64453125,117.1875,0.0,0,0
1772214154.151697,1772214154.1166828,430.6640625,24.90234375,55.17578125,142.08984375,0.0,0,0
1772214154.151721,1772214154.1205778,217.7734375,-25.390625,41.015625,89.84375,0.0,0,0
1772214154.1517482,1772214154.1244726,83.984375,-22.94921875,14.6484375,37.109375,0.0,0,0
1772214154.197141,1772214154.128502,205.56640625,59.08203125,11.23046875,50.29296875,0.0,0,0
1772214154.1972961,1772214154.1323967,442.3828125,98.6328125,34.66796875,120.60546875,0.0,0,0
1772214154.197359,1772214154.1362917,499.0234375,51.7578125,39.55078125,159.66796875,0.0,0,0
1772214154.1974149,1772214154.1401868,325.68359375,-25.390625,9.765625,117.67578125,0.0,0,0
1772214154.197472,1772214154.1440816,159.66796875,-72.265625,0.0,35.64453125,0.0,0,0
1772214154.197524,1772214154.1479766,189.453125,22.4609375,14.6484375,17.08984375,0.0,0,0
1772214154.197576,1772214154.1518717,355.95703125,120.60546875,45.8984375,86.42578125,0.0,0,0
1772214154.1976268,1772214154.1557665,445.3125,90.8203125,60.546875,121.09375,0.0,0,0
1772214154.1976771,1772214154.1596615,339.84375,28.80859375,40.0390625,94.7265625,0.0,0,0
1772214154.197729,1772214154.1635566,194.82421875,-1.46484375,49.31640625,41.015625,0.0,0,0
1772214154.197779,1772214154.1674514,187.01171875,51.7578125,68.359375,27.34375,0.0,0,0
1772214154.197829,1772214154.1713464,362.3046875,119.140625,66.89453125,94.7265625,0.0,0,0
1772214154.2552571,1772214154.175363,494.62890625,115.234375,77.63671875,143.5546875,0.0,0,0
1772214154.255411,1772214154.179258,330.078125,37.109375,72.75390625,102.5390625,0.0,0,0
1772214154.25547,1772214154.183153,113.28125,-19.04296875,58.10546875,18.5546875,0.0,0,0
1772214154.255523,1772214154.187048,105.95703125,10.25390625,74.70703125,26.3671875,0.0,0,0
1772214154.2555861,1772214154.190943,281.73828125,73.2421875,101.5625,102.5390625,0.0,0,0
1772214154.255657,1772214154.194838,407.2265625,83.49609375,107.421875,147.94921875,0.0,0,0
1772214154.255708,1772214154.1987329,322.265625,17.578125,98.14453125,106.4453125,0.0,0,0
1772214154.255763,1772214154.202628,121.09375,-69.3359375,102.05078125,33.203125,0.0,0,0
1772214154.2558231,1772214154.206523,84.9609375,-43.45703125,108.88671875,30.76171875,0.0,0,0
1772214154.2558851,1772214154.210418,294.43359375,78.125,115.234375,89.84375,0.0,0,0
1772214154.255934,1772214154.2143128,458.0078125,95.703125,143.5546875,153.3203125,0.0,0,0
1772214154.255983,1772214154.2182078,353.02734375,-0.9765625,125.48828125,146.97265625,0.0,0,0
1772214154.3014138,1772214154.2223008,133.30078125,-79.58984375,93.75,90.8203125,0.0,0,0
1772214154.3015099,1772214154.2261958,75.1953125,-56.15234375,107.421875,57.6171875,0.0,0,0
1772214154.301555,1772214154.2300909,243.1640625,40.0390625,119.62890625,75.1953125,0.0,0,0
1772214154.301594,1772214154.233986,389.6484375,68.84765625,126.953125,110.83984375,0.0,0,0
1772214154.301632,1772214154.237881,340.8203125,-12.20703125,116.69921875,82.03125,0.0,0,0
1772214154.3016691,1772214154.241776,170.41015625,-77.1484375,86.42578125,17.578125,0.0,0,0
1772214154.301706,1772214154.245671,86.42578125,-95.21484375,93.26171875,-0.9765625,0.0,0,0
1772214154.3017442,1772214154.2495658,244.62890625,-131.8359375,132.32421875,47.8515625,0.0,0,0
1772214154.3017821,1772214154.253461,437.98828125,-172.8515625,141.6015625,107.91015625,0.0,0,0
1772214154.301824,1772214154.257356,398.92578125,-228.02734375,129.39453125,124.51171875,0.0,0,0
1772214154.301861,1772214154.261251,187.01171875,-313.96484375,115.72265625,86.9140625,0.0,0,0
1772214154.301899,1772214154.265146,69.82421875,-323.73046875,100.5859375,57.12890625,0.0,0,0
1772214154.331883,1772214154.2691388,215.33203125,-219.7265625,104.00390625,87.890625,0.0,0,0
1772214154.33198,1772214154.2730339,447.75390625,-148.4375,111.328125,155.76171875,0.0,0,0
1772214154.332033,1772214154.276929,430.6640625,-186.5234375,113.28125,160.15625,0.0,0,0
1772214154.332085,1772214154.280824,227.5390625,-252.9296875,109.375,80.078125,0.0,0,0
1772214154.332136,1772214154.284719,110.3515625,-252.9296875,95.21484375,34.1796875,0.0,0,0
1772214154.3321862,1772214154.288614,214.35546875,-154.78515625,119.62890625,67.87109375,0.0,0,0
1772214154.3322492,1772214154.292509,434.08203125,-89.35546875,145.99609375,151.3671875,0.0,0,0
1772214154.33229,1772214154.2964041,464.84375,-145.99609375,134.27734375,164.55078125,0.0,0,0
1772214154.3323379,1772214154.3002992,292.48046875,-234.86328125,117.67578125,107.421875,0.0,0,0
1772214154.3323781,1772214154.3041942,195.80078125,-249.51171875,114.2578125,61.03515625,0.0,0,0
1772214154.3324149,1772214154.3080893,271.484375,-183.59375,119.140625,54.6875,0.0,0,0
1772214154.3324642,1772214154.3119843,468.26171875,-91.796875,122.55859375,112.79296875,0.0,0,0
1772214154.391308,1772214154.315971,590.33203125,-53.22265625,125.48828125,165.0390625,0.0,0,0
1772214154.391386,1772214154.319866,455.56640625,-116.69921875,113.76953125,125.9765625,0.0,0,0
1772214154.391402,1772214154.323761,281.25,-77.1484375,94.7265625,64.453125,0.0,0,0
1772214154.391417,1772214154.327656,382.32421875,159.1796875,104.4921875,74.21875,0.0,0,0
1772214154.391482,1772214154.331551,611.328125,317.87109375,128.90625,122.0703125,0.0,0,0
1772214154.391519,1772214154.3354461,685.05859375,324.21875,133.7890625,157.2265625,0.0,0,0
1772214154.391538,1772214154.3393412,528.80859375,239.2578125,119.62890625,129.8828125,0.0,0,0
1772214154.391554,1772214154.3432362,336.9140625,175.29296875,108.3984375,55.17578125,0.0,0,0
1772214154.391571,1772214154.3471315,353.02734375,217.28515625,116.2109375,48.828125,0.0,0,0
1772214154.391667,1772214154.3510265,538.57421875,272.4609375,128.90625,116.69921875,0.0,0,0
1772214154.391684,1772214154.3549216,649.4140625,263.671875,117.67578125,143.06640625,0.0,0,0
1772214154.3916988,1772214154.3588166,544.43359375,186.03515625,118.65234375,97.16796875,0.0,0,0
1772214154.434837,1772214154.3627906,340.8203125,132.8125,130.859375,54.19921875,0.0,0,0
1772214154.434876,1772214154.3666859,276.85546875,159.1796875,108.3984375,40.52734375,0.0,0,0
1772214154.434891,1772214154.370581,458.984375,223.14453125,117.67578125,76.171875,0.0,0,0
1772214154.4349031,1772214154.374476,615.72265625,228.02734375,147.94921875,132.8125,0.0,0,0
1772214154.434915,1772214154.378371,508.30078125,144.04296875,130.859375,121.58203125,0.0,0,0
1772214154.434927,1772214154.382266,322.75390625,96.19140625,104.4921875,55.6640625,0.0,0,0
1772214154.4349382,1772214154.386161,287.109375,121.58203125,98.14453125,21.484375,0.0,0,0
1772214154.4349499,1772214154.3900561,447.75390625,163.57421875,94.23828125,70.80078125,0.0,0,0
1772214154.434962,1772214154.3939512,543.45703125,164.55078125,88.8671875,124.0234375,0.0,0,0
1772214154.434973,1772214154.3978462,436.03515625,131.8359375,85.9375,107.91015625,0.0,0,0
1772214154.434984,1772214154.4017413,259.765625,71.2890625,81.0546875,57.12890625,0.0,0,0
1772214154.434995,1772214154.4056363,211.9140625,64.453125,80.56640625,40.52734375,0.0,0,0
1772214154.480882,1772214154.4096825,385.7421875,147.4609375,106.4453125,72.75390625,0.0,0,0
1772214154.480917,1772214154.4135776,542.48046875,195.3125,118.1640625,124.0234375,0.0,0,0
1772214154.480932,1772214154.4174726,502.9296875,145.01953125,100.09765625,139.16015625,0.0,0,0
1772214154.4809458,1772214154.421368,320.80078125,82.03125,81.0546875,87.890625,0.0,0,0
1772214154.480958,1772214154.425263,214.35546875,62.98828125,80.56640625,47.8515625,0.0,0,0
1772214154.4809742,1772214154.429158,359.375,119.62890625,91.796875,77.63671875,0.0,0,0
1772214154.480986,1772214154.433053,557.12890625,144.53125,91.796875,137.20703125,0.0,0,0
1772214154.480999,1772214154.436948,555.6640625,90.33203125,88.8671875,131.8359375,0.0,0,0
1772214154.4810119,1772214154.440843,396.97265625,39.55078125,91.796875,51.26953125,0.0,0,0
1772214154.481024,1772214154.4447384,304.19921875,32.71484375,92.7734375,12.6953125,0.0,0,0
1772214154.481038,1772214154.4486334,442.3828125,103.02734375,116.69921875,49.31640625,0.0,0,0
1772214154.48105,1772214154.4525285,644.53125,153.80859375,152.34375,102.05078125,0.0,0,0
1772214154.525776,1772214154.4565632,632.32421875,115.72265625,149.4140625,116.2109375,0.0,0,0
1772214154.525822,1772214154.4604583,369.140625,39.55078125,123.046875,62.98828125,0.0,0,0
1772214154.525839,1772214154.4643533,168.45703125,23.92578125,111.81640625,6.34765625,0.0,0,0
1772214154.525855,1772214154.4682486,210.44921875,71.2890625,117.67578125,20.5078125,0.0,0,0
1772214154.52587,1772214154.4721437,371.09375,121.58203125,135.25390625,95.703125,0.0,0,0
1772214154.5258849,1772214154.4760387,423.33984375,117.67578125,147.94921875,133.30078125,0.0,0,0
1772214154.5259001,1772214154.4799337,242.1875,38.57421875,142.08984375,90.33203125,0.0,0,0
1772214154.525915,1772214154.483829,74.70703125,5.859375,135.7421875,45.41015625,0.0,0,0
1772214154.525929,1772214154.487724,135.7421875,73.2421875,138.18359375,46.38671875,0.0,0,0
1772214154.525944,1772214154.491619,313.4765625,133.7890625,154.78515625,94.23828125,0.0,0,0
1772214154.5259578,1772214154.4955144,387.6953125,106.93359375,156.73828125,143.06640625,0.0,0,0
1772214154.525973,1772214154.4994094,242.67578125,38.0859375,130.37109375,120.1171875,0.0,0,0
1772214154.630925,1772214154.5037801,41.9921875,-4.39453125,121.09375,65.4296875,0.0,0,0
1772214154.6310039,1772214154.5076754,51.7578125,48.33984375,124.51171875,61.5234375,0.0,0,0
1772214154.6310441,1772214154.5115707,253.41796875,123.53515625,136.71875,113.76953125,0.0,0,0
1772214154.631078,1772214154.5154657,376.46484375,110.3515625,131.8359375,157.71484375,0.0,0,0
1772214154.631177,1772214154.519361,259.765625,36.1328125,113.76953125,143.5546875,0.0,0,0
1772214154.631221,1772214154.5232563,94.7265625,-3.41796875,105.46875,86.9140625,0.0,0,0
1772214154.631258,1772214154.5271513,147.4609375,27.83203125,104.4921875,56.640625,0.0,0,0
1772214154.631289,1772214154.5310466,375.0,88.8671875,120.60546875,99.609375,0.0,0,0
1772214154.631377,1772214154.5349417,513.671875,99.609375,129.8828125,153.3203125,0.0,0,0
1772214154.631412,1772214154.538837,394.53125,16.11328125,117.1875,106.4453125,0.0,0,0
1772214154.631443,1772214154.5427322,175.78125,-53.7109375,99.12109375,24.4140625,0.0,0,0
1772214154.6314728,1772214154.5466273,183.10546875,13.18359375,108.3984375,31.25,0.0,0,0
1772214154.6334221,1772214154.5507424,393.06640625,109.375,142.578125,94.23828125,0.0,0,0
1772214154.633465,1772214154.5546377,535.64453125,109.375,153.3203125,146.97265625,0.0,0,0
1772214154.6334898,1772214154.558533,445.80078125,39.55078125,148.4375,134.765625,0.0,0,0
1772214154.633514,1772214154.562428,228.515625,-14.16015625,145.99609375,61.5234375,0.0,0,0
1772214154.633538,1772214154.5663233,169.43359375,1.46484375,137.6953125,28.3203125,0.0,0,0
1772214154.633562,1772214154.5702186,350.09765625,74.70703125,146.97265625,56.15234375,0.0,0,0
1772214154.633588,1772214154.5741138,514.6484375,106.4453125,164.0625,108.88671875,0.0,0,0
1772214154.633612,1772214154.5780091,449.21875,15.625,140.625,130.859375,0.0,0,0
1772214154.633635,1772214154.5819042,244.62890625,-66.40625,92.28515625,53.22265625,0.0,0,0
1772214154.6336582,1772214154.5857995,173.828125,-25.87890625,88.8671875,19.53125,0.0,0,0
1772214154.633682,1772214154.5896947,344.7265625,65.91796875,118.65234375,85.44921875,0.0,0,0
1772214154.633705,1772214154.59359,530.2734375,99.609375,124.0234375,145.01953125,0.0,0,0
1772214154.6615129,1772214154.5975978,509.27734375,39.0625,131.34765625,145.99609375,0.0,0,0
1772214154.661654,1772214154.601493,500.9765625,-48.828125,135.25390625,94.23828125,0.0,0,0
1772214154.66169,1772214154.6053882,583.984375,-26.85546875,116.69921875,28.80859375,0.0,0,0
1772214154.661721,1772214154.6092834,722.16796875,76.66015625,132.32421875,25.87890625,0.0,0,0
1772214154.661747,1772214154.6131787,937.01171875,110.3515625,166.9921875,105.46875,0.0,0,0
1772214154.661772,1772214154.617074,930.17578125,72.265625,184.5703125,153.80859375,0.0,0,0
1772214154.661798,1772214154.6209693,710.9375,-7.8125,172.36328125,126.46484375,0.0,0,0
1772214154.6618218,1772214154.6248643,554.19921875,-47.36328125,162.109375,77.1484375,0.0,0,0
1772214154.661847,1772214154.6287596,593.26171875,24.90234375,166.50390625,64.453125,0.0,0,0
1772214154.6618738,1772214154.632655,779.78515625,98.6328125,190.91796875,119.62890625,0.0,0,0
1772214154.661899,1772214154.6365502,816.89453125,70.3125,198.73046875,147.94921875,0.0,0,0
1772214154.6619241,1772214154.6404455,622.0703125,-5.37109375,198.73046875,103.02734375,0.0,0,0
1772214154.706644,1772214154.644436,478.02734375,-46.38671875,201.66015625,39.0625,0.0,0,0
1772214154.706793,1772214154.6483312,549.8046875,-21.97265625,205.078125,44.43359375,0.0,0,0
1772214154.7068539,1772214154.6522264,734.375,71.2890625,228.515625,92.28515625,0.0,0,0
1772214154.706909,1772214154.6561217,774.90234375,101.07421875,235.3515625,113.76953125,0.0,0,0
1772214154.706961,1772214154.660017,577.63671875,22.94921875,196.2890625,112.79296875,0.0,0,0
1772214154.707084,1772214154.6639123,376.953125,-13.671875,151.85546875,73.2421875,0.0,0,0
1772214154.7071328,1772214154.6678076,422.8515625,41.9921875,149.90234375,62.98828125,0.0,0,0
1772214154.7071738,1772214154.6717029,619.140625,88.37890625,159.66796875,104.98046875,0.0,0,0
1772214154.7072132,1772214154.6755981,702.1484375,75.68359375,172.36328125,147.4609375,0.0,0,0
1772214154.707293,1772214154.6794934,575.1953125,11.71875,171.38671875,128.41796875,0.0,0,0
1772214154.70734,1772214154.6833887,375.9765625,-37.59765625,153.80859375,41.9921875,0.0,0,0
1772214154.707378,1772214154.6872838,366.2109375,12.20703125,158.203125,13.671875,0.0,0,0
1772214154.751054,1772214154.6912596,541.50390625,84.9609375,178.7109375,64.94140625,0.0,0,0
1772214154.7511098,1772214154.695155,675.78125,91.796875,184.5703125,104.4921875,0.0,0,0
1772214154.751204,1772214154.6990502,594.7265625,35.64453125,169.921875,95.703125,0.0,0,0
1772214154.751224,1772214154.7029455,428.22265625,-18.5546875,162.59765625,34.1796875,0.0,0,0
1772214154.751242,1772214154.7068408,429.19921875,9.27734375,175.29296875,4.8828125,0.0,0,0
1772214154.7512589,1772214154.710736,607.421875,90.33203125,193.359375,65.4296875,0.0,0,0
1772214154.751276,1772214154.7146313,733.88671875,90.8203125,200.1953125,117.67578125,0.0,0,0
1772214154.751293,1772214154.7185266,584.47265625,24.4140625,178.7109375,88.8671875,0.0,0,0
1772214154.75131,1772214154.722422,376.953125,-7.8125,151.3671875,23.92578125,0.0,0,0
1772214154.7513258,1772214154.7263172,371.09375,10.25390625,145.5078125,-20.01953125,0.0,0,0
1772214154.751343,1772214154.7302125,565.91796875,62.5,167.48046875,24.4140625,0.0,0,0
1772214154.75136,1772214154.7341077,721.6796875,82.51953125,182.6171875,90.8203125,0.0,0,0
1772214154.810996,1772214154.7380743,617.67578125,28.3203125,173.828125,88.8671875,0.0,0,0
1772214154.811048,1772214154.7419696,388.671875,-32.2265625,180.17578125,49.8046875,0.0,0,0
1772214154.811062,1772214154.7458649,306.640625,-9.765625,187.98828125,32.71484375,0.0,0,0
1772214154.811075,1772214154.7497602,465.8203125,72.265625,183.59375,47.8515625,0.0,0,0
1772214154.8110888,1772214154.7536554,613.28125,99.609375,177.24609375,58.59375,0.0,0,0
1772214154.811102,1772214154.7575507,536.62109375,62.01171875,163.0859375,63.4765625,0.0,0,0
1772214154.811115,1772214154.761446,332.51953125,21.484375,155.2734375,23.92578125,0.0,0,0
1772214154.8111281,1772214154.7653413,220.21484375,8.7890625,139.6484375,-55.17578125,0.0,0,0
1772214154.811141,1772214154.7692366,341.796875,68.84765625,145.99609375,-46.875,0.0,0,0
1772214154.811153,1772214154.7731318,537.109375,123.53515625,164.0625,32.2265625,0.0,0,0
1772214154.8111649,1772214154.7770271,526.85546875,69.3359375,145.01953125,54.6875,0.0,0,0
1772214154.811178,1772214154.7809224,309.08203125,7.32421875,103.02734375,-2.44140625,0.0,0,0
1772214154.8563359,1772214154.7849643,170.41015625,16.6015625,89.84375,-61.5234375,0.0,0,0
1772214154.856374,1772214154.7888596,272.94921875,75.68359375,105.95703125,-40.0390625,0.0,0,0
1772214154.85639,1772214154.792755,479.98046875,113.28125,129.8828125,32.71484375,0.0,0,0
1772214154.856405,1772214154.7966502,506.8359375,75.1953125,145.5078125,70.3125,0.0,0,0
1772214154.85642,1772214154.8005455,289.0625,15.13671875,119.62890625,32.2265625,0.0,0,0
1772214154.8564339,1772214154.8044407,133.7890625,20.99609375,101.5625,-22.4609375,0.0,0,0
1772214154.856457,1772214154.8083363,223.6328125,66.89453125,102.05078125,-13.671875,0.0,0,0
1772214154.8564742,1772214154.8122315,418.9453125,109.375,126.953125,53.22265625,0.0,0,0
1772214154.856538,1772214154.8161268,492.67578125,85.9375,142.08984375,96.19140625,0.0,0,0
1772214154.856574,1772214154.820022,343.26171875,4.39453125,109.86328125,58.10546875,0.0,0,0
1772214154.856592,1772214154.8239174,160.64453125,-13.18359375,85.9375,-19.53125,0.0,0,0
1772214154.856608,1772214154.8278127,207.03125,51.7578125,99.609375,-14.16015625,0.0,0,0
1772214154.9007459,1772214154.8318431,411.1328125,102.05078125,130.859375,61.03515625,0.0,0,0
1772214154.9007812,1772214154.8357384,497.55859375,80.078125,135.7421875,106.93359375,0.0,0,0
1772214154.900793,1772214154.839634,344.7265625,8.30078125,122.0703125,79.58984375,0.0,0,0
1772214154.9008021,1772214154.8435292,169.43359375,-24.90234375,121.09375,22.94921875,0.0,0,0
1772214154.9008121,1772214154.8474245,200.68359375,24.4140625,132.32421875,10.25390625,0.0,0,0
1772214154.900821,1772214154.8513198,396.484375,94.7265625,145.99609375,50.78125,0.0,0,0
1772214154.900872,1772214154.855215,485.83984375,102.5390625,155.76171875,91.30859375,0.0,0,0
1772214154.9008949,1772214154.8591106,343.26171875,34.1796875,141.6015625,64.453125,0.0,0,0
1772214154.900912,1772214154.8630059,122.55859375,-32.71484375,124.51171875,0.48828125,0.0,0,0
1772214154.900922,1772214154.8669012,83.49609375,-0.48828125,125.9765625,-14.6484375,0.0,0,0
1772214154.900932,1772214154.8707964,281.73828125,72.75390625,131.34765625,40.52734375,0.0,0,0
1772214154.9009411,1772214154.8746917,395.5078125,81.0546875,143.5546875,85.44921875,0.0,0,0
1772214154.945738,1772214154.8787112,279.78515625,28.3203125,137.6953125,67.3828125,0.0,0,0
1772214154.945769,1772214154.8826065,78.61328125,-20.01953125,121.09375,2.44140625,0.0,0,0
1772214154.94578,1772214154.8865018,37.109375,-0.48828125,134.27734375,-25.390625,0.0,0,0
1772214154.9457889,1772214154.890397,222.16796875,53.7109375,152.34375,23.92578125,0.0,0,0
1772214154.9457972,1772214154.8942926,355.46875,72.75390625,152.34375,68.359375,0.0,0,0
1772214154.945806,1772214154.8981879,278.3203125,29.78515625,127.9296875,47.8515625,0.0,0,0
1772214154.9458141,1772214154.9020832,89.35546875,-42.48046875,106.4453125,-0.48828125,0.0,0,0
1772214154.945845,1772214154.9059787,8.7890625,-26.3671875,112.79296875,-32.2265625,0.0,0,0
1772214154.945893,1772214154.909874,177.24609375,61.5234375,136.71875,11.23046875,0.0,0,0
1772214154.945908,1772214154.9137692,359.375,90.33203125,160.15625,83.0078125,0.0,0,0
1772214154.945917,1772214154.9176645,318.84765625,45.41015625,145.5078125,76.66015625,0.0,0,0
1772214154.9459999,1772214154.92156,125.48828125,-23.92578125,97.65625,12.20703125,0.0,0,0
1772214154.9906151,1772214154.9255686,15.625,-28.3203125,75.68359375,-35.15625,0.0,0,0
1772214154.990647,1772214154.929464,147.4609375,56.15234375,100.5859375,-14.6484375,0.0,0,0
1772214154.990657,1772214154.9333594,337.890625,91.796875,127.44140625,64.94140625,0.0,0,0
1772214154.990666,1772214154.9372547,317.3828125,40.0390625,123.046875,82.51953125,0.0,0,0
1772214154.990674,1772214154.9411502,110.83984375,-15.625,117.1875,20.01953125,0.0,0,0
1772214154.9906828,1772214154.9450455,-4.8828125,-15.625,116.2109375,-27.34375,0.0,0,0
1772214154.9906912,1772214154.9489408,127.9296875,44.43359375,117.67578125,-8.30078125,0.0,0,0
1772214154.9907,1772214154.9528363,346.19140625,80.56640625,125.9765625,66.40625,0.0,0,0
1772214154.990709,1772214154.9567316,365.234375,39.55078125,124.51171875,88.37890625,0.0,0,0
1772214154.990717,1772214154.9606268,166.015625,-25.390625,125.9765625,34.1796875,0.0,0,0
1772214154.990725,1772214154.9645224,-1.953125,-28.80859375,129.8828125,-27.83203125,0.0,0,0
1772214154.9907331,1772214154.9684176,98.14453125,49.31640625,131.8359375,-16.6015625,0.0,0,0
1772214155.035906,1772214154.9724162,300.29296875,79.58984375,141.6015625,55.6640625,0.0,0,0
1772214155.0359411,1772214154.9763114,338.8671875,40.52734375,141.11328125,71.77734375,0.0,0,0
1772214155.035954,1772214154.980207,160.15625,-20.5078125,129.8828125,25.87890625,0.0,0,0
1772214155.035965,1772214154.9841022,-21.484375,-52.24609375,125.0,-27.34375,0.0,0,0
1772214155.035976,1772214154.9879978,53.22265625,3.90625,137.20703125,-25.390625,0.0,0,0
1772214155.035987,1772214154.991893,259.765625,73.2421875,152.34375,40.0390625,0.0,0,0
1772214155.035997,1772214154.9957886,343.26171875,50.78125,146.97265625,72.75390625,0.0,0,0
1772214155.036009,1772214154.9996839,199.21875,-31.25,109.86328125,31.73828125,0.0,0,0
1772214155.0360188,1772214155.0035791,32.71484375,-50.29296875,96.19140625,-29.296875,0.0,0,0
1772214155.0360289,1772214155.0074747,80.078125,19.04296875,132.32421875,-28.80859375,0.0,0,0
1772214155.0360398,1772214155.01137,291.9921875,77.63671875,158.203125,36.1328125,0.0,0,0
1772214155.0360498,1772214155.0152655,387.6953125,65.91796875,152.34375,73.73046875,0.0,0,0
1772214155.0815759,1772214155.0192518,214.84375,2.9296875,128.90625,33.203125,0.0,0,0
1772214155.0816069,1772214155.023147,8.30078125,-28.80859375,105.46875,-28.3203125,0.0,0,0
1772214155.081623,1772214155.0270426,30.2734375,9.765625,110.3515625,-34.66796875,0.0,0,0
1772214155.0816362,1772214155.030938,231.4453125,73.2421875,121.09375,12.6953125,0.0,0,0
1772214155.0816488,1772214155.0348334,347.16796875,92.28515625,124.0234375,60.05859375,0.0,0,0
1772214155.081662,1772214155.0387287,224.12109375,40.0390625,114.2578125,42.96875,0.0,0,0
1772214155.081675,1772214155.0426242,16.6015625,-14.6484375,91.796875,-16.6015625,0.0,0,0
1772214155.081747,1772214155.0465195,-7.32421875,-5.37109375,77.63671875,-27.34375,0.0,0,0
1772214155.081762,1772214155.050415,177.24609375,60.546875,86.42578125,15.13671875,0.0,0,0
1772214155.0817752,1772214155.0543103,302.734375,86.9140625,106.93359375,62.5,0.0,0,0
1772214155.0817878,1772214155.0582058,218.26171875,30.2734375,90.33203125,53.22265625,0.0,0,0
1772214155.0818,1772214155.0621011,20.5078125,-19.53125,82.03125,-10.7421875,0.0,0,0
1772214155.125777,1772214155.0660772,-49.8046875,-6.34765625,78.125,-43.9453125,0.0,0,0
1772214155.1258152,1772214155.0699725,112.3046875,70.3125,71.2890625,-12.6953125,0.0,0,0
1772214155.12583,1772214155.073868,280.2734375,104.00390625,94.7265625,45.41015625,0.0,0,0
1772214155.1258419,1772214155.0777633,222.65625,25.87890625,87.40234375,54.6875,0.0,0,0
1772214155.125854,1772214155.0816588,25.87890625,-39.55078125,52.734375,-4.39453125,0.0,0,0
1772214155.125865,1772214155.0855541,-89.84375,1.46484375,45.8984375,-41.50390625,0.0,0,0
1772214155.125877,1772214155.0894496,38.0859375,66.89453125,62.98828125,-5.859375,0.0,0,0
1772214155.125888,1772214155.093345,255.859375,96.19140625,83.984375,56.15234375,0.0,0,0
1772214155.125899,1772214155.0972404,220.703125,62.5,79.58984375,56.640625,0.0,0,0
1772214155.125911,1772214155.101136,-7.8125,-19.53125,51.26953125,-9.765625,0.0,0,0
1772214155.125922,1772214155.1050313,-128.41796875,-40.0390625,45.8984375,-51.26953125,0.0,0,0
1772214155.1259332,1772214155.1089268,3.90625,33.69140625,64.94140625,-34.1796875,0.0,0,0
1772214155.2010822,1772214155.1130633,218.26171875,84.9609375,92.28515625,24.4140625,0.0,0,0
1772214155.201132,1772214155.1169586,221.19140625,42.96875,78.61328125,41.015625,0.0,0,0
1772214155.20115,1772214155.1208541,36.62109375,-11.23046875,52.24609375,-16.11328125,0.0,0,0
1772214155.2011662,1772214155.1247497,-102.5390625,-20.99609375,62.98828125,-62.5,0.0,0,0
1772214155.20118,1772214155.1286452,-7.32421875,27.83203125,82.03125,-45.8984375,0.0,0,0
1772214155.201195,1772214155.1325405,211.9140625,94.23828125,101.5625,12.6953125,0.0,0,0
1772214155.20121,1772214155.136436,223.6328125,78.125,97.65625,40.0390625,0.0,0,0
1772214155.2012239,1772214155.1403315,30.76171875,5.37109375,71.77734375,-12.6953125,0.0,0,0
1772214155.201238,1772214155.1442268,-90.8203125,-1.953125,64.94140625,-72.265625,0.0,0,0
1772214155.201252,1772214155.1481223,22.94921875,63.96484375,78.61328125,-64.453125,0.0,0,0
1772214155.201267,1772214155.1520178,224.12109375,103.02734375,93.75,-0.9765625,0.0,0,0
1772214155.201281,1772214155.155913,298.33984375,83.0078125,84.47265625,35.15625,0.0,0,0
1772214155.230775,1772214155.1599524,136.23046875,19.04296875,64.453125,2.44140625,0.0,0,0
1772214155.230809,1772214155.163848,-83.0078125,-26.3671875,66.89453125,-63.96484375,0.0,0,0
1772214155.230828,1772214155.1677434,-27.34375,18.06640625,75.68359375,-74.70703125,0.0,0,0
1772214155.230847,1772214155.171639,196.2890625,87.40234375,80.078125,-3.41796875,0.0,0,0
1772214155.230865,1772214155.1755342,264.6484375,83.49609375,77.1484375,37.109375,0.0,0,0
1772214155.230894,1772214155.1794298,119.140625,20.5078125,66.40625,-4.8828125,0.0,0,0
1772214155.230912,1772214155.1833253,-60.05859375,-25.87890625,60.546875,-85.9375,0.0,0,0
1772214155.230929,1772214155.1872208,-25.87890625,9.27734375,62.01171875,-90.8203125,0.0,0,0
1772214155.2309492,1772214155.1911163,175.78125,66.89453125,76.66015625,-29.296875,0.0,0,0
1772214155.230966,1772214155.1950116,264.6484375,70.80078125,97.16796875,2.44140625,0.0,0,0
1772214155.2309818,1772214155.1989071,143.06640625,23.4375,90.33203125,-17.08984375,0.0,0,0
1772214155.230999,1772214155.2028027,-37.109375,-24.4140625,80.078125,-69.82421875,0.0,0,0
1772214155.2758558,1772214155.2068315,-28.80859375,-4.39453125,94.7265625,-82.51953125,0.0,0,0
1772214155.275913,1772214155.210727,179.19921875,64.453125,122.0703125,-20.99609375,0.0,0,0
1772214155.2759418,1772214155.2146223,298.828125,85.9375,128.90625,23.92578125,0.0,0,0
1772214155.275975,1772214155.2185178,180.17578125,34.1796875,102.5390625,-7.32421875,0.0,0,0
1772214155.276001,1772214155.2224133,-29.78515625,-14.6484375,82.51953125,-71.2890625,0.0,0,0
1772214155.276026,1772214155.2263088,-57.6171875,6.8359375,87.40234375,-103.515625,0.0,0,0
1772214155.2760499,1772214155.2302043,149.4140625,62.5,99.609375,-72.265625,0.0,0,0
1772214155.276074,1772214155.2340999,314.94140625,52.24609375,89.84375,-18.06640625,0.0,0,0
1772214155.276098,1772214155.2379954,213.8671875,0.48828125,58.10546875,-24.90234375,0.0,0,0
1772214155.276122,1772214155.241891,-25.87890625,-42.48046875,34.1796875,-99.609375,0.0,0,0
1772214155.276149,1772214155.2457864,-104.98046875,-39.55078125,34.66796875,-141.11328125,0.0,0,0
1772214155.276173,1772214155.2496817,56.15234375,36.1328125,62.01171875,-87.40234375,0.0,0,0
1772214155.321418,1772214155.2537024,254.39453125,79.58984375,88.8671875,-7.8125,0.0,0,0
1772214155.321472,1772214155.257598,221.6796875,24.90234375,77.63671875,-4.39453125,0.0,0,0
1772214155.321506,1772214155.2614934,1.953125,-50.29296875,46.38671875,-57.6171875,0.0,0,0
1772214155.321536,1772214155.265389,-170.8984375,-62.01171875,43.9453125,-87.40234375,0.0,0,0
1772214155.3215702,1772214155.2692845,11.71875,19.53125,60.05859375,-78.125,0.0,0,0
1772214155.3216,1772214155.27318,328.61328125,92.7734375,63.96484375,-19.53125,0.0,0,0
1772214155.3216288,1772214155.2770755,285.15625,47.8515625,43.9453125,-1.953125,0.0,0,0
1772214155.321675,1772214155.280971,-72.75390625,-37.59765625,10.25390625,-54.19921875,0.0,0,0
1772214155.3217092,1772214155.2848666,-270.5078125,-66.89453125,10.7421875,-92.7734375,0.0,0,0
1772214155.321739,1772214155.288762,-2.9296875,20.5078125,28.3203125,-78.125,0.0,0,0
1772214155.321768,1772214155.2926574,341.796875,86.42578125,48.828125,-20.01953125,0.0,0,0
1772214155.3217978,1772214155.296553,341.30859375,46.875,50.78125,6.8359375,0.0,0,0
1772214155.366403,1772214155.3005633,13.671875,-42.96875,27.83203125,-32.71484375,0.0,0,0
1772214155.3665159,1772214155.3044589,-222.16796875,-75.68359375,25.390625,-81.54296875,0.0,0,0
1772214155.366561,1772214155.3083544,-52.734375,25.390625,38.57421875,-85.44921875,0.0,0,0
1772214155.3665988,1772214155.31225,306.640625,101.5625,50.29296875,-42.96875,0.0,0,0
1772214155.3666408,1772214155.3161454,363.28125,61.03515625,44.921875,1.953125,0.0,0,0
1772214155.366678,1772214155.320041,120.60546875,-8.7890625,26.3671875,-28.80859375,0.0,0,0
1772214155.366715,1772214155.3239365,-53.22265625,-34.66796875,28.3203125,-100.09765625,0.0,0,0
1772214155.366752,1772214155.327832,10.7421875,0.0,34.1796875,-114.74609375,0.0,0,0
1772214155.366787,1772214155.3317275,208.49609375,57.6171875,48.828125,-50.78125,0.0,0,0
1772214155.366823,1772214155.335623,275.87890625,55.6640625,56.640625,-0.48828125,0.0,0,0
1772214155.366863,1772214155.3395185,116.69921875,-10.25390625,39.0625,-36.1328125,0.0,0,0
1772214155.366899,1772214155.343414,-87.890625,-42.96875,33.203125,-97.16796875,0.0,0,0
1772214155.4121,1772214155.3474126,-70.80078125,17.578125,45.8984375,-107.421875,0.0,0,0
1772214155.412204,1772214155.351308,128.41796875,90.33203125,58.59375,-71.2890625,0.0,0,0
1772214155.4122381,1772214155.3552036,241.2109375,85.9375,50.29296875,-34.1796875,0.0,0,0
1772214155.4123032,1772214155.3590994,132.32421875,12.20703125,38.0859375,-43.45703125,0.0,0,0
1772214155.4123552,1772214155.362995,-69.82421875,-41.9921875,26.85546875,-105.95703125,0.0,0,0
1772214155.412409,1772214155.3668904,-82.51953125,7.32421875,30.2734375,-126.953125,0.0,0,0
1772214155.4124548,1772214155.370786,128.41796875,66.89453125,48.828125,-74.70703125,0.0,0,0
1772214155.412519,1772214155.3746815,247.0703125,62.5,51.7578125,-25.390625,0.0,0,0
1772214155.412558,1772214155.378577,113.28125,9.765625,37.109375,-33.203125,0.0,0,0
1772214155.4125881,1772214155.3824725,-92.7734375,-35.15625,17.578125,-94.7265625,0.0,0,0
1772214155.412617,1772214155.386368,-128.41796875,-11.23046875,13.18359375,-131.8359375,0.0,0,0
1772214155.4126458,1772214155.3902638,65.91796875,53.22265625,30.2734375,-77.1484375,0.0,0,0
1772214155.4575381,1772214155.3942516,244.140625,82.03125,41.9921875,-3.90625,0.0,0,0
1772214155.457875,1772214155.398147,147.94921875,20.5078125,23.92578125,-22.94921875,0.0,0,0
1772214155.457982,1772214155.4020426,-76.66015625,-37.109375,12.6953125,-83.49609375,0.0,0,0
1772214155.458462,1772214155.4059384,-150.87890625,-9.765625,15.625,-106.4453125,0.0,0,0
1772214155.4585118,1772214155.409834,8.7890625,59.08203125,34.1796875,-66.40625,0.0,0,0
1772214155.4585369,1772214155.4137294,213.37890625,93.75,55.17578125,5.859375,0.0,0,0
1772214155.4585621,1772214155.417625,170.41015625,36.62109375,40.0390625,10.25390625,0.0,0,0
1772214155.4585862,1772214155.4215205,-56.640625,-41.9921875,14.6484375,-57.6171875,0.0,0,0
1772214155.4586098,1772214155.425416,-172.36328125,-50.29296875,6.34765625,-107.91015625,0.0,0,0
1772214155.458635,1772214155.4293118,-15.625,26.3671875,16.6015625,-76.66015625,0.0,0,0
1772214155.458684,1772214155.4332073,200.68359375,85.9375,36.62109375,-3.90625,0.0,0,0
1772214155.4587278,1772214155.4371028,172.8515625,52.734375,34.66796875,-0.9765625,0.0,0,0
1772214155.515743,1772214155.4410806,-39.0625,-26.85546875,21.484375,-67.3828125,0.0,0,0
1772214155.515831,1772214155.444976,-159.1796875,-38.0859375,16.6015625,-115.72265625,0.0,0,0
1772214155.51586,1772214155.4488719,-39.55078125,37.59765625,32.71484375,-107.421875,0.0,0,0
1772214155.515928,1772214155.4527674,211.9140625,81.54296875,48.828125,-49.31640625,0.0,0,0
1772214155.51596,1772214155.456663,248.046875,53.22265625,43.45703125,-23.92578125,0.0,0,0
1772214155.515989,1772214155.4605584,-76.66015625,-45.8984375,40.0390625,-41.50390625,0.0,0,0
1772214155.516015,1772214155.4644542,-249.51171875,-65.4296875,28.80859375,-63.4765625,0.0,0,0
1772214155.5160398,1772214155.4683497,-18.06640625,38.0859375,29.78515625,-92.28515625,0.0,0,0
1772214155.5160651,1772214155.4722452,298.33984375,107.421875,54.6875,-81.54296875,0.0,0,0
1772214155.5160892,1772214155.4761407,324.21875,74.70703125,64.94140625,-48.33984375,0.0,0,0
1772214155.5161128,1772214155.4800365,-24.90234375,-23.4375,45.8984375,-71.2890625,0.0,0,0
1772214155.516138,1772214155.483932,-284.1796875,-48.33984375,20.01953125,-139.16015625,0.0,0,0
1772214155.5608692,1772214155.4878995,-105.95703125,32.2265625,40.0390625,-148.92578125,0.0,0,0
1772214155.560946,1772214155.4917953,262.20703125,102.5390625,74.70703125,-83.49609375,0.0,0,0
1772214155.560975,1772214155.4956908,343.75,66.89453125,86.42578125,-33.69140625,0.0,0,0
1772214155.5609999,1772214155.4995863,14.16015625,-26.85546875,66.89453125,-65.4296875,0.0,0,0
1772214155.5610251,1772214155.503482,-282.2265625,-52.734375,42.96875,-138.18359375,0.0,0,0
1772214155.5610502,1772214155.5073776,-155.2734375,21.97265625,47.8515625,-144.53125,0.0,0,0
1772214155.561074,1772214155.5112731,220.21484375,93.26171875,64.94140625,-91.30859375,0.0,0,0
1772214155.561098,1772214155.5151687,328.61328125,65.4296875,55.17578125,-58.59375,0.0,0,0
1772214155.561122,1772214155.5190644,83.49609375,-13.18359375,35.15625,-91.30859375,0.0,0,0
1772214155.561146,1772214155.52296,-128.90625,-49.8046875,35.15625,-153.3203125,0.0,0,0
1772214155.561169,1772214155.5268555,-110.3515625,-8.7890625,54.19921875,-146.484375,0.0,0,0
1772214155.561193,1772214155.5307512,106.93359375,51.7578125,74.21875,-83.49609375,0.0,0,0
1772214155.606839,1772214155.534792,237.79296875,49.8046875,71.2890625,-43.9453125,0.0,0,0
1772214155.606998,1772214155.5386875,104.98046875,-11.23046875,35.64453125,-70.3125,0.0,0,0
1772214155.607035,1772214155.5425832,-106.4453125,-56.640625,15.625,-146.484375,0.0,0,0
1772214155.607061,1772214155.5464787,-123.046875,-39.55078125,42.96875,-168.9453125,0.0,0,0
1772214155.6070871,1772214155.5503743,80.56640625,27.34375,74.21875,-110.3515625,0.0,0,0
1772214155.607111,1772214155.55427,223.6328125,54.19921875,87.40234375,-59.08203125,0.0,0,0
1772214155.607136,1772214155.5581656,128.41796875,-2.9296875,87.40234375,-70.80078125,0.0,0,0
1772214155.607161,1772214155.5620613,-82.51953125,-50.29296875,65.91796875,-136.23046875,0.0,0,0
1772214155.607185,1772214155.5659568,-150.390625,-32.2265625,56.15234375,-158.203125,0.0,0,0
1772214155.607209,1772214155.5698524,31.25,37.59765625,82.51953125,-104.00390625,0.0,0,0
1772214155.607272,1772214155.573748,227.5390625,63.4765625,94.23828125,-34.66796875,0.0,0,0
1772214155.6073139,1772214155.5776436,162.59765625,-6.34765625,63.4765625,-40.0390625,0.0,0,0
1772214155.651169,1772214155.581675,-48.33984375,-60.546875,41.9921875,-105.95703125,0.0,0,0
1772214155.651276,1772214155.5855708,-143.06640625,-54.19921875,68.359375,-145.01953125,0.0,0,0
1772214155.6513212,1772214155.5894663,-1.46484375,18.5546875,103.515625,-112.79296875,0.0,0,0
1772214155.651346,1772214155.593362,192.3828125,60.05859375,111.81640625,-34.1796875,0.0,0,0
1772214155.651371,1772214155.5972576,170.8984375,12.6953125,102.05078125,-19.53125,0.0,0,0
1772214155.651395,1772214155.6011534,-36.1328125,-34.66796875,79.1015625,-75.1953125,0.0,0,0
1772214155.6514208,1772214155.605049,-163.0859375,-38.0859375,94.23828125,-103.02734375,0.0,0,0
1772214155.651445,1772214155.6089447,-51.26953125,2.9296875,125.9765625,-71.2890625,0.0,0,0
1772214155.651469,1772214155.6128402,150.87890625,48.33984375,138.18359375,-7.8125,0.0,0,0
1772214155.6514938,1772214155.616736,162.109375,24.4140625,133.7890625,4.8828125,0.0,0,0
1772214155.6515179,1772214155.6206315,-32.71484375,-40.0390625,115.72265625,-52.24609375,0.0,0,0
1772214155.651542,1772214155.6245272,-186.03515625,-43.45703125,99.12109375,-103.02734375,0.0,0,0
1772214155.696542,1772214155.6285474,-92.7734375,15.13671875,96.19140625,-94.23828125,0.0,0,0
1772214155.696676,1772214155.6324432,120.60546875,52.734375,104.4921875,-32.2265625,0.0,0,0
1772214155.6967192,1772214155.6363387,163.0859375,18.5546875,98.14453125,-8.7890625,0.0,0,0
1772214155.6967602,1772214155.6402345,-20.99609375,-42.96875,77.1484375,-57.6171875,0.0,0,0
1772214155.6967978,1772214155.64413,-185.546875,-53.7109375,61.03515625,-125.9765625,0.0,0,0
1772214155.6968372,1772214155.6480258,-97.16796875,-2.44140625,81.0546875,-123.53515625,0.0,0,0
1772214155.6968782,1772214155.6519213,125.9765625,48.33984375,106.93359375,-53.22265625,0.0,0,0
1772214155.6969159,1772214155.655817,179.6875,23.4375,92.28515625,-23.92578125,0.0,0,0
1772214155.696954,1772214155.6597128,-17.08984375,-47.36328125,58.10546875,-65.91796875,0.0,0,0
1772214155.696991,1772214155.6636083,-214.84375,-64.94140625,49.31640625,-120.1171875,0.0,0,0
1772214155.697029,1772214155.667504,-166.9921875,-13.671875,58.10546875,-115.72265625,0.0,0,0
1772214155.697075,1772214155.6713996,46.38671875,30.2734375,64.94140625,-61.5234375,0.0,0,0
1772214155.7417998,1772214155.6754093,138.18359375,20.99609375,67.3828125,-21.97265625,0.0,0,0
1772214155.741903,1772214155.6793048,-5.37109375,-33.203125,48.828125,-50.29296875,0.0,0,0
1772214155.74193,1772214155.6832006,-245.1171875,-69.82421875,20.01953125,-109.375,0.0,0,0
1772214155.741955,1772214155.687096,-241.2109375,-25.390625,26.85546875,-112.3046875,0.0,0,0
1772214155.7419798,1772214155.6909919,109.375,46.875,62.98828125,-62.98828125,0.0,0,0
1772214155.742004,1772214155.6948876,295.8984375,50.29296875,82.51953125,-10.25390625,0.0,0,0
1772214155.7420318,1772214155.6987832,54.6875,-29.78515625,66.89453125,-20.5078125,0.0,0,0
1772214155.742055,1772214155.702679,-261.23046875,-94.23828125,35.64453125,-86.42578125,0.0,0,0
1772214155.74208,1772214155.7065747,-262.6953125,-54.19921875,27.83203125,-108.88671875,0.0,0,0
1772214155.742104,1772214155.7104702,94.7265625,36.62109375,43.9453125,-71.77734375,0.0,0,0
1772214155.7421281,1772214155.714366,300.29296875,39.0625,55.17578125,-28.3203125,0.0,0,0
1772214155.7421608,1772214155.7182617,64.453125,-41.015625,41.9921875,-31.25,0.0,0,0
1772214155.8019981,1772214155.7223458,-281.73828125,-91.796875,28.3203125,-85.44921875,0.0,0,0
1772214155.8021371,1772214155.7262416,-331.0546875,-44.43359375,31.25,-108.88671875,0.0,0,0
1772214155.802181,1772214155.730137,43.45703125,56.640625,41.015625,-58.10546875,0.0,0,0
1772214155.802219,1772214155.7340329,284.66796875,58.59375,100.09765625,10.25390625,0.0,0,0
1772214155.802258,1772214155.7379286,75.68359375,-22.4609375,126.46484375,2.44140625,0.0,0,0
1772214155.8024929,1772214155.7418244,-249.0234375,-73.73046875,80.56640625,-47.36328125,0.0,0,0
1772214155.8025348,1772214155.74572,-333.49609375,-79.1015625,64.453125,-78.61328125,0.0,0,0
1772214155.802573,1772214155.7496157,-17.08984375,0.9765625,72.75390625,-68.359375,0.0,0,0
1772214155.80261,1772214155.7535114,285.64453125,49.8046875,77.63671875,-12.6953125,0.0,0,0
1772214155.802647,1772214155.7574072,169.43359375,-11.71875,84.47265625,0.48828125,0.0,0,0
1772214155.8026838,1772214155.7613027,-181.15234375,-73.2421875,71.2890625,-39.55078125,0.0,0,0
1772214155.80272,1772214155.7651985,-297.8515625,-52.24609375,64.94140625,-77.1484375,0.0,0,0
1772214155.831174,1772214155.769187,-20.5078125,24.4140625,82.51953125,-70.80078125,0.0,0,0
1772214155.8312478,1772214155.7730827,271.484375,52.734375,88.8671875,-5.37109375,0.0,0,0
1772214155.831288,1772214155.7769783,209.9609375,1.46484375,77.63671875,11.23046875,0.0,0,0
1772214155.831326,1772214155.780874,-148.92578125,-73.2421875,58.10546875,-41.015625,0.0,0,0
1772214155.831363,1772214155.7847698,-344.23828125,-78.61328125,64.94140625,-92.7734375,0.0,0,0
1772214155.831399,1772214155.7886655,-100.5859375,10.25390625,111.81640625,-81.0546875,0.0,0,0
1772214155.831436,1772214155.7925613,244.140625,70.3125,147.94921875,-4.39453125,0.0,0,0
1772214155.8314729,1772214155.7964568,239.74609375,14.6484375,145.99609375,21.484375,0.0,0,0
1772214155.8315089,1772214155.8003526,-110.3515625,-73.2421875,147.4609375,-23.92578125,0.0,0,0
1772214155.831546,1772214155.8042483,-345.21484375,-82.03125,157.71484375,-76.66015625,0.0,0,0
1772214155.831584,1772214155.808144,-132.32421875,-10.7421875,160.15625,-69.82421875,0.0,0,0
1772214155.83162,1772214155.8120399,212.890625,31.25,169.921875,-18.5546875,0.0,0,0
1772214155.8770702,1772214155.8160174,267.578125,3.41796875,175.29296875,10.25390625,0.0,0,0
1772214155.8771992,1772214155.8199131,-39.0625,-72.265625,160.15625,-10.25390625,0.0,0,0
1772214155.877321,1772214155.823809,-316.89453125,-84.9609375,149.90234375,-73.2421875,0.0,0,0
1772214155.8773649,1772214155.8277047,-171.38671875,-11.71875,160.15625,-94.23828125,0.0,0,0
1772214155.877405,1772214155.8316004,194.82421875,40.52734375,175.78125,-27.83203125,0.0,0,0
1772214155.877443,1772214155.8354962,292.96875,27.34375,165.0390625,20.5078125,0.0,0,0
1772214155.877484,1772214155.839392,4.8828125,-48.828125,134.27734375,15.13671875,0.0,0,0
1772214155.877522,1772214155.8432875,-261.23046875,-83.984375,102.5390625,-45.8984375,0.0,0,0
1772214155.8775601,1772214155.8471832,-158.69140625,-30.2734375,89.35546875,-66.40625,0.0,0,0
1772214155.8775969,1772214155.851079,214.35546875,43.9453125,84.9609375,-1.953125,0.0,0,0
1772214155.877634,1772214155.8549747,357.421875,32.71484375,89.84375,46.875,0.0,0,0
1772214155.877679,1772214155.8588705,81.0546875,-56.640625,100.5859375,37.109375,0.0,0,0
1772214155.936811,1772214155.862839,-236.81640625,-98.14453125,91.30859375,-16.11328125,0.0,0,0
1772214155.9369442,1772214155.8667347,-213.8671875,-35.15625,74.70703125,-41.015625,0.0,0,0
1772214155.937016,1772214155.8706305,151.85546875,51.7578125,87.40234375,-2.9296875,0.0,0,0
1772214155.937056,1772214155.8745263,340.33203125,53.7109375,101.5625,67.87109375,0.0,0,0
1772214155.937109,1772214155.878422,106.93359375,-14.16015625,85.44921875,68.84765625,0.0,0,0
1772214155.937239,1772214155.8823175,-207.03125,-53.22265625,66.40625,8.30078125,0.0,0,0
1772214155.93729,1772214155.8862133,-213.8671875,-29.78515625,66.40625,-11.23046875,0.0,0,0
1772214155.93733,1772214155.890109,141.6015625,54.19921875,93.26171875,22.4609375,0.0,0,0
1772214155.9373682,1772214155.8940048,327.1484375,71.2890625,110.3515625,74.21875,0.0,0,0
1772214155.937412,1772214155.8979006,126.953125,2.9296875,102.5390625,74.21875,0.0,0,0
1772214155.937452,1772214155.9017963,-191.89453125,-48.828125,96.6796875,29.296875,0.0,0,0
1772214155.9374888,1772214155.905692,-274.4140625,-30.76171875,101.5625,5.859375,0.0,0,0
1772214155.99504,1772214155.9097412,65.4296875,59.08203125,116.2109375,24.90234375,0.0,0,0
1772214155.99512,1772214155.913637,331.54296875,81.54296875,133.30078125,75.68359375,0.0,0,0
1772214155.995148,1772214155.9175327,184.5703125,0.48828125,130.37109375,81.54296875,0.0,0,0
1772214155.9951732,1772214155.9214284,-145.01953125,-61.5234375,115.234375,38.0859375,0.0,0,0
1772214155.995201,1772214155.9253242,-276.3671875,-50.78125,104.4921875,-3.41796875,0.0,0,0
1772214155.9952252,1772214155.92922,27.83203125,27.83203125,98.6328125,16.6015625,0.0,0,0
1772214155.995286,1772214155.9331157,342.7734375,56.640625,100.09765625,76.66015625,0.0,0,0
1772214155.995323,1772214155.9370115,305.17578125,-8.7890625,87.40234375,83.0078125,0.0,0,0
1772214155.9953501,1772214155.9409072,-21.484375,-67.3828125,69.82421875,37.109375,0.0,0,0
1772214155.9953752,1772214155.944803,-212.40234375,-78.125,89.84375,1.953125,0.0,0,0
1772214155.995399,1772214155.9486988,55.6640625,-6.34765625,115.72265625,40.0390625,0.0,0,0
1772214155.995423,1772214155.9525945,343.75,87.40234375,117.1875,86.42578125,0.0,0,0
1772214156.027534,1772214155.9566247,271.484375,49.8046875,109.375,68.84765625,0.0,0,0
1772214156.027617,1772214155.9605205,-67.87109375,-34.66796875,85.44921875,8.7890625,0.0,0,0
1772214156.0276449,1772214155.9644163,-254.8828125,-35.64453125,61.5234375,-40.0390625,0.0,0,0
1772214156.02767,1772214155.9683123,-57.6171875,37.59765625,55.6640625,-55.17578125,0.0,0,0
1772214156.027694,1772214155.972208,261.23046875,93.75,69.3359375,-5.37109375,0.0,0,0
1772214156.0277178,1772214155.9761038,305.17578125,62.98828125,56.15234375,21.484375,0.0,0,0
1772214156.027775,1772214155.9799995,-4.8828125,-37.59765625,32.71484375,-26.3671875,0.0,0,0
1772214156.0278962,1772214155.9838953,-210.9375,-59.08203125,32.71484375,-70.80078125,0.0,0,0
1772214156.02797,1772214155.987791,-13.671875,40.0390625,29.296875,-79.58984375,0.0,0,0
1772214156.028012,1772214155.9916868,330.078125,129.8828125,44.43359375,-46.875,0.0,0,0
1772214156.028088,1772214155.9955826,421.38671875,106.4453125,76.171875,-14.6484375,0.0,0,0
1772214156.028146,1772214155.9994783,159.1796875,10.25390625,83.984375,-24.4140625,0.0,0,0
1772214156.101459,1772214156.0036614,-95.703125,-17.578125,80.078125,-80.56640625,0.0,0,0
1772214156.101543,1772214156.0075572,9.765625,57.12890625,94.7265625,-97.65625,0.0,0,0
1772214156.101575,1772214156.011453,376.953125,157.2265625,119.140625,-36.1328125,0.0,0,0
1772214156.1016,1772214156.015349,514.16015625,132.8125,116.69921875,21.484375,0.0,0,0
1772214156.101624,1772214156.0192447,237.3046875,37.59765625,75.1953125,-4.39453125,0.0,0,0
1772214156.101653,1772214156.0231404,-35.15625,8.7890625,39.0625,-69.82421875,0.0,0,0
1772214156.101677,1772214156.0270364,37.109375,61.03515625,50.29296875,-73.73046875,0.0,0,0
1772214156.101701,1772214156.0309322,365.72265625,150.390625,64.94140625,-18.5546875,0.0,0,0
1772214156.1017249,1772214156.034828,486.81640625,153.3203125,54.6875,40.52734375,0.0,0,0
1772214156.101748,1772214156.0387237,225.5859375,61.03515625,43.45703125,28.80859375,0.0,0,0
1772214156.101807,1772214156.0426197,-59.5703125,4.8828125,19.53125,-39.0625,0.0,0,0
1772214156.101836,1772214156.0465155,-25.390625,49.8046875,10.25390625,-31.25,0.0,0,0
1772214156.1165812,1772214156.050529,311.5234375,163.57421875,38.0859375,2.44140625,0.0,0,0
1772214156.1167328,1772214156.0544248,485.83984375,182.12890625,56.15234375,40.0390625,0.0,0,0
1772214156.1168,1772214156.0583205,299.31640625,90.8203125,53.7109375,62.01171875,0.0,0,0
1772214156.1168299,1772214156.0622165,34.66796875,17.08984375,22.94921875,5.37109375,0.0,0,0
1772214156.1168551,1772214156.0661123,-36.1328125,40.0390625,17.578125,-25.87890625,0.0,0,0
1772214156.11688,1772214156.0700083,253.90625,158.69140625,51.26953125,7.32421875,0.0,0,0
1772214156.116904,1772214156.073904,492.67578125,177.24609375,69.82421875,82.51953125,0.0,0,0
1772214156.116929,1772214156.0777998,353.02734375,68.359375,41.50390625,90.33203125,0.0,0,0
1772214156.1169531,1772214156.0816958,29.296875,-15.625,0.0,25.390625,0.0,0,0
1772214156.116977,1772214156.0855916,-88.8671875,14.6484375,-0.48828125,-6.34765625,0.0,0,0
1772214156.117104,1772214156.0894873,191.89453125,126.46484375,25.390625,28.80859375,0.0,0,0
1772214156.117132,1772214156.0933833,448.2421875,185.546875,47.8515625,99.609375,0.0,0,0
1772214156.17502,1772214156.0973809,351.07421875,115.72265625,54.6875,112.3046875,0.0,0,0
1772214156.1751308,1772214156.1012766,36.1328125,36.1328125,40.0390625,62.5,0.0,0,0
1772214156.175158,1772214156.1051726,-63.4765625,61.5234375,38.0859375,29.296875,0.0,0,0
1772214156.1751838,1772214156.1090684,206.0546875,127.44140625,53.22265625,49.8046875,0.0,0,0
1772214156.17521,1772214156.1129644,423.33984375,158.69140625,60.546875,116.2109375,0.0,0,0
1772214156.175234,1772214156.1168602,354.00390625,141.6015625,44.921875,137.20703125,0.0,0,0
1772214156.1752582,1772214156.1207561,41.015625,72.75390625,23.92578125,67.3828125,0.0,0,0
1772214156.175286,1772214156.124652,-156.25,41.50390625,17.578125,6.34765625,0.0,0,0
1772214156.175311,1772214156.1285477,54.19921875,104.4921875,35.15625,20.99609375,0.0,0,0
1772214156.175335,1772214156.1324437,325.68359375,159.1796875,65.4296875,94.7265625,0.0,0,0
1772214156.175359,1772214156.1363394,325.68359375,122.55859375,77.1484375,120.60546875,0.0,0,0
1772214156.175383,1772214156.1402354,76.66015625,55.6640625,48.828125,71.2890625,0.0,0,0
1772214156.206096,1772214156.1442237,-125.48828125,25.87890625,42.48046875,28.80859375,0.0,0,0
1772214156.2062452,1772214156.1481197,8.30078125,86.42578125,86.9140625,57.12890625,0.0,0,0
1772214156.206304,1772214156.1520154,295.41015625,159.1796875,111.328125,131.34765625,0.0,0,0
1772214156.2063591,1772214156.1559114,367.67578125,130.859375,104.98046875,162.109375,0.0,0,0
1772214156.2064111,1772214156.1598072,129.8828125,51.7578125,82.03125,107.91015625,0.0,0,0
1772214156.2064629,1772214156.1637032,-109.375,24.90234375,66.40625,43.45703125,0.0,0,0
1772214156.206513,1772214156.167599,-23.4375,65.4296875,73.2421875,69.3359375,0.0,0,0
1772214156.206563,1772214156.171495,256.34765625,97.16796875,92.7734375,145.01953125,0.0,0,0
1772214156.206613,1772214156.1753907,325.68359375,90.8203125,95.703125,185.05859375,0.0,0,0
1772214156.206671,1772214156.1792867,106.93359375,20.01953125,82.03125,148.92578125,0.0,0,0
1772214156.206731,1772214156.1831825,-109.375,-30.2734375,68.359375,69.82421875,0.0,0,0
1772214156.206828,1772214156.1870785,-64.453125,33.203125,79.58984375,60.05859375,0.0,0,0
1772214156.251025,1772214156.1910558,184.08203125,116.2109375,113.76953125,131.8359375,0.0,0,0
1772214156.2511308,1772214156.1949515,293.9453125,125.48828125,125.9765625,187.01171875,0.0,0,0
1772214156.251159,1772214156.1988475,86.9140625,65.4296875,111.81640625,164.55078125,0.0,0,0
1772214156.251185,1772214156.2027433,-128.41796875,10.25390625,93.75,95.703125,0.0,0,0
1772214156.251209,1772214156.2066393,-91.796875,66.40625,102.05078125,76.171875,0.0,0,0
1772214156.251233,1772214156.210535,151.3671875,178.22265625,133.30078125,138.671875,0.0,0,0
1772214156.2512572,1772214156.214431,307.12890625,169.921875,145.99609375,214.35546875,0.0,0,0
1772214156.251282,1772214156.2183268,192.3828125,93.26171875,136.23046875,202.1484375,0.0,0,0
1772214156.251306,1772214156.2222228,-19.53125,43.45703125,127.9296875,142.08984375,0.0,0,0
1772214156.2513301,1772214156.2261188,-50.78125,71.2890625,143.06640625,128.90625,0.0,0,0
1772214156.2513542,1772214156.2300146,185.546875,151.85546875,172.8515625,171.38671875,0.0,0,0
1772214156.2513778,1772214156.2339106,355.95703125,149.90234375,168.45703125,231.93359375,0.0,0,0
1772214156.312038,1772214156.2378767,229.4921875,68.84765625,130.859375,211.9140625,0.0,0,0
1772214156.3122308,1772214156.2417724,-28.80859375,3.90625,106.4453125,117.67578125,0.0,0,0
1772214156.312313,1772214156.2456684,-85.9375,24.90234375,91.796875,62.5,0.0,0,0
1772214156.3123698,1772214156.2495642,110.83984375,132.8125,111.81640625,116.2109375,0.0,0,0
1772214156.3124118,1772214156.2534602,272.4609375,169.921875,137.6953125,211.9140625,0.0,0,0
1772214156.31245,1772214156.2573562,199.21875,109.375,111.81640625,214.84375,0.0,0,0
1772214156.3124878,1772214156.261252,-13.18359375,39.55078125,96.6796875,142.08984375,0.0,0,0
1772214156.312526,1772214156.265148,-82.03125,37.109375,119.140625,99.609375,0.0,0,0
1772214156.312564,1772214156.2690437,77.63671875,114.74609375,159.66796875,138.18359375,0.0,0,0
1772214156.312602,1772214156.2729397,266.6015625,174.8046875,167.96875,213.37890625,0.0,0,0
1772214156.312639,1772214156.2768357,251.46484375,133.30078125,156.73828125,236.81640625,0.0,0,0
1772214156.3126762,1772214156.2807314,23.92578125,27.34375,143.5546875,175.29296875,0.0,0,0
1772214156.4007812,1772214156.2847724,-87.40234375,-2.44140625,118.1640625,108.88671875,0.0,0,0
1772214156.4008908,1772214156.2886684,62.5,62.5,121.58203125,142.578125,0.0,0,0
1772214156.400924,1772214156.2925642,238.28125,158.69140625,161.62109375,224.609375,0.0,0,0
1772214156.4009569,1772214156.2964602,258.30078125,140.13671875,151.3671875,226.07421875,0.0,0,0
1772214156.40099,1772214156.3003561,99.12109375,21.484375,119.140625,154.296875,0.0,0,0
1772214156.401021,1772214156.304252,-58.59375,16.11328125,112.3046875,104.98046875,0.0,0,0
1772214156.4010508,1772214156.308148,20.99609375,78.125,133.30078125,158.69140625,0.0,0,0
1772214156.4010801,1772214156.312044,233.88671875,94.23828125,148.92578125,254.8828125,0.0,0,0
1772214156.401109,1772214156.31594,278.3203125,87.40234375,133.7890625,260.7421875,0.0,0,0
1772214156.4011378,1772214156.3198357,139.16015625,30.2734375,112.79296875,181.15234375,0.0,0,0
1772214156.4011672,1772214156.3237317,-251.46484375,13.18359375,89.84375,111.328125,0.0,0,0
1772214156.401195,1772214156.3276277,-661.1328125,82.51953125,76.66015625,124.51171875,0.0,0,0
1772214156.4027,1772214156.3316662,-659.66796875,140.13671875,80.078125,224.12109375,0.0,0,0
1772214156.402803,1772214156.3355622,-594.7265625,137.6953125,75.1953125,288.57421875,0.0,0,0
1772214156.4028401,1772214156.3394582,-711.9140625,83.49609375,49.8046875,227.05078125,0.0,0,0
1772214156.402872,1772214156.343354,-870.1171875,41.9921875,57.12890625,137.20703125,0.0,0,0
1772214156.4029021,1772214156.34725,-845.21484375,79.1015625,95.703125,148.4375,0.0,0,0
1772214156.402932,1772214156.351146,-619.140625,144.53125,122.55859375,235.3515625,0.0,0,0
1772214156.4029608,1772214156.355042,-508.30078125,159.1796875,115.234375,279.78515625,0.0,0,0
1772214156.403018,1772214156.3589377,-591.796875,92.7734375,81.0546875,216.30859375,0.0,0,0
1772214156.4030669,1772214156.3628337,-722.65625,0.48828125,56.15234375,126.46484375,0.0,0,0
1772214156.4031,1772214156.3667297,-720.21484375,59.5703125,53.7109375,123.046875,0.0,0,0
1772214156.40313,1772214156.3706257,-518.5546875,154.78515625,69.3359375,217.28515625,0.0,0,0
1772214156.4031591,1772214156.3745217,-385.25390625,154.78515625,82.51953125,286.62109375,0.0,0,0
1772214156.447392,1772214156.3785417,-458.49609375,76.66015625,66.89453125,251.46484375,0.0,0,0
1772214156.447568,1772214156.3824377,-600.09765625,-4.8828125,54.19921875,183.59375,0.0,0,0
1772214156.447619,1772214156.3863337,-603.02734375,31.25,52.24609375,180.6640625,0.0,0,0
1772214156.447668,1772214156.3902297,-403.3203125,102.5390625,69.3359375,255.859375,0.0,0,0
1772214156.447711,1772214156.3941257,-254.8828125,128.90625,88.8671875,323.2421875,0.0,0,0
1772214156.4477491,1772214156.3980215,-317.3828125,50.78125,75.1953125,290.0390625,0.0,0,0
1772214156.447786,1772214156.4019175,-429.6875,-49.8046875,60.546875,210.9375,0.0,0,0
1772214156.4478238,1772214156.4058135,-409.66796875,-12.6953125,52.24609375,195.80078125,0.0,0,0
1772214156.447861,1772214156.4097095,-200.68359375,109.375,44.43359375,271.97265625,0.0,0,0
1772214156.4478981,1772214156.4136055,-31.73828125,137.6953125,53.22265625,353.515625,0.0,0,0
1772214156.447936,1772214156.4175014,-70.80078125,51.7578125,59.08203125,336.9140625,0.0,0,0
1772214156.447973,1772214156.4213974,-200.68359375,-14.6484375,44.921875,249.51171875,0.0,0,0
1772214156.491901,1772214156.4254055,-247.0703125,0.9765625,35.15625,199.70703125,0.0,0,0
1772214156.492042,1772214156.4293015,-81.54296875,72.75390625,54.19921875,250.9765625,0.0,0,0
1772214156.4920871,1772214156.4331975,87.890625,101.07421875,79.58984375,342.7734375,0.0,0,0
1772214156.4922931,1772214156.4370935,64.94140625,25.390625,71.2890625,355.46875,0.0,0,0
1772214156.492336,1772214156.4409895,-65.91796875,-53.7109375,48.828125,259.27734375,0.0,0,0
1772214156.4923751,1772214156.4448855,-127.9296875,-49.8046875,29.296875,180.6640625,0.0,0,0
1772214156.492413,1772214156.4487815,-20.99609375,61.03515625,42.96875,223.6328125,0.0,0,0
1772214156.49245,1772214156.4526775,107.421875,129.8828125,57.12890625,306.15234375,0.0,0,0
1772214156.492487,1772214156.4565732,87.40234375,68.359375,54.19921875,309.5703125,0.0,0,0
1772214156.492523,1772214156.4604692,-87.40234375,-5.859375,52.734375,220.703125,0.0,0,0
1772214156.4925592,1772214156.4643652,-185.546875,-3.41796875,43.45703125,158.203125,0.0,0,0
1772214156.492595,1772214156.4682612,-66.40625,69.82421875,60.546875,196.2890625,0.0,0,0
1772214156.5369349,1772214156.4722588,90.8203125,109.86328125,82.51953125,272.4609375,0.0,0,0
1772214156.5370739,1772214156.4761548,113.28125,82.03125,66.40625,291.9921875,0.0,0,0
1772214156.5371158,1772214156.4800508,-32.2265625,15.625,30.2734375,221.6796875,0.0,0,0
1772214156.537164,1772214156.4839468,-146.97265625,-1.46484375,21.97265625,136.71875,0.0,0,0
1772214156.537202,1772214156.4878428,-73.73046875,81.0546875,61.5234375,147.4609375,0.0,0,0
1772214156.53724,1772214156.4917388,66.40625,162.109375,93.75,238.28125,0.0,0,0
1772214156.537277,1772214156.4956348,112.3046875,130.859375,91.30859375,288.0859375,0.0,0,0
1772214156.5373151,1772214156.4995308,23.4375,38.0859375,61.5234375,229.98046875,0.0,0,0
1772214156.537354,1772214156.5034268,-91.30859375,-2.9296875,46.875,141.11328125,0.0,0,0
1772214156.53739,1772214156.5073228,-71.77734375,61.5234375,62.98828125,136.71875,0.0,0,0
1772214156.537437,1772214156.5112188,103.02734375,153.80859375,84.47265625,228.02734375,0.0,0,0
1772214156.537476,1772214156.5151148,183.10546875,122.55859375,88.37890625,298.828125,0.0,0,0
1772214156.5818748,1772214156.5191023,93.75,-4.8828125,86.9140625,245.60546875,0.0,0,0
1772214156.582016,1772214156.5229983,-0.9765625,-63.96484375,84.9609375,166.9921875,0.0,0,0
1772214156.582059,1772214156.5268943,7.8125,-0.48828125,116.2109375,179.6875,0.0,0,0
1772214156.582099,1772214156.5307903,89.35546875,69.3359375,144.53125,251.46484375,0.0,0,0
1772214156.58215,1772214156.5346863,144.53125,46.875,145.99609375,292.96875,0.0,0,0
1772214156.582187,1772214156.5385823,77.1484375,-3.90625,131.8359375,247.55859375,0.0,0,0
1772214156.5822248,1772214156.5424783,-34.1796875,-36.1328125,103.02734375,163.57421875,0.0,0,0
1772214156.582273,1772214156.5463743,-32.71484375,-15.13671875,108.3984375,150.390625,0.0,0,0
1772214156.582319,1772214156.5502703,89.84375,76.171875,133.7890625,232.421875,0.0,0,0
1772214156.5823748,1772214156.5541663,169.921875,100.5859375,130.37109375,296.38671875,0.0,0,0
1772214156.582413,1772214156.5580623,92.7734375,20.5078125,110.3515625,277.83203125,0.0,0,0
1772214156.58245,1772214156.5619583,-25.390625,-47.36328125,90.33203125,195.80078125,0.0,0,0
1772214156.626602,1772214156.565936,-35.15625,-6.8359375,89.84375,153.80859375,0.0,0,0
1772214156.6267352,1772214156.569832,88.8671875,115.72265625,115.72265625,223.14453125,0.0,0,0
1772214156.6267781,1772214156.573728,192.3828125,139.6484375,112.79296875,288.0859375,0.0,0,0
1772214156.626817,1772214156.577624,159.66796875,52.24609375,85.9375,268.06640625,0.0,0,0
1772214156.626854,1772214156.5815203,31.73828125,-10.7421875,83.49609375,202.1484375,0.0,0,0
1772214156.626892,1772214156.5854163,-24.4140625,29.78515625,98.6328125,161.62109375,0.0,0,0
1772214156.6269288,1772214156.5893123,92.7734375,146.97265625,118.1640625,214.35546875,0.0,0,0
1772214156.626966,1772214156.5932083,211.9140625,205.078125,113.76953125,269.53125,0.0,0,0
1772214156.627004,1772214156.5971043,172.8515625,155.2734375,95.703125,251.953125,0.0,0,0
1772214156.62704,1772214156.6010003,46.875,83.49609375,81.0546875,178.7109375,0.0,0,0
1772214156.627077,1772214156.6048963,-21.97265625,62.98828125,68.359375,125.48828125,0.0,0,0
1772214156.627114,1772214156.6087923,74.70703125,126.953125,83.0078125,175.78125,0.0,0,0
1772214156.701631,1772214156.6129193,214.35546875,166.50390625,94.7265625,254.39453125,0.0,0,0
1772214156.701758,1772214156.6168156,201.171875,112.3046875,81.54296875,255.859375,0.0,0,0
1772214156.701802,1772214156.6207116,61.03515625,27.83203125,64.94140625,186.5234375,0.0,0,0
1772214156.7018409,1772214156.6246076,-41.9921875,1.953125,68.84765625,128.90625,0.0,0,0
1772214156.70188,1772214156.6285036,33.69140625,76.171875,85.44921875,150.87890625,0.0,0,0
1772214156.701918,1772214156.6323998,182.12890625,136.23046875,101.5625,232.91015625,0.0,0,0
1772214156.701963,1772214156.6362958,192.3828125,109.86328125,99.12109375,265.625,0.0,0,0
1772214156.7020109,1772214156.6401918,46.875,49.31640625,76.171875,198.73046875,0.0,0,0
1772214156.702212,1772214156.6440878,-45.41015625,49.8046875,73.73046875,119.140625,0.0,0,0
1772214156.702274,1772214156.647984,53.7109375,114.74609375,83.984375,136.23046875,0.0,0,0
1772214156.7023191,1772214156.65188,205.078125,163.57421875,96.19140625,227.05078125,0.0,0,0
1772214156.702359,1772214156.655776,223.14453125,149.90234375,95.21484375,272.94921875,0.0,0,0
1772214156.731532,1772214156.659813,108.88671875,91.30859375,70.3125,211.42578125,0.0,0,0
1772214156.7316391,1772214156.663709,5.859375,73.2421875,67.3828125,124.0234375,0.0,0,0
1772214156.731667,1772214156.6676052,52.734375,115.72265625,96.19140625,131.34765625,0.0,0,0
1772214156.731693,1772214156.6715012,172.36328125,148.4375,120.60546875,211.9140625,0.0,0,0
1772214156.731717,1772214156.6753972,190.4296875,145.01953125,120.60546875,251.46484375,0.0,0,0
1772214156.731742,1772214156.6792934,97.16796875,96.19140625,104.98046875,187.5,0.0,0,0
1772214156.731766,1772214156.6831894,-22.94921875,17.08984375,92.28515625,92.7734375,0.0,0,0
1772214156.73179,1772214156.6870854,-10.25390625,48.33984375,100.5859375,90.33203125,0.0,0,0
1772214156.7318149,1772214156.6909816,144.53125,131.34765625,117.1875,181.640625,0.0,0,0
1772214156.731839,1772214156.6948776,214.84375,115.72265625,115.234375,233.3984375,0.0,0,0
1772214156.731862,1772214156.6987739,117.67578125,57.6171875,94.7265625,178.22265625,0.0,0,0
1772214156.7318861,1772214156.7026699,-20.01953125,12.6953125,80.078125,76.171875,0.0,0,0
1772214156.7772648,1772214156.7066967,-35.15625,41.9921875,83.984375,52.24609375,0.0,0,0
1772214156.777461,1772214156.710593,146.484375,125.0,105.46875,145.99609375,0.0,0,0
1772214156.777519,1772214156.714489,289.0625,133.30078125,112.79296875,224.12109375,0.0,0,0
1772214156.7775612,1772214156.7183852,191.89453125,52.734375,97.16796875,182.6171875,0.0,0,0
1772214156.7776,1772214156.7222812,29.296875,26.85546875,78.61328125,94.7265625,0.0,0,0
1772214156.777638,1772214156.7261772,3.90625,78.125,77.1484375,74.21875,0.0,0,0
1772214156.777694,1772214156.7300735,136.71875,141.11328125,98.6328125,136.71875,0.0,0,0
1772214156.7777312,1772214156.7339694,213.37890625,140.13671875,93.26171875,206.54296875,0.0,0,0
1772214156.7778041,1772214156.7378657,117.67578125,55.17578125,67.87109375,191.40625,0.0,0,0
1772214156.777847,1772214156.7417617,-32.2265625,10.7421875,52.24609375,108.3984375,0.0,0,0
1772214156.777885,1772214156.745658,-50.78125,53.22265625,48.828125,56.15234375,0.0,0,0
1772214156.777921,1772214156.749554,92.28515625,123.046875,91.30859375,123.046875,0.0,0,0
1772214156.82194,1772214156.7535703,205.078125,124.51171875,120.60546875,229.00390625,0.0,0,0
1772214156.822075,1772214156.7574663,120.1171875,57.6171875,103.02734375,201.171875,0.0,0,0
1772214156.822119,1772214156.7613626,-39.55078125,4.8828125,83.984375,98.6328125,0.0,0,0
1772214156.8221598,1772214156.7652588,-83.0078125,-11.23046875,81.0546875,62.98828125,0.0,0,0
1772214156.822199,1772214156.7691548,37.109375,94.7265625,110.3515625,121.58203125,0.0,0,0
1772214156.822237,1772214156.773051,181.15234375,162.109375,132.8125,197.265625,0.0,0,0
1772214156.822274,1772214156.776947,157.71484375,96.19140625,112.79296875,189.94140625,0.0,0,0
1772214156.822311,1772214156.7808433,2.44140625,21.97265625,96.19140625,102.05078125,0.0,0,0
1772214156.822357,1772214156.7847393,-59.5703125,-2.44140625,102.5390625,39.0625,0.0,0,0
1772214156.822499,1772214156.7886355,69.3359375,109.86328125,128.90625,71.77734375,0.0,0,0
1772214156.82254,1772214156.7925315,221.6796875,178.22265625,145.5078125,152.34375,0.0,0,0
1772214156.822578,1772214156.7964277,242.67578125,145.01953125,139.6484375,176.26953125,0.0,0,0
1772214156.867481,1772214156.8004336,138.18359375,65.91796875,118.65234375,114.2578125,0.0,0,0
1772214156.867618,1772214156.8043299,41.50390625,48.828125,93.75,45.41015625,0.0,0,0
1772214156.867677,1772214156.8082259,130.859375,140.625,97.16796875,73.73046875,0.0,0,0
1772214156.8677309,1772214156.812122,275.390625,178.22265625,120.1171875,166.015625,0.0,0,0
1772214156.867784,1772214156.816018,278.80859375,116.69921875,124.0234375,195.80078125,0.0,0,0
1772214156.867903,1772214156.8199143,147.94921875,24.4140625,97.65625,130.37109375,0.0,0,0
1772214156.868002,1772214156.8238103,28.80859375,33.69140625,78.125,47.8515625,0.0,0,0
1772214156.868065,1772214156.8277066,94.7265625,142.08984375,91.30859375,49.8046875,0.0,0,0
1772214156.8681211,1772214156.8316028,257.8125,187.5,115.72265625,124.51171875,0.0,0,0
1772214156.8681731,1772214156.8354988,295.41015625,135.7421875,114.74609375,169.43359375,0.0,0,0
1772214156.8682702,1772214156.839395,154.78515625,55.6640625,83.984375,124.0234375,0.0,0,0
1772214156.868612,1772214156.843291,0.0,10.7421875,64.453125,36.62109375,0.0,0,0
1772214156.911707,1772214156.8472865,21.97265625,62.98828125,86.42578125,28.3203125,0.0,0,0
1772214156.911828,1772214156.8511827,199.21875,157.71484375,130.859375,110.83984375,0.0,0,0
1772214156.911873,1772214156.855079,260.7421875,160.64453125,146.484375,160.15625,0.0,0,0
1772214156.911911,1772214156.858975,113.76953125,99.12109375,121.09375,100.09765625,0.0,0,0
1772214156.91195,1772214156.8628712,-11.71875,58.59375,104.00390625,8.30078125,0.0,0,0
1772214156.9119868,1772214156.8667674,31.73828125,105.46875,126.953125,3.41796875,0.0,0,0
1772214156.912025,1772214156.8706634,231.4453125,155.2734375,166.50390625,83.0078125,0.0,0,0
1772214156.912062,1772214156.8745596,351.5625,113.28125,164.0625,146.97265625,0.0,0,0
1772214156.912098,1772214156.8784556,250.48828125,43.45703125,132.32421875,102.5390625,0.0,0,0
1772214156.912135,1772214156.8823519,69.3359375,-3.90625,94.7265625,-5.859375,0.0,0,0
1772214156.912172,1772214156.886248,37.59765625,17.08984375,82.51953125,-24.90234375,0.0,0,0
1772214156.9122088,1772214156.890144,205.078125,82.51953125,108.88671875,42.96875,0.0,0,0
1772214156.956592,1772214156.8941293,327.1484375,118.1640625,135.7421875,107.421875,0.0,0,0
1772214156.9567082,1772214156.8980255,240.72265625,64.453125,132.8125,101.07421875,0.0,0,0
1772214156.9567418,1772214156.9019215,83.49609375,-11.71875,117.1875,26.3671875,0.0,0,0
1772214156.956772,1772214156.9058177,21.97265625,2.44140625,122.55859375,-16.6015625,0.0,0,0
1772214156.9568021,1772214156.909714,216.30859375,72.75390625,149.4140625,49.8046875,0.0,0,0
1772214156.956832,1772214156.9136102,760.7421875,102.5390625,159.66796875,134.27734375,0.0,0,0
1772214156.956861,1772214156.9175062,997.55859375,48.33984375,152.83203125,124.0234375,0.0,0,0
1772214156.9568908,1772214156.9214025,947.265625,-22.94921875,135.7421875,26.3671875,0.0,0,0
1772214156.9569201,1772214156.9252987,968.26171875,-16.11328125,118.65234375,-25.87890625,0.0,0,0
1772214156.956981,1772214156.9291947,967.7734375,62.01171875,120.60546875,24.4140625,0.0,0,0
1772214156.957031,1772214156.933091,967.28515625,96.19140625,124.0234375,85.9375,0.0,0,0
1772214156.9570649,1772214156.9369872,967.28515625,65.4296875,113.28125,74.21875,0.0,0,0
1772214157.002073,1772214156.9409637,967.28515625,-1.46484375,85.44921875,-12.6953125,0.0,0,0
1772214157.002191,1772214156.94486,967.28515625,-35.15625,78.125,-81.0546875,0.0,0,0
1772214157.0022268,1772214156.948756,967.28515625,51.26953125,114.2578125,-38.0859375,0.0,0,0
1772214157.0022578,1772214156.9526522,967.28515625,117.1875,134.765625,49.8046875,0.0,0,0
1772214157.002288,1772214156.9565485,967.28515625,65.91796875,115.72265625,58.10546875,0.0,0,0
1772214157.0023181,1772214156.9604445,967.28515625,-8.7890625,95.703125,-14.6484375,0.0,0,0
1772214157.002348,1772214156.9643407,967.28515625,-41.9921875,86.9140625,-77.63671875,0.0,0,0
1772214157.002379,1772214156.968237,967.28515625,38.57421875,102.05078125,-50.29296875,0.0,0,0
1772214157.002408,1772214156.9721332,967.28515625,119.140625,126.953125,31.25,0.0,0,0
1772214157.0024362,1772214156.9760292,967.28515625,82.51953125,136.71875,52.24609375,0.0,0,0
1772214157.002465,1772214156.9799254,967.28515625,19.53125,134.765625,-13.671875,0.0,0,0
1772214157.002493,1772214156.9838216,967.28515625,12.20703125,125.9765625,-85.9375,0.0,0,0
1772214157.0621629,1772214156.9877877,967.7734375,64.94140625,136.23046875,-41.9921875,0.0,0,0
1772214157.062328,1772214156.991684,960.44921875,122.55859375,153.3203125,91.796875,0.0,0,0
1772214157.06239,1772214156.9955802,978.02734375,115.72265625,141.6015625,139.16015625,0.0,0,0
1772214157.062446,1772214156.9994764,915.52734375,23.92578125,119.140625,83.49609375,0.0,0,0
1772214157.062498,1772214157.0033724,757.32421875,-18.5546875,104.4921875,12.6953125,0.0,0,0
1772214157.062561,1772214157.0072687,745.60546875,64.453125,110.3515625,13.18359375,0.0,0,0
1772214157.062618,1772214157.011165,863.76953125,131.34765625,140.13671875,99.12109375,0.0,0,0
1772214157.062668,1772214157.0150611,892.08984375,105.95703125,148.92578125,132.8125,0.0,0,0
1772214157.062728,1772214157.0189574,752.44140625,24.90234375,129.8828125,63.96484375,0.0,0,0
1772214157.062794,1772214157.0228534,581.0546875,-12.6953125,124.0234375,-7.8125,0.0,0,0
1772214157.0628638,1772214157.0267496,535.15625,33.203125,125.9765625,-19.04296875,0.0,0,0
1772214157.0629141,1772214157.0306458,656.73828125,105.46875,135.7421875,49.8046875,0.0,0,0
1772214157.106634,1772214157.0346825,708.0078125,105.95703125,142.08984375,107.91015625,0.0,0,0
1772214157.1067781,1772214157.0385787,594.7265625,24.90234375,119.140625,68.359375,0.0,0,0
1772214157.1068218,1772214157.042475,452.63671875,-21.97265625,96.6796875,-13.671875,0.0,0,0
1772214157.106863,1772214157.0463712,428.22265625,18.5546875,102.05078125,-25.87890625,0.0,0,0
1772214157.1069021,1772214157.0502672,584.9609375,117.1875,125.48828125,53.7109375,0.0,0,0
1772214157.106946,1772214157.0541635,694.3359375,150.87890625,126.46484375,124.51171875,0.0,0,0
1772214157.106984,1772214157.0580597,590.33203125,59.08203125,93.75,105.95703125,0.0,0,0
1772214157.107025,1772214157.061956,386.23046875,13.18359375,69.3359375,23.92578125,0.0,0,0
1772214157.1070561,1772214157.0658522,305.6640625,65.4296875,63.4765625,-7.32421875,0.0,0,0
1772214157.107085,1772214157.0697484,435.05859375,163.0859375,76.171875,62.5,0.0,0,0
1772214157.107115,1772214157.0736446,540.0390625,171.38671875,80.078125,143.06640625,0.0,0,0
1772214157.1071439,1772214157.0775409,448.73046875,64.94140625,67.3828125,135.7421875,0.0,0,0
1772214157.1518872,1772214157.0815663,280.2734375,12.6953125,55.17578125,61.03515625,0.0,0,0
1772214157.152019,1772214157.0854626,217.28515625,36.62109375,61.5234375,23.92578125,0.0,0,0
1772214157.152064,1772214157.0893588,354.98046875,109.375,84.47265625,82.51953125,0.0,0,0
1772214157.1521049,1772214157.093255,504.39453125,137.6953125,92.7734375,165.0390625,0.0,0,0
1772214157.152158,1772214157.0971513,469.23828125,73.73046875,74.21875,159.66796875,0.0,0,0
1772214157.1521971,1772214157.1010475,291.50390625,-6.34765625,40.52734375,67.3828125,0.0,0,0
1772214157.152236,1772214157.1049438,219.7265625,2.44140625,49.8046875,17.08984375,0.0,0,0
1772214157.152273,1772214157.10884,340.8203125,64.94140625,90.8203125,89.84375,0.0,0,0
1772214157.152321,1772214157.1127362,473.14453125,124.51171875,102.5390625,185.546875,0.0,0,0
1772214157.152359,1772214157.1166325,458.984375,97.65625,95.21484375,196.77734375,0.0,0,0
1772214157.152405,1772214157.1205287,309.08203125,-20.5078125,78.61328125,119.62890625,0.0,0,0
1772214157.1524532,1772214157.124425,232.91015625,-24.4140625,65.91796875,58.10546875,0.0,0,0
1772214157.196526,1772214157.1284406,323.2421875,55.6640625,76.66015625,104.98046875,0.0,0,0
1772214157.196646,1772214157.1323369,457.03125,87.40234375,96.19140625,200.1953125,0.0,0,0
1772214157.1968231,1772214157.136233,433.59375,68.84765625,91.30859375,213.37890625,0.0,0,0
1772214157.196866,1772214157.1401293,244.62890625,-11.23046875,74.21875,145.99609375,0.0,0,0
1772214157.196905,1772214157.1440256,135.7421875,-18.06640625,78.125,79.58984375,0.0,0,0
1772214157.196942,1772214157.1479218,231.4453125,82.51953125,103.02734375,100.09765625,0.0,0,0
1772214157.196981,1772214157.151818,375.9765625,104.4921875,121.09375,184.5703125,0.0,0,0
1772214157.1970172,1772214157.1557143,391.6015625,94.23828125,119.140625,218.26171875,0.0,0,0
1772214157.1970549,1772214157.1596105,216.30859375,33.203125,102.05078125,154.78515625,0.0,0,0
1772214157.197091,1772214157.1635067,60.05859375,-7.8125,97.16796875,83.0078125,0.0,0,0
1772214157.1971269,1772214157.167403,128.41796875,57.6171875,115.234375,100.09765625,0.0,0,0
1772214157.197165,1772214157.1712992,302.734375,116.2109375,131.8359375,186.03515625,0.0,0,0
1772214157.242513,1772214157.1753042,324.70703125,102.05078125,121.09375,225.5859375,0.0,0,0
1772214157.242636,1772214157.1792004,201.66015625,7.32421875,85.44921875,167.48046875,0.0,0,0
1772214157.24267,1772214157.1830966,74.70703125,-44.921875,74.21875,73.2421875,0.0,0,0
1772214157.2427,1772214157.186993,78.61328125,0.9765625,89.84375,61.03515625,0.0,0,0
1772214157.242731,1772214157.1908891,271.97265625,86.9140625,109.375,138.671875,0.0,0,0
1772214157.242759,1772214157.1947854,382.8125,111.328125,105.95703125,185.05859375,0.0,0,0
1772214157.242788,1772214157.1986816,268.06640625,34.1796875,75.1953125,147.94921875,0.0,0,0
1772214157.242817,1772214157.2025778,82.03125,-35.15625,46.38671875,77.1484375,0.0,0,0
1772214157.242846,1772214157.206474,76.171875,11.23046875,51.26953125,71.2890625,0.0,0,0
1772214157.2428749,1772214157.2103705,255.859375,124.0234375,61.03515625,141.6015625,0.0,0,0
1772214157.242904,1772214157.2142668,360.83984375,151.85546875,67.3828125,193.84765625,0.0,0,0
1772214157.242933,1772214157.218163,274.90234375,73.2421875,71.77734375,176.26953125,0.0,0,0
1772214157.302158,1772214157.2222352,122.0703125,17.08984375,59.08203125,97.16796875,0.0,0,0
1772214157.302262,1772214157.2261314,101.5625,31.25,58.59375,58.59375,0.0,0,0
1772214157.3022878,1772214157.2300277,264.16015625,131.8359375,74.21875,121.58203125,0.0,0,0
1772214157.302314,1772214157.2339242,395.5078125,157.71484375,76.66015625,187.98828125,0.0,0,0
1772214157.3023381,1772214157.2378204,325.1953125,53.22265625,52.24609375,158.69140625,0.0,0,0
1772214157.302363,1772214157.2417166,173.33984375,20.99609375,34.1796875,62.01171875,0.0,0,0
1772214157.302387,1772214157.2456129,109.86328125,55.6640625,45.41015625,18.5546875,0.0,0,0
1772214157.302411,1772214157.2495093,194.3359375,114.2578125,62.98828125,75.68359375,0.0,0,0
1772214157.3024352,1772214157.2534056,303.7109375,136.71875,71.77734375,145.01953125,0.0,0,0
1772214157.3024588,1772214157.2573018,265.13671875,80.56640625,70.80078125,141.11328125,0.0,0,0
1772214157.3024828,1772214157.261198,94.23828125,29.78515625,62.01171875,60.05859375,0.0,0,0
1772214157.302507,1772214157.2650943,-1.46484375,37.109375,74.21875,3.90625,0.0,0,0
1772214157.3314931,1772214157.2690802,130.859375,93.75,113.76953125,61.03515625,0.0,0,0
1772214157.3316329,1772214157.2729766,280.2734375,120.1171875,130.37109375,144.53125,0.0,0,0
1772214157.331676,1772214157.2768729,259.27734375,71.2890625,116.2109375,151.3671875,0.0,0,0
1772214157.331715,1772214157.280769,100.09765625,18.5546875,99.609375,70.80078125,0.0,0,0
1772214157.3317518,1772214157.2846653,6.8359375,73.2421875,91.796875,9.765625,0.0,0,0
1772214157.33179,1772214157.2885618,150.390625,190.91796875,109.375,60.05859375,0.0,0,0
1772214157.331827,1772214157.292458,298.828125,211.9140625,127.9296875,147.4609375,0.0,0,0
1772214157.3318772,1772214157.2963543,255.37109375,142.578125,107.421875,152.34375,0.0,0,0
1772214157.331914,1772214157.3002505,154.78515625,63.96484375,66.40625,67.87109375,0.0,0,0
1772214157.331965,1772214157.304147,75.68359375,65.91796875,48.33984375,-0.9765625,0.0,0,0
1772214157.332024,1772214157.3080432,47.8515625,131.8359375,64.453125,28.80859375,0.0,0,0
1772214157.3320699,1772214157.3119395,82.51953125,152.34375,79.58984375,117.1875,0.0,0,0
1772214157.376705,1772214157.3159158,132.8125,130.859375,70.80078125,117.67578125,0.0,0,0
1772214157.376847,1772214157.319812,96.6796875,61.5234375,51.7578125,28.3203125,0.0,0,0
1772214157.376887,1772214157.3237083,-39.55078125,11.23046875,40.52734375,-58.10546875,0.0,0,0
1772214157.376927,1772214157.3276048,-23.4375,57.6171875,58.10546875,-60.05859375,0.0,0,0
1772214157.376964,1772214157.331501,153.3203125,130.37109375,81.0546875,26.3671875,0.0,0,0
1772214157.3770082,1772214157.3353972,250.0,142.08984375,70.80078125,73.2421875,0.0,0,0
1772214157.377054,1772214157.3392937,146.484375,43.45703125,51.7578125,21.484375,0.0,0,0
1772214157.3770912,1772214157.34319,1.46484375,-8.7890625,49.8046875,-62.01171875,0.0,0,0
1772214157.377128,1772214157.3470862,17.08984375,77.1484375,56.640625,-70.80078125,0.0,0,0
1772214157.377183,1772214157.3509827,174.8046875,141.11328125,60.546875,7.8125,0.0,0,0
1772214157.377228,1772214157.354879,255.859375,118.65234375,62.01171875,59.08203125,0.0,0,0
1772214157.377285,1772214157.3587751,175.29296875,43.45703125,50.29296875,19.53125,0.0,0,0
1772214157.436408,1772214157.3627396,31.25,1.46484375,28.80859375,-62.98828125,0.0,0,0
1772214157.4365408,1772214157.3666358,1.46484375,50.29296875,30.2734375,-75.68359375,0.0,0,0
1772214157.436598,1772214157.370532,186.5234375,119.140625,61.5234375,9.27734375,0.0,0,0
1772214157.43665,1772214157.3744285,367.1875,104.00390625,71.2890625,80.56640625,0.0,0,0
1772214157.436702,1772214157.3783247,315.4296875,25.390625,51.26953125,34.66796875,0.0,0,0
1772214157.4367518,1772214157.3822212,146.97265625,-16.11328125,39.55078125,-57.6171875,0.0,0,0
1772214157.436811,1772214157.3861175,87.890625,14.6484375,52.24609375,-79.1015625,0.0,0,0
1772214157.436861,1772214157.3900137,237.79296875,100.5859375,77.63671875,-14.16015625,0.0,0,0
1772214157.436912,1772214157.3939102,388.18359375,140.13671875,97.16796875,52.24609375,0.0,0,0
1772214157.436963,1772214157.3978064,349.12109375,83.49609375,94.7265625,31.73828125,0.0,0,0
1772214157.437032,1772214157.4017026,184.08203125,30.76171875,73.2421875,-42.48046875,0.0,0,0
1772214157.437097,1772214157.405599,99.12109375,45.8984375,67.87109375,-68.359375,0.0,0,0
1772214157.482212,1772214157.4096334,263.671875,98.6328125,79.58984375,-3.41796875,0.0,0,0
1772214157.482375,1772214157.4135296,487.79296875,106.4453125,85.9375,62.01171875,0.0,0,0
1772214157.4824371,1772214157.417426,660.15625,76.171875,75.1953125,36.1328125,0.0,0,0
1772214157.4824781,1772214157.4213223,763.671875,13.671875,42.96875,-53.7109375,0.0,0,0
1772214157.482516,1772214157.4252188,850.09765625,-0.48828125,44.43359375,-88.37890625,0.0,0,0
1772214157.4825752,1772214157.429115,965.33203125,81.0546875,71.2890625,-20.99609375,0.0,0,0
1772214157.482613,1772214157.4330113,967.7734375,116.2109375,72.265625,29.296875,0.0,0,0
1772214157.482656,1772214157.4369078,964.35546875,72.265625,59.08203125,6.34765625,0.0,0,0
1772214157.4826932,1772214157.440804,967.7734375,19.04296875,41.9921875,-56.640625,0.0,0,0
1772214157.4827552,1772214157.4447005,967.28515625,26.85546875,32.2265625,-108.88671875,0.0,0,0
1772214157.48281,1772214157.4485967,967.7734375,81.54296875,58.10546875,-63.4765625,0.0,0,0
1772214157.482847,1772214157.4524932,962.40234375,106.4453125,86.9140625,30.2734375,0.0,0,0
1772214157.526038,1772214157.4565158,973.6328125,70.80078125,90.33203125,46.875,0.0,0,0
1772214157.526135,1772214157.460412,937.98828125,18.5546875,77.63671875,-33.69140625,0.0,0,0
1772214157.526162,1772214157.4643085,816.89453125,25.87890625,63.96484375,-89.84375,0.0,0,0
1772214157.526186,1772214157.4682047,808.59375,78.61328125,69.3359375,-41.50390625,0.0,0,0
1772214157.52621,1772214157.4721012,909.1796875,107.421875,85.44921875,37.109375,0.0,0,0
1772214157.5262341,1772214157.4759977,915.52734375,70.3125,75.68359375,45.8984375,0.0,0,0
1772214157.526258,1772214157.479894,760.25390625,-10.7421875,45.41015625,-18.06640625,0.0,0,0
1772214157.5263848,1772214157.4837904,583.0078125,-37.59765625,39.55078125,-82.03125,0.0,0,0
1772214157.526411,1772214157.4876866,582.03125,14.6484375,69.3359375,-65.4296875,0.0,0,0
1772214157.5264351,1772214157.491583,688.4765625,66.89453125,98.6328125,16.11328125,0.0,0,0
1772214157.526459,1772214157.4954793,678.7109375,64.94140625,89.35546875,46.38671875,0.0,0,0
1772214157.526483,1772214157.4993758,517.578125,-4.39453125,58.10546875,-15.625,0.0,0,0
1772214157.6021261,1772214157.5035453,364.74609375,-41.9921875,56.640625,-88.37890625,0.0,0,0
1772214157.6022851,1772214157.5074415,366.2109375,15.13671875,82.03125,-85.9375,0.0,0,0
1772214157.602342,1772214157.511338,499.0234375,86.42578125,103.515625,-12.20703125,0.0,0,0
1772214157.6023948,1772214157.5152345,580.078125,79.1015625,106.93359375,31.25,0.0,0,0
1772214157.602448,1772214157.5191307,526.3671875,47.8515625,98.6328125,-14.6484375,0.0,0,0
1772214157.602499,1772214157.5230272,427.24609375,68.359375,89.35546875,-97.65625,0.0,0,0
1772214157.6025732,1772214157.5269237,338.8671875,107.91015625,99.12109375,-101.07421875,0.0,0,0
1772214157.602638,1772214157.5308201,303.22265625,138.671875,114.2578125,-10.25390625,0.0,0,0
1772214157.60268,1772214157.5347164,329.58984375,132.8125,110.3515625,47.8515625,0.0,0,0
1772214157.602719,1772214157.5386128,355.46875,82.51953125,100.09765625,-7.8125,0.0,0,0
1772214157.602756,1772214157.5425093,293.45703125,41.50390625,85.9375,-99.12109375,0.0,0,0
1772214157.602793,1772214157.5464056,216.796875,82.51953125,89.35546875,-112.79296875,0.0,0,0
1772214157.617098,1772214157.5504138,202.63671875,140.13671875,104.98046875,-32.71484375,0.0,0,0
1772214157.6172001,1772214157.5543103,259.27734375,144.53125,104.4921875,35.15625,0.0,0,0
1772214157.6172428,1772214157.5582068,274.4140625,89.35546875,83.984375,11.23046875,0.0,0,0
1772214157.6172822,1772214157.5621033,207.03125,15.625,60.05859375,-64.453125,0.0,0,0
1772214157.6173198,1772214157.5659995,144.53125,-2.9296875,62.01171875,-93.75,0.0,0,0
1772214157.617357,1772214157.569896,134.27734375,52.734375,76.66015625,-19.53125,0.0,0,0
1772214157.6173928,1772214157.5737925,193.84765625,94.23828125,83.49609375,53.7109375,0.0,0,0
1772214157.617431,1772214157.577689,199.21875,44.43359375,83.49609375,31.73828125,0.0,0,0
1772214157.6174679,1772214157.5815852,158.203125,0.0,82.51953125,-46.875,0.0,0,0
1772214157.617504,1772214157.5854816,111.81640625,9.27734375,87.40234375,-93.75,0.0,0,0
1772214157.617541,1772214157.589378,79.1015625,65.4296875,90.8203125,-38.0859375,0.0,0,0
1772214157.617577,1772214157.5932746,122.55859375,102.05078125,99.609375,55.6640625,0.0,0,0
1772214157.661282,1772214157.5972679,128.90625,64.453125,86.9140625,55.17578125,0.0,0,0
1772214157.661397,1772214157.6011643,86.9140625,20.5078125,71.2890625,-33.203125,0.0,0,0
1772214157.6614301,1772214157.6050608,45.41015625,6.34765625,69.3359375,-81.0546875,0.0,0,0
1772214157.6615071,1772214157.6089573,26.3671875,43.9453125,84.47265625,-17.578125,0.0,0,0
1772214157.661543,1772214157.6128538,92.7734375,93.75,101.07421875,68.84765625,0.0,0,0
1772214157.6615748,1772214157.6167502,156.25,104.00390625,98.6328125,65.4296875,0.0,0,0
1772214157.6616042,1772214157.6206465,138.18359375,65.4296875,83.0078125,-9.765625,0.0,0,0
1772214157.661633,1772214157.624543,77.63671875,40.0390625,68.359375,-70.3125,0.0,0,0
1772214157.661663,1772214157.6284394,41.9921875,92.28515625,77.63671875,-37.109375,0.0,0,0
1772214157.661691,1772214157.632336,85.9375,150.87890625,85.44921875,52.24609375,0.0,0,0
1772214157.66172,1772214157.6362324,132.8125,148.4375,78.125,77.1484375,0.0,0,0
1772214157.661749,1772214157.6401286,129.39453125,89.35546875,58.10546875,5.859375,0.0,0,0
1772214157.7072399,1772214157.6441138,70.3125,43.45703125,45.41015625,-59.08203125,0.0,0,0
1772214157.7073731,1772214157.6480103,21.97265625,64.453125,63.96484375,-27.34375,0.0,0,0
1772214157.707416,1772214157.6519065,35.64453125,91.796875,91.30859375,49.31640625,0.0,0,0
1772214157.707456,1772214157.655803,51.26953125,94.7265625,93.26171875,83.49609375,0.0,0,0
1772214157.7074938,1772214157.6596994,65.4296875,65.4296875,74.21875,22.4609375,0.0,0,0
1772214157.707534,1772214157.663596,19.04296875,63.4765625,52.734375,-74.21875,0.0,0,0
1772214157.707571,1772214157.6674924,-37.59765625,77.63671875,40.52734375,-73.73046875,0.0,0,0
1772214157.7076092,1772214157.6713889,-5.859375,79.1015625,47.8515625,19.04296875,0.0,0,0
1772214157.707646,1772214157.6752853,44.43359375,91.30859375,54.19921875,67.87109375,0.0,0,0
1772214157.707683,1772214157.6791816,50.29296875,55.17578125,41.015625,6.8359375,0.0,0,0
1772214157.70772,1772214157.683078,16.6015625,7.32421875,20.5078125,-85.9375,0.0,0,0
1772214157.707757,1772214157.6869745,11.71875,28.80859375,24.4140625,-94.23828125,0.0,0,0
1772214157.7515478,1772214157.6909485,29.78515625,58.10546875,43.45703125,-20.5078125,0.0,0,0
1772214157.751661,1772214157.694845,59.08203125,65.4296875,52.24609375,24.4140625,0.0,0,0
1772214157.75169,1772214157.6987412,97.16796875,50.78125,39.55078125,-19.53125,0.0,0,0
1772214157.7517161,1772214157.7026377,52.24609375,0.0,31.73828125,-111.328125,0.0,0,0
1772214157.75174,1772214157.7065341,10.7421875,18.5546875,51.26953125,-141.6015625,0.0,0,0
1772214157.751764,1772214157.7104306,12.6953125,68.359375,73.2421875,-62.98828125,0.0,0,0
1772214157.7517881,1772214157.714327,50.29296875,35.64453125,76.171875,-2.9296875,0.0,0,0
1772214157.752553,1772214157.7182236,109.86328125,-26.3671875,52.24609375,-43.45703125,0.0,0,0
1772214157.752616,1772214157.72212,87.890625,-45.8984375,47.36328125,-126.46484375,0.0,0,0
1772214157.752644,1772214157.7260165,42.48046875,-28.3203125,54.6875,-151.3671875,0.0,0,0
1772214157.7526689,1772214157.729913,34.66796875,17.08984375,62.01171875,-86.9140625,0.0,0,0
1772214157.752693,1772214157.7338095,60.05859375,37.59765625,71.2890625,-17.578125,0.0,0,0
1772214157.8113909,1772214157.7377746,96.6796875,15.625,51.26953125,-33.203125,0.0,0,0
1772214157.811533,1772214157.741671,86.9140625,-14.16015625,44.43359375,-108.3984375,0.0,0,0
1772214157.811578,1772214157.7455676,23.92578125,-18.5546875,60.546875,-145.99609375,0.0,0,0
1772214157.811618,1772214157.749464,-41.015625,30.2734375,77.1484375,-83.49609375,0.0,0,0
1772214157.811657,1772214157.7533605,-20.01953125,59.5703125,83.49609375,-7.8125,0.0,0,0
1772214157.811695,1772214157.757257,42.48046875,35.15625,63.4765625,-31.25,0.0,0,0
1772214157.8117409,1772214157.7611535,58.59375,10.25390625,52.24609375,-125.48828125,0.0,0,0
1772214157.811778,1772214157.7650497,10.25390625,-1.46484375,54.6875,-175.78125,0.0,0,0
1772214157.8118231,1772214157.7689462,-49.8046875,13.18359375,62.01171875,-131.34765625,0.0,0,0
1772214157.811878,1772214157.7728426,-11.71875,29.296875,69.82421875,-59.5703125,0.0,0,0
1772214157.811915,1772214157.7767391,36.62109375,1.953125,63.4765625,-42.96875,0.0,0,0
1772214157.8119621,1772214157.7806356,7.8125,-23.92578125,40.0390625,-104.98046875,0.0,0,0
1772214157.8572302,1772214157.7846677,-31.25,-14.6484375,32.2265625,-158.203125,0.0,0,0
1772214157.857389,1772214157.7885642,-59.5703125,22.4609375,56.640625,-112.79296875,0.0,0,0
1772214157.857449,1772214157.7924607,-41.9921875,58.10546875,66.40625,-28.80859375,0.0,0,0
1772214157.857505,1772214157.7963572,-24.4140625,62.5,56.15234375,-14.6484375,0.0,0,0
1772214157.857559,1772214157.8002536,-39.55078125,34.1796875,40.52734375,-85.9375,0.0,0,0
1772214157.857611,1772214157.80415,-62.5,25.390625,33.69140625,-153.3203125,0.0,0,0
1772214157.857661,1772214157.8080466,-89.84375,37.59765625,50.78125,-129.39453125,0.0,0,0
1772214157.857712,1772214157.811943,-86.9140625,95.21484375,57.12890625,-56.640625,0.0,0,0
1772214157.857762,1772214157.8158395,-62.01171875,101.07421875,43.45703125,-37.109375,0.0,0,0
1772214157.857813,1772214157.819736,-26.3671875,42.96875,22.4609375,-96.6796875,0.0,0,0
1772214157.857866,1772214157.8236325,-56.640625,42.96875,19.04296875,-168.9453125,0.0,0,0
1772214157.8579159,1772214157.827529,-128.41796875,71.2890625,27.83203125,-155.76171875,0.0,0,0
1772214157.902171,1772214157.8315518,-121.09375,152.83203125,37.109375,-78.61328125,0.0,0,0
1772214157.9024682,1772214157.8354483,-67.3828125,125.9765625,36.1328125,-42.96875,0.0,0,0
1772214157.9025202,1772214157.8393447,-27.83203125,51.26953125,14.16015625,-93.75,0.0,0,0
1772214157.90256,1772214157.8432412,-66.40625,57.6171875,-13.18359375,-171.875,0.0,0,0
1772214157.902598,1772214157.8471377,-131.34765625,51.26953125,-10.25390625,-172.8515625,0.0,0,0
1772214157.902644,1772214157.8510342,-152.34375,79.1015625,16.6015625,-90.33203125,0.0,0,0
1772214157.9026802,1772214157.8549306,-126.46484375,142.08984375,19.04296875,-34.1796875,0.0,0,0
1772214157.9027169,1772214157.8588274,-86.9140625,100.09765625,-2.44140625,-99.12109375,0.0,0,0
1772214157.902754,1772214157.8627238,-103.02734375,37.59765625,-11.71875,-187.5,0.0,0,0
1772214157.9027898,1772214157.8666203,-133.7890625,34.66796875,8.30078125,-177.734375,0.0,0,0
1772214157.902826,1772214157.8705168,-152.83203125,43.45703125,38.0859375,-91.796875,0.0,0,0
1772214157.902862,1772214157.8744133,-118.1640625,71.2890625,41.50390625,-35.64453125,0.0,0,0
1772214157.9466162,1772214157.8784256,-55.6640625,64.453125,28.3203125,-78.61328125,0.0,0,0
1772214157.9467251,1772214157.882322,-82.51953125,39.0625,24.4140625,-160.64453125,0.0,0,0
1772214157.946767,1772214157.8862185,-154.78515625,98.14453125,21.97265625,-192.3828125,0.0,0,0
1772214157.9468071,1772214157.890115,-188.96484375,149.90234375,21.97265625,-126.953125,0.0,0,0
1772214157.9468439,1772214157.8940117,-173.33984375,113.76953125,20.01953125,-42.96875,0.0,0,0
1772214157.946882,1772214157.8979082,-118.65234375,62.01171875,13.671875,-66.40625,0.0,0,0
1772214157.94692,1772214157.9018047,-103.515625,4.8828125,5.859375,-162.109375,0.0,0,0
1772214157.946957,1772214157.9057012,-146.484375,-24.90234375,0.9765625,-208.0078125,0.0,0,0
1772214157.946997,1772214157.9095976,-197.265625,-5.37109375,6.34765625,-151.3671875,0.0,0,0
1772214157.9470341,1772214157.9134943,-161.62109375,6.8359375,15.625,-69.82421875,0.0,0,0
1772214157.947089,1772214157.9173908,-82.03125,-28.80859375,17.08984375,-79.1015625,0.0,0,0
1772214157.9471319,1772214157.9212873,-80.56640625,-68.359375,6.34765625,-160.64453125,0.0,0,0
1772214158.036675,1772214157.925519,-129.39453125,-68.84765625,-8.30078125,-204.58984375,0.0,0,0
1772214158.036808,1772214157.9294155,-174.8046875,-21.484375,-3.41796875,-149.90234375,0.0,0,0
1772214158.03685,1772214157.9333122,-137.20703125,6.34765625,-3.41796875,-62.98828125,0.0,0,0
1772214158.036889,1772214157.9372087,-83.984375,-24.4140625,-18.5546875,-58.59375,0.0,0,0
1772214158.036927,1772214157.9411051,-75.68359375,-52.24609375,-34.66796875,-147.94921875,0.0,0,0
1772214158.0369642,1772214157.9450018,-93.75,-27.83203125,-25.390625,-206.54296875,0.0,0,0
1772214158.037002,1772214157.9488983,-134.27734375,21.484375,11.23046875,-139.16015625,0.0,0,0
1772214158.037039,1772214157.9527948,-100.5859375,43.9453125,30.76171875,-42.96875,0.0,0,0
1772214158.037076,1772214157.9566915,-56.640625,44.921875,14.6484375,-44.43359375,0.0,0,0
1772214158.037112,1772214157.960588,-63.4765625,13.671875,-13.18359375,-130.37109375,0.0,0,0
1772214158.0372329,1772214157.9644847,-97.16796875,-4.8828125,-23.92578125,-195.80078125,0.0,0,0
1772214158.037288,1772214157.9683812,-133.30078125,14.6484375,-11.23046875,-156.25,0.0,0,0
1772214158.039187,1772214157.9723883,-103.02734375,24.90234375,-4.8828125,-68.359375,0.0,0,0
1772214158.0392451,1772214157.9762847,-51.7578125,29.296875,-6.34765625,-56.15234375,0.0,0,0
1772214158.0392761,1772214157.9801812,-30.2734375,28.3203125,-17.578125,-131.34765625,0.0,0,0
1772214158.039305,1772214157.984078,-22.94921875,55.6640625,-37.109375,-208.0078125,0.0,0,0
1772214158.0393338,1772214157.9879744,-47.36328125,92.7734375,-17.08984375,-159.66796875,0.0,0,0
1772214158.039392,1772214157.991871,-101.07421875,96.19140625,28.80859375,-56.640625,0.0,0,0
1772214158.0395179,1772214157.9957676,-93.75,51.26953125,0.0,-36.1328125,0.0,0,0
1772214158.0395799,1772214157.9996643,-41.9921875,-18.06640625,-61.5234375,-98.6328125,0.0,0,0
1772214158.039618,1772214158.0035608,-73.73046875,-48.828125,-79.1015625,-164.0625,0.0,0,0
1772214158.039648,1772214158.0074575,-136.71875,-30.2734375,-72.75390625,-150.390625,0.0,0,0
1772214158.039677,1772214158.011354,-156.73828125,3.90625,-62.5,-82.03125,0.0,0,0
1772214158.039723,1772214158.0152507,-109.375,-17.08984375,-57.6171875,-34.1796875,0.0,0,0
1772214158.081592,1772214158.0192323,-25.390625,-67.3828125,-62.98828125,-79.1015625,0.0,0,0
1772214158.081721,1772214158.023129,-49.31640625,-99.609375,-72.75390625,-172.8515625,0.0,0,0
1772214158.081763,1772214158.0270255,-116.69921875,-83.984375,-65.91796875,-184.5703125,0.0,0,0
1772214158.081802,1772214158.0309222,-117.1875,-23.92578125,-33.69140625,-100.5859375,0.0,0,0
1772214158.081839,1772214158.0348186,-67.87109375,23.4375,-21.97265625,-37.109375,0.0,0,0
1772214158.081877,1772214158.0387154,-16.6015625,25.390625,-47.8515625,-81.54296875,0.0,0,0
1772214158.0819159,1772214158.0426118,-33.69140625,-12.20703125,-62.01171875,-162.59765625,0.0,0,0
1772214158.081953,1772214158.0465086,-95.21484375,-27.83203125,-57.6171875,-178.7109375,0.0,0,0
1772214158.08199,1772214158.050405,-130.37109375,-16.6015625,-46.875,-114.74609375,0.0,0,0
1772214158.082027,1772214158.0543017,-97.16796875,-24.90234375,-45.41015625,-44.43359375,0.0,0,0
1772214158.082064,1772214158.0581982,-60.546875,-57.6171875,-71.77734375,-81.0546875,0.0,0,0
1772214158.0821,1772214158.062095,-104.00390625,-79.1015625,-89.35546875,-179.6875,0.0,0,0
1772214158.126485,1772214158.0660665,-178.7109375,-64.94140625,-92.7734375,-215.33203125,0.0,0,0
1772214158.126567,1772214158.069963,-193.359375,-19.04296875,-84.47265625,-145.99609375,0.0,0,0
1772214158.126595,1772214158.0738597,-125.48828125,31.25,-77.1484375,-63.4765625,0.0,0,0
1772214158.1266198,1772214158.0777564,-84.9609375,18.06640625,-68.359375,-73.73046875,0.0,0,0
1772214158.12726,1772214158.0816529,-98.6328125,-12.6953125,-63.4765625,-164.55078125,0.0,0,0
1772214158.127307,1772214158.0855496,-121.09375,-15.13671875,-64.453125,-223.6328125,0.0,0,0
1772214158.1273348,1772214158.089446,-164.0625,-25.390625,-51.7578125,-172.8515625,0.0,0,0
1772214158.127359,1772214158.0933428,-155.76171875,-6.34765625,-39.0625,-92.7734375,0.0,0,0
1772214158.127384,1772214158.0972393,-112.3046875,9.27734375,-39.0625,-93.26171875,0.0,0,0
1772214158.127407,1772214158.101136,-103.02734375,-21.97265625,-47.8515625,-170.8984375,0.0,0,0
1772214158.127431,1772214158.1050324,-122.0703125,-24.90234375,-51.7578125,-228.02734375,0.0,0,0
1772214158.127455,1772214158.1089292,-157.71484375,-15.13671875,-44.43359375,-183.59375,0.0,0,0
1772214158.187051,1772214158.112892,-143.5546875,-27.34375,-39.0625,-107.91015625,0.0,0,0
1772214158.187146,1772214158.1167884,-112.3046875,-38.0859375,-41.015625,-98.14453125,0.0,0,0
1772214158.1871731,1772214158.120685,-93.75,-56.15234375,-49.8046875,-164.55078125,0.0,0,0
1772214158.187198,1772214158.1245818,-105.95703125,-53.7109375,-64.94140625,-234.375,0.0,0,0
1772214158.187222,1772214158.1284783,-148.92578125,-0.9765625,-46.38671875,-193.84765625,0.0,0,0
1772214158.187247,1772214158.132375,-133.30078125,48.828125,-31.25,-104.4921875,0.0,0,0
1772214158.1872718,1772214158.1362715,-98.14453125,41.9921875,-53.7109375,-83.984375,0.0,0,0
1772214158.187296,1772214158.1401682,-84.9609375,8.30078125,-66.89453125,-136.23046875,0.0,0,0
1772214158.18732,1772214158.144065,-125.0,-12.6953125,-65.4296875,-197.75390625,0.0,0,0
1772214158.1873422,1772214158.1479614,-218.26171875,-7.8125,-57.6171875,-178.22265625,0.0,0,0
1772214158.1873658,1772214158.151858,-127.44140625,35.15625,-45.41015625,-92.7734375,0.0,0,0
1772214158.187389,1772214158.1557546,-12.20703125,31.73828125,-46.38671875,-54.6875,0.0,0,0
1772214158.231552,1772214158.1597846,-90.33203125,-46.38671875,-62.01171875,-115.234375,0.0,0,0
1772214158.231689,1772214158.163681,-214.84375,-48.828125,-72.265625,-201.171875,0.0,0,0
1772214158.23173,1772214158.1675777,-211.9140625,38.0859375,-64.453125,-199.21875,0.0,0,0
1772214158.2317681,1772214158.1714745,-39.0625,89.84375,-43.9453125,-113.28125,0.0,0,0
1772214158.231806,1772214158.175371,32.71484375,84.47265625,-37.59765625,-70.80078125,0.0,0,0
1772214158.2319639,1772214158.1792676,-90.33203125,12.6953125,-53.7109375,-116.2109375,0.0,0,0
1772214158.2320051,1772214158.1831644,-212.40234375,-69.3359375,-64.453125,-189.94140625,0.0,0,0
1772214158.232043,1772214158.1870608,-201.66015625,-39.55078125,-53.7109375,-184.5703125,0.0,0,0
1772214158.232081,1772214158.1909575,-53.7109375,18.5546875,-26.3671875,-105.46875,0.0,0,0
1772214158.232117,1772214158.1948543,31.73828125,19.04296875,-14.16015625,-57.6171875,0.0,0,0
1772214158.2321699,1772214158.1987507,-47.8515625,-31.73828125,-37.59765625,-107.421875,0.0,0,0
1772214158.232207,1772214158.2026474,-157.71484375,-65.4296875,-54.6875,-187.01171875,0.0,0,0
1772214158.276612,1772214158.2066665,-175.78125,6.8359375,-43.45703125,-197.75390625,0.0,0,0
1772214158.276722,1772214158.2105632,-43.45703125,127.44140625,-14.6484375,-133.30078125,0.0,0,0
1772214158.276751,1772214158.2144597,69.82421875,114.74609375,-9.765625,-67.3828125,0.0,0,0
1772214158.2767758,1772214158.2183564,1.953125,-20.5078125,-25.390625,-87.890625,0.0,0,0
1772214158.276801,1772214158.222253,-135.25390625,-92.28515625,-39.0625,-175.29296875,0.0,0,0
1772214158.2768252,1772214158.2261498,-145.5078125,-48.33984375,-37.109375,-208.49609375,0.0,0,0
1772214158.27685,1772214158.2300463,29.296875,54.6875,-19.04296875,-155.2734375,0.0,0,0
1772214158.2768729,1772214158.233943,169.43359375,80.078125,-13.18359375,-97.65625,0.0,0,0
1772214158.276897,1772214158.2378397,61.03515625,28.80859375,-30.76171875,-116.69921875,0.0,0,0
1772214158.27692,1772214158.2417364,-95.21484375,-8.30078125,-51.26953125,-195.3125,0.0,0,0
1772214158.276944,1772214158.245633,-134.27734375,-42.96875,-41.9921875,-229.4921875,0.0,0,0
1772214158.2769668,1772214158.2495296,-46.38671875,-1.953125,-10.7421875,-166.50390625,0.0,0,0
1772214158.3366559,1772214158.253615,115.72265625,39.55078125,-0.48828125,-85.44921875,0.0,0,0
1772214158.336767,1772214158.2575116,130.859375,-17.578125,-6.8359375,-82.51953125,0.0,0,0
1772214158.3367958,1772214158.2614083,0.0,-73.2421875,-6.8359375,-150.87890625,0.0,0,0
1772214158.336821,1772214158.265305,-73.2421875,-63.96484375,-9.765625,-206.54296875,0.0,0,0
1772214158.336846,1772214158.2692018,-8.7890625,-8.30078125,5.859375,-169.921875,0.0,0,0
1772214158.33687,1772214158.2730985,103.02734375,16.6015625,26.3671875,-83.0078125,0.0,0,0
1772214158.336894,1772214158.2769952,111.81640625,-45.41015625,11.23046875,-64.453125,0.0,0,0
1772214158.336918,1772214158.2808917,6.34765625,-115.234375,-15.625,-143.5546875,0.0,0,0
1772214158.3369422,1772214158.2847884,-80.078125,-125.9765625,-21.97265625,-196.2890625,0.0,0,0
1772214158.336965,1772214158.288685,-11.23046875,-64.94140625,-12.6953125,-143.06640625,0.0,0,0
1772214158.336988,1772214158.2925818,154.296875,-13.671875,-3.41796875,-54.6875,0.0,0,0
1772214158.3370109,1772214158.2964785,250.48828125,-21.484375,-1.46484375,-39.55078125,0.0,0,0
1772214158.3663008,1772214158.300477,178.7109375,-57.6171875,-20.5078125,-113.76953125,0.0,0,0
1772214158.366413,1772214158.3043737,72.265625,-99.12109375,-24.90234375,-188.4765625,0.0,0,0
1772214158.366443,1772214158.3082705,110.3515625,-52.24609375,11.23046875,-168.45703125,0.0,0,0
1772214158.3664691,1772214158.3121672,229.00390625,52.24609375,28.80859375,-95.21484375,0.0,0,0
1772214158.366494,1772214158.316064,278.80859375,39.0625,26.85546875,-61.03515625,0.0,0,0
1772214158.366518,1772214158.3199606,157.2265625,-70.3125,19.53125,-110.83984375,0.0,0,0
1772214158.366542,1772214158.3238573,9.27734375,-70.3125,2.44140625,-188.96484375,0.0,0,0
1772214158.366566,1772214158.327754,49.8046875,19.53125,13.671875,-191.40625,0.0,0,0
1772214158.3665888,1772214158.3316507,246.09375,38.0859375,36.62109375,-113.28125,0.0,0,0
1772214158.366612,1772214158.3355474,317.87109375,9.765625,35.15625,-64.453125,0.0,0,0
1772214158.366637,1772214158.3394442,174.8046875,-43.9453125,18.06640625,-110.3515625,0.0,0,0
1772214158.3666618,1772214158.3433409,32.2265625,-92.28515625,-1.953125,-182.6171875,0.0,0,0
1772214158.455822,1772214158.3474805,48.33984375,-57.6171875,-0.48828125,-184.5703125,0.0,0,0
1772214158.4559271,1772214158.3513772,201.171875,14.6484375,11.71875,-114.2578125,0.0,0,0
1772214158.455955,1772214158.355274,275.390625,9.27734375,11.23046875,-64.453125,0.0,0,0
1772214158.455981,1772214158.3591707,207.03125,-66.89453125,3.41796875,-104.00390625,0.0,0,0
1772214158.4560099,1772214158.3630674,69.3359375,-114.74609375,-17.578125,-194.82421875,0.0,0,0
1772214158.456034,1772214158.366964,13.671875,-80.078125,-20.99609375,-211.42578125,0.0,0,0
1772214158.4560902,1772214158.3708608,48.828125,-18.5546875,-9.27734375,-135.7421875,0.0,0,0
1772214158.456189,1772214158.3747575,156.25,-2.9296875,-4.8828125,-83.984375,0.0,0,0
1772214158.456264,1772214158.3786542,135.7421875,-59.5703125,-20.99609375,-125.9765625,0.0,0,0
1772214158.456351,1772214158.382551,-63.96484375,-102.5390625,-38.57421875,-196.77734375,0.0,0,0
1772214158.456411,1772214158.3864477,-109.375,-80.078125,-42.96875,-213.8671875,0.0,0,0
1772214158.4564412,1772214158.3903444,18.06640625,-9.765625,-34.1796875,-151.3671875,0.0,0,0
1772214158.4578822,1772214158.394336,128.90625,35.15625,-20.99609375,-73.2421875,0.0,0,0
1772214158.457951,1772214158.3982327,115.72265625,-8.30078125,-15.625,-82.03125,0.0,0,0
1772214158.457977,1772214158.4021294,-36.1328125,-58.59375,-32.2265625,-159.1796875,0.0,0,0
1772214158.4580019,1772214158.4060261,-120.1171875,-41.9921875,-50.78125,-192.87109375,0.0,0,0
1772214158.458034,1772214158.4099228,21.97265625,48.33984375,-29.78515625,-135.7421875,0.0,0,0
1772214158.458059,1772214158.4138196,167.48046875,92.7734375,-12.6953125,-73.73046875,0.0,0,0
1772214158.4580832,1772214158.4177163,125.48828125,31.73828125,-28.80859375,-93.75,0.0,0,0
1772214158.458108,1772214158.421613,-26.3671875,-62.5,-43.45703125,-168.45703125,0.0,0,0
1772214158.4581308,1772214158.4255097,-108.3984375,-73.2421875,-41.015625,-208.0078125,0.0,0,0
1772214158.458155,1772214158.4294066,-24.4140625,30.2734375,-19.04296875,-163.57421875,0.0,0,0
1772214158.458179,1772214158.4333034,108.3984375,87.40234375,6.8359375,-77.1484375,0.0,0,0
1772214158.4582028,1772214158.4372,74.70703125,33.69140625,11.23046875,-71.2890625,0.0,0,0
1772214158.501324,1772214158.4411693,-118.1640625,-41.50390625,-3.90625,-147.4609375,0.0,0,0
1772214158.5014038,1772214158.445066,-196.2890625,-31.73828125,-18.5546875,-210.44921875,0.0,0,0
1772214158.501431,1772214158.4489627,-46.875,56.15234375,-18.5546875,-198.2421875,0.0,0,0
1772214158.5014558,1772214158.4528596,131.8359375,107.421875,-18.06640625,-127.44140625,0.0,0,0
1772214158.501481,1772214158.4567564,178.22265625,71.77734375,-34.1796875,-91.30859375,0.0,0,0
1772214158.5015051,1772214158.460653,24.90234375,-6.34765625,-53.7109375,-152.83203125,0.0,0,0
1772214158.501529,1772214158.4645498,-120.1171875,-47.36328125,-57.12890625,-219.7265625,0.0,0,0
1772214158.5015528,1772214158.4684465,-20.99609375,-5.859375,-22.94921875,-184.5703125,0.0,0,0
1772214158.501577,1772214158.4723432,163.57421875,51.7578125,16.11328125,-102.5390625,0.0,0,0
1772214158.501601,1772214158.47624,159.66796875,25.390625,1.46484375,-75.1953125,0.0,0,0
1772214158.501626,1772214158.4801369,-43.45703125,-39.55078125,-43.9453125,-134.27734375,0.0,0,0
1772214158.5016499,1772214158.4840336,-166.015625,-43.45703125,-70.3125,-198.2421875,0.0,0,0
1772214158.561141,1772214158.4879951,-36.1328125,51.7578125,-66.89453125,-173.828125,0.0,0,0
1772214158.561253,1772214158.4918919,195.3125,110.83984375,-40.0390625,-93.26171875,0.0,0,0
1772214158.561281,1772214158.4957886,250.48828125,72.265625,-33.69140625,-53.7109375,0.0,0,0
1772214158.561306,1772214158.4996853,83.984375,-30.2734375,-49.8046875,-109.375,0.0,0,0
1772214158.5613298,1772214158.503582,-92.28515625,-62.01171875,-38.57421875,-186.5234375,0.0,0,0
1772214158.561354,1772214158.507479,-47.8515625,10.7421875,-13.671875,-195.80078125,0.0,0,0
1772214158.561378,1772214158.5113757,140.625,24.90234375,-4.8828125,-132.8125,0.0,0,0
1772214158.561402,1772214158.5152724,237.79296875,-2.44140625,-10.7421875,-73.73046875,0.0,0,0
1772214158.561426,1772214158.519169,100.5859375,-63.96484375,-20.5078125,-117.67578125,0.0,0,0
1772214158.561548,1772214158.5230658,-76.66015625,-96.6796875,-31.73828125,-181.15234375,0.0,0,0
1772214158.5615811,1772214158.5269628,-41.9921875,-41.9921875,-40.0390625,-182.6171875,0.0,0,0
1772214158.561606,1772214158.5308595,166.015625,27.83203125,-32.2265625,-111.81640625,0.0,0,0
1772214158.636513,1772214158.535036,261.71875,14.16015625,-35.64453125,-43.9453125,0.0,0,0
1772214158.6366239,1772214158.5389328,147.4609375,-65.91796875,-59.08203125,-74.70703125,0.0,0,0
1772214158.636653,1772214158.5428298,-18.5546875,-106.4453125,-83.49609375,-161.62109375,0.0,0,0
1772214158.636678,1772214158.5467265,-54.19921875,-83.49609375,-84.47265625,-194.82421875,0.0,0,0
1772214158.636702,1772214158.5506232,138.18359375,4.8828125,-56.15234375,-126.46484375,0.0,0,0
1772214158.636726,1772214158.5545201,252.44140625,40.0390625,-51.26953125,-62.5,0.0,0,0
1772214158.63675,1772214158.5584168,139.6484375,-39.0625,-65.91796875,-84.9609375,0.0,0,0
1772214158.6367738,1772214158.5623136,0.0,-87.890625,-75.1953125,-148.92578125,0.0,0,0
1772214158.636797,1772214158.5662105,-15.625,-51.26953125,-77.1484375,-177.734375,0.0,0,0
1772214158.636821,1772214158.5701072,168.9453125,23.4375,-57.12890625,-128.90625,0.0,0,0
1772214158.636844,1772214158.574004,321.77734375,50.29296875,-41.9921875,-56.640625,0.0,0,0
1772214158.636868,1772214158.577901,221.6796875,-16.6015625,-58.59375,-48.828125,0.0,0,0
1772214158.651739,1772214158.5819216,25.87890625,-87.40234375,-80.078125,-126.46484375,0.0,0,0
1772214158.651893,1772214158.5858183,-87.40234375,-68.84765625,-69.3359375,-187.98828125,0.0,0,0
1772214158.651959,1772214158.5897152,0.48828125,13.671875,-41.015625,-141.6015625,0.0,0,0
1772214158.652013,1772214158.593612,137.6953125,42.48046875,-24.90234375,-52.24609375,0.0,0,0
1772214158.652065,1772214158.597509,104.98046875,-5.859375,-37.109375,-30.2734375,0.0,0,0
1772214158.652116,1772214158.6014056,-62.98828125,-54.6875,-76.171875,-124.0234375,0.0,0,0
1772214158.6521668,1772214158.6053023,-162.109375,-52.734375,-97.65625,-213.8671875,0.0,0,0
1772214158.6522171,1772214158.6091993,2.44140625,28.3203125,-74.21875,-184.08203125,0.0,0,0
1772214158.652267,1772214158.613096,208.0078125,48.828125,-66.40625,-86.9140625,0.0,0,0
1772214158.652329,1772214158.616993,196.2890625,-0.48828125,-90.8203125,-62.98828125,0.0,0,0
1772214158.652407,1772214158.6208897,-7.8125,-35.64453125,-104.00390625,-140.13671875,0.0,0,0
1772214158.652457,1772214158.6247866,-143.06640625,-34.66796875,-103.515625,-209.47265625,0.0,0,0
1772214158.6971781,1772214158.628793,-42.96875,58.10546875,-90.8203125,-170.8984375,0.0,0,0
1772214158.697335,1772214158.6326897,111.81640625,123.046875,-83.49609375,-84.47265625,0.0,0,0
1772214158.6973922,1772214158.6365867,150.390625,54.19921875,-96.19140625,-57.12890625,0.0,0,0
1772214158.6974561,1772214158.6404834,6.8359375,-34.1796875,-127.9296875,-120.60546875,0.0,0,0
1772214158.697512,1772214158.6443803,-117.67578125,-11.71875,-124.0234375,-201.66015625,0.0,0,0
1772214158.697564,1772214158.648277,-10.25390625,43.45703125,-81.0546875,-176.26953125,0.0,0,0
1772214158.6976151,1772214158.652174,195.80078125,62.01171875,-50.29296875,-96.19140625,0.0,0,0
1772214158.6976671,1772214158.6560707,185.546875,57.12890625,-45.41015625,-66.40625,0.0,0,0
1772214158.697718,1772214158.6599677,42.96875,-20.01953125,-61.5234375,-115.72265625,0.0,0,0
1772214158.697768,1772214158.6638644,-10.25390625,-78.125,-72.75390625,-191.89453125,0.0,0,0
1772214158.697818,1772214158.6677613,0.0,-55.6640625,-62.01171875,-180.17578125,0.0,0,0
1772214158.697868,1772214158.671658,22.94921875,-15.625,-34.1796875,-90.8203125,0.0,0,0
1772214158.755145,1772214158.6756556,51.26953125,-1.46484375,-29.296875,-39.0625,0.0,0,0
1772214158.7552269,1772214158.6795526,61.5234375,-54.19921875,-42.48046875,-97.65625,0.0,0,0
1772214158.755255,1772214158.6834493,-10.7421875,-93.75,-52.734375,-187.5,0.0,0,0
1772214158.7552798,1772214158.6873462,-64.94140625,-66.40625,-37.109375,-194.82421875,0.0,0,0
1772214158.7553039,1772214158.691243,-74.70703125,-27.83203125,-25.390625,-114.2578125,0.0,0,0
1772214158.7553291,1772214158.69514,-52.24609375,-27.34375,-36.1328125,-53.22265625,0.0,0,0
1772214158.755353,1772214158.6990366,-21.97265625,-63.4765625,-51.7578125,-100.5859375,0.0,0,0
1772214158.7553768,1772214158.7029335,-50.29296875,-92.28515625,-63.4765625,-184.08203125,0.0,0,0
1772214158.755401,1772214158.7068305,-87.40234375,-79.1015625,-61.5234375,-197.75390625,0.0,0,0
1772214158.755424,1772214158.7107272,-74.70703125,-6.8359375,-47.36328125,-130.37109375,0.0,0,0
1772214158.755448,1772214158.7146242,-1.46484375,22.94921875,-44.43359375,-67.87109375,0.0,0,0
