timestamp,lsl_timestamp,TP9,AF7,AF8,TP10,Right AUX,keypress_A,keypress_B
1772202565.088955,1772202564.979399,-543.9453125,-385.25390625,-434.08203125,-284.66796875,0.0,0,0
1772202565.08918,1772202564.983292,-1000.0,-1000.0,-700.68359375,-371.58203125,0.0,0,0
1772202565.0892491,1772202564.9871852,-614.2578125,-734.86328125,-194.3359375,-330.56640625,0.0,0,0
1772202565.0893078,1772202564.9910784,812.5,647.94921875,383.30078125,-248.046875,0.0,0,0
1772202565.089362,1772202564.9949713,-992.1875,-857.91015625,284.1796875,-202.1484375,0.0,0,0
1772202565.089422,1772202564.9988644,-413.0859375,-73.2421875,-318.84765625,-238.28125,0.0,0,0
1772202565.089474,1772202565.0027575,-1000.0,-1000.0,-685.546875,-312.98828125,0.0,0,0
1772202565.089522,1772202565.0066507,-783.203125,-850.5859375,-304.19921875,-315.4296875,0.0,0,0
1772202565.0895722,1772202565.0105436,621.58203125,521.97265625,350.5859375,-231.93359375,0.0,0,0
1772202565.0896199,1772202565.0144367,-887.20703125,-817.3828125,384.27734375,-163.57421875,0.0,0,0
1772202565.089657,1772202565.0183299,-246.58203125,166.9921875,-213.37890625,-219.23828125,0.0,0,0
1772202565.089694,1772202565.022223,-1000.0,-1000.0,-629.8828125,-294.43359375,0.0,0,0
1772202565.10366,1772202565.026263,-829.58984375,-866.2109375,-327.63671875,-270.01953125,0.0,0,0
1772202565.1037629,1772202565.0301561,520.99609375,520.01953125,340.33203125,-177.24609375,0.0,0,0
1772202565.103821,1772202565.0340493,-822.265625,-823.2421875,479.98046875,-99.12109375,0.0,0,0
1772202565.103874,1772202565.0379424,141.6015625,575.1953125,-65.91796875,-121.58203125,0.0,0,0
1772202565.103926,1772202565.0418355,-1000.0,-897.94921875,-544.921875,-195.3125,0.0,0,0
1772202565.103976,1772202565.0457284,-867.67578125,-953.125,-316.89453125,-215.8203125,0.0,0,0
1772202565.104038,1772202565.0496216,521.484375,527.34375,327.63671875,-137.6953125,0.0,0,0
1772202565.104089,1772202565.0535147,-820.3125,-845.703125,537.59765625,-35.15625,0.0,0,0
1772202565.104147,1772202565.0574079,472.16796875,683.10546875,34.1796875,-69.82421875,0.0,0,0
1772202565.1042,1772202565.061301,-929.6875,-743.65234375,-506.34765625,-173.33984375,0.0,0,0
1772202565.104249,1772202565.0651941,-972.16796875,-1000.0,-390.13671875,-186.03515625,0.0,0,0
1772202565.104343,1772202565.0690873,456.0546875,299.31640625,250.9765625,-118.1640625,0.0,0,0
1772202565.1499038,1772202565.0732043,-829.58984375,-852.5390625,574.21875,-48.33984375,0.0,0,0
1772202565.150054,1772202565.0770974,628.41796875,778.80859375,102.05078125,-79.58984375,0.0,0,0
1772202565.1501088,1772202565.0809906,-790.0390625,-586.42578125,-492.1875,-161.1328125,0.0,0,0
1772202565.150155,1772202565.0848837,-1000.0,-1000.0,-431.15234375,-187.5,0.0,0,0
1772202565.150191,1772202565.0887768,296.38671875,-8.7890625,203.125,-131.34765625,0.0,0,0
1772202565.1502268,1772202565.09267,-851.5625,-903.3203125,613.28125,-64.94140625,0.0,0,0
1772202565.150263,1772202565.096563,765.625,816.40625,239.74609375,-63.96484375,0.0,0,0
1772202565.150298,1772202565.1004562,-609.86328125,-547.36328125,-390.13671875,-126.46484375,0.0,0,0
1772202565.150336,1772202565.1043494,-1000.0,-1000.0,-439.94140625,-163.57421875,0.0,0,0
1772202565.1503701,1772202565.1082425,30.2734375,-358.88671875,147.94921875,-122.55859375,0.0,0,0
1772202565.150408,1772202565.1121356,-900.390625,986.328125,593.75,-43.9453125,0.0,0,0
1772202565.150443,1772202565.1160288,814.453125,869.62890625,324.70703125,-10.7421875,0.0,0,0
1772202565.194231,1772202565.1201305,-548.828125,-547.36328125,-324.70703125,-64.94140625,0.0,0,0
1772202565.194356,1772202565.124024,-1000.0,-1000.0,-497.55859375,-135.7421875,0.0,0,0
1772202565.194407,1772202565.127917,-326.66015625,-652.83203125,58.59375,-108.3984375,0.0,0,0
1772202565.19446,1772202565.1318102,993.1640625,787.59765625,574.70703125,-13.18359375,0.0,0,0
1772202565.1945128,1772202565.1357033,860.83984375,-973.14453125,370.60546875,7.32421875,0.0,0,0
1772202565.1945758,1772202565.1395967,-556.640625,-395.99609375,-282.71484375,-94.7265625,0.0,0,0
1772202565.194657,1772202565.1434898,-1000.0,-1000.0,-561.03515625,-173.828125,0.0,0,0
1772202565.194705,1772202565.147383,-556.640625,-761.71875,-49.31640625,-128.41796875,0.0,0,0
1772202565.1947541,1772202565.151276,869.62890625,656.73828125,527.83203125,-72.75390625,0.0,0,0
1772202565.194804,1772202565.1551695,955.56640625,-892.08984375,404.78515625,-54.6875,0.0,0,0
1772202565.194853,1772202565.1590626,-480.95703125,-276.3671875,-219.23828125,-99.609375,0.0,0,0
1772202565.194916,1772202565.1629558,-1000.0,-1000.0,-560.05859375,-174.31640625,0.0,0,0
1772202565.239087,1772202565.167041,-703.61328125,-824.21875,-130.37109375,-159.66796875,0.0,0,0
1772202565.239273,1772202565.1709344,721.19140625,512.20703125,491.2109375,-71.77734375,0.0,0,0
1772202565.239382,1772202565.1748276,-929.6875,-814.453125,472.16796875,-17.578125,0.0,0,0
1772202565.239445,1772202565.178721,-327.1484375,181.15234375,-142.08984375,-71.77734375,0.0,0,0
1772202565.239497,1772202565.182614,-1000.0,-1000.0,-570.80078125,-137.20703125,0.0,0,0
1772202565.239546,1772202565.1865072,-814.453125,-879.39453125,-207.51953125,-121.09375,0.0,0,0
1772202565.2395961,1772202565.1904006,564.94140625,531.25,461.9140625,-41.50390625,0.0,0,0
1772202565.239798,1772202565.1942937,-850.09765625,-815.4296875,528.3203125,18.5546875,0.0,0,0
1772202565.239926,1772202565.198187,-101.07421875,304.19921875,-67.87109375,-24.4140625,0.0,0,0
1772202565.239975,1772202565.2020802,-1000.0,-1000.0,-539.0625,-87.890625,0.0,0,0
1772202565.240012,1772202565.2059736,-845.21484375,-909.66796875,-285.15625,-79.1015625,0.0,0,0
1772202565.240051,1772202565.2098668,515.625,496.09375,409.66796875,3.90625,0.0,0,0
1772202565.284641,1772202565.2139416,-815.91796875,-828.125,603.02734375,63.96484375,0.0,0,0
1772202565.2847822,1772202565.217835,240.72265625,624.0234375,38.57421875,25.87890625,0.0,0,0
1772202565.284822,1772202565.221728,-1000.0,-825.68359375,-488.28125,-71.77734375,0.0,0,0
1772202565.2848608,1772202565.2256215,-889.16015625,-1000.0,-316.89453125,-130.37109375,0.0,0,0
1772202565.284905,1772202565.2295148,513.671875,399.90234375,353.02734375,-44.43359375,0.0,0,0
1772202565.284943,1772202565.233408,-820.3125,-844.7265625,647.4609375,47.36328125,0.0,0,0
1772202565.2849789,1772202565.2373013,514.6484375,734.375,139.6484375,6.34765625,0.0,0,0
1772202565.2850208,1772202565.2411945,-902.83203125,-680.6640625,-481.93359375,-74.70703125,0.0,0,0
1772202565.285076,1772202565.2450879,-1000.0,-1000.0,-410.64453125,-80.078125,0.0,0,0
1772202565.285124,1772202565.248981,425.78125,245.1171875,247.0703125,-16.11328125,0.0,0,0
1772202565.2851598,1772202565.2528744,-841.30859375,-857.91015625,609.86328125,21.484375,0.0,0,0
1772202565.285196,1772202565.2567677,705.56640625,795.8984375,192.87109375,6.8359375,0.0,0,0
1772202565.3294091,1772202565.2608278,-709.9609375,-541.015625,-463.37890625,-86.9140625,0.0,0,0
1772202565.329547,1772202565.2647212,-1000.0,-1000.0,-497.0703125,-153.80859375,0.0,0,0
1772202565.329597,1772202565.2686145,250.0,-202.63671875,131.34765625,-114.2578125,0.0,0,0
1772202565.329634,1772202565.272508,-859.375,-956.54296875,565.4296875,-50.29296875,0.0,0,0
1772202565.329673,1772202565.276401,790.0390625,835.44921875,226.5625,-59.08203125,0.0,0,0
1772202565.3297112,1772202565.2802944,-583.0078125,-553.22265625,-445.80078125,-146.484375,0.0,0,0
1772202565.329749,1772202565.2841878,-1000.0,-1000.0,-579.1015625,-220.21484375,0.0,0,0
1772202565.3297842,1772202565.288081,11.23046875,-565.4296875,16.6015625,-150.87890625,0.0,0,0
1772202565.3298209,1772202565.2919743,-901.85546875,882.32421875,520.99609375,-54.19921875,0.0,0,0
1772202565.329858,1772202565.2958677,817.3828125,934.08203125,285.15625,-48.828125,0.0,0,0
1772202565.3299131,1772202565.299761,-551.26953125,-521.484375,-386.23046875,-113.76953125,0.0,0,0
1772202565.3299499,1772202565.3036542,-1000.0,-1000.0,-615.234375,-173.828125,0.0,0,0
1772202565.420338,1772202565.308029,-296.875,-684.5703125,-48.33984375,-127.9296875,0.0,0,0
1772202565.420476,1772202565.3119223,-998.046875,748.046875,527.83203125,-22.94921875,0.0,0,0
1772202565.4205198,1772202565.3158157,867.1875,-943.359375,384.27734375,11.71875,0.0,0,0
1772202565.420911,1772202565.319709,-533.203125,-350.09765625,-268.5546875,-72.265625,0.0,0,0
1772202565.420949,1772202565.3236024,-1000.0,-1000.0,-589.35546875,-154.296875,0.0,0,0
1772202565.420979,1772202565.327496,-591.30859375,-762.6953125,-98.6328125,-118.65234375,0.0,0,0
1772202565.42101,1772202565.3313894,844.23828125,640.625,516.11328125,-21.97265625,0.0,0,0
1772202565.4210382,1772202565.3352828,981.4453125,-871.09375,454.58984375,23.4375,0.0,0,0
1772202565.421067,1772202565.3391762,-452.63671875,-183.59375,-180.6640625,-33.203125,0.0,0,0
1772202565.4210958,1772202565.3430696,-1000.0,-1000.0,-581.54296875,-111.328125,0.0,0,0
1772202565.421123,1772202565.346963,-752.9296875,-830.56640625,-185.546875,-102.05078125,0.0,0,0
1772202565.421152,1772202565.3508563,663.0859375,505.37109375,504.8828125,-13.18359375,0.0,0,0
1772202565.4351308,1772202565.3549118,-900.390625,-809.5703125,570.3125,48.33984375,0.0,0,0
1772202565.4352,1772202565.3588054,-287.59765625,304.19921875,-52.734375,-24.90234375,0.0,0,0
1772202565.435241,1772202565.3626988,-1000.0,-1000.0,-532.2265625,-125.0,0.0,0,0
1772202565.435277,1772202565.3665922,-829.58984375,-890.13671875,-224.609375,-125.48828125,0.0,0,0
1772202565.435315,1772202565.3704855,533.203125,531.73828125,484.86328125,-66.40625,0.0,0,0
1772202565.435352,1772202565.3743792,-832.03125,-816.40625,633.30078125,-25.87890625,0.0,0,0
1772202565.4353878,1772202565.3782725,-2.44140625,482.421875,36.1328125,-54.6875,0.0,0,0
1772202565.435423,1772202565.382166,-1000.0,-921.38671875,-491.2109375,-132.32421875,0.0,0,0
1772202565.4354591,1772202565.3860593,-849.12109375,-1000.0,-289.55078125,-153.3203125,0.0,0,0
1772202565.435495,1772202565.389953,512.6953125,399.90234375,399.4140625,-75.68359375,0.0,0,0
1772202565.435531,1772202565.3938463,-813.4765625,-842.7734375,668.45703125,16.6015625,0.0,0,0
1772202565.4355671,1772202565.3977396,403.80859375,730.46875,138.671875,0.48828125,0.0,0,0
1772202565.4810119,1772202565.4018703,-979.98046875,-696.77734375,-469.23828125,-78.125,0.0,0,0
1772202565.481188,1772202565.4057636,-927.734375,-1000.0,-363.76953125,-112.3046875,0.0,0,0
1772202565.481248,1772202565.4096572,502.44140625,293.45703125,314.453125,-44.921875,0.0,0,0
1772202565.481301,1772202565.4135506,-831.54296875,-857.421875,654.296875,44.921875,0.0,0,0
1772202565.481353,1772202565.4174442,625.9765625,793.9453125,182.12890625,30.2734375,0.0,0,0
1772202565.4814038,1772202565.4213376,-811.5234375,-549.8046875,-465.8203125,-62.01171875,0.0,0,0
1772202565.481456,1772202565.4252312,-1000.0,-1000.0,-444.3359375,-109.86328125,0.0,0,0
1772202565.481504,1772202565.4291246,357.91015625,-117.67578125,214.35546875,-32.71484375,0.0,0,0
1772202565.481554,1772202565.4330182,-852.05078125,-931.15234375,637.6953125,54.19921875,0.0,0,0
1772202565.481605,1772202565.4369116,764.6484375,831.54296875,280.2734375,32.71484375,0.0,0,0
1772202565.481654,1772202565.4408052,-634.27734375,-555.17578125,-412.109375,-63.96484375,0.0,0,0
1772202565.481707,1772202565.4446986,-1000.0,-1000.0,-502.44140625,-137.20703125,0.0,0,0
1772202565.5250728,1772202565.4488149,189.453125,-366.2109375,144.04296875,-65.91796875,0.0,0,0
1772202565.525156,1772202565.4527085,-868.65234375,973.14453125,643.06640625,29.78515625,0.0,0,0
1772202565.5252008,1772202565.456602,806.15234375,899.4140625,357.91015625,22.4609375,0.0,0,0
1772202565.5252411,1772202565.4604955,-551.7578125,-506.34765625,-356.4453125,-82.03125,0.0,0,0
1772202565.525281,1772202565.464389,-1000.0,-1000.0,-567.87109375,-148.92578125,0.0,0,0
1772202565.525328,1772202565.4682827,-120.1171875,-567.3828125,40.52734375,-76.66015625,0.0,0,0
1772202565.525366,1772202565.472176,-933.59375,862.3046875,598.6328125,13.18359375,0.0,0,0
1772202565.5254028,1772202565.4760697,825.1953125,981.4453125,397.94921875,41.50390625,0.0,0,0
1772202565.525443,1772202565.4799633,-549.31640625,-449.70703125,-296.38671875,-26.3671875,0.0,0,0
1772202565.525482,1772202565.4838567,-1000.0,-1000.0,-604.00390625,-112.3046875,0.0,0,0
1772202565.525527,1772202565.4877503,-511.23046875,-798.828125,-75.1953125,-82.51953125,0.0,0,0
1772202565.525572,1772202565.491644,908.203125,598.6328125,585.9375,25.390625,0.0,0,0
1772202565.5704372,1772202565.4957426,922.36328125,-872.55859375,492.67578125,85.9375,0.0,0,0
1772202565.570556,1772202565.4996362,-518.5546875,-238.28125,-188.96484375,8.30078125,0.0,0,0
1772202565.5705988,1772202565.5035298,-1000.0,-1000.0,-569.3359375,-105.46875,0.0,0,0
1772202565.570636,1772202565.5074234,-693.359375,-837.40234375,-135.7421875,-85.44921875,0.0,0,0
1772202565.570674,1772202565.511317,742.1875,518.06640625,566.40625,7.32421875,0.0,0,0
1772202565.5707111,1772202565.5152106,-948.73046875,-820.80078125,576.171875,66.89453125,0.0,0,0
1772202565.5707479,1772202565.519104,-370.1171875,73.2421875,-109.86328125,19.53125,0.0,0,0
1772202565.570785,1772202565.5229976,-1000.0,-1000.0,-574.70703125,-77.63671875,0.0,0,0
1772202565.570821,1772202565.5268912,-808.10546875,-854.98046875,-242.1875,-73.2421875,0.0,0,0
1772202565.570858,1772202565.5307848,570.80078125,514.16015625,473.14453125,7.8125,0.0,0,0
1772202565.570894,1772202565.5346785,-852.05078125,-813.4765625,593.26171875,52.24609375,0.0,0,0
1772202565.570931,1772202565.538572,-125.48828125,484.86328125,-29.78515625,13.671875,0.0,0,0
1772202565.615246,1772202565.5426588,-1000.0,-940.91796875,-542.96875,-64.453125,0.0,0,0
1772202565.6153731,1772202565.5465524,-842.7734375,-958.984375,-304.19921875,-81.0546875,0.0,0,0
1772202565.615414,1772202565.550446,515.13671875,481.93359375,421.875,0.48828125,0.0,0,0
1772202565.615454,1772202565.5543396,-815.91796875,-827.1484375,656.25,85.9375,0.0,0,0
1772202565.6154912,1772202565.5582333,213.8671875,621.58203125,54.6875,38.57421875,0.0,0,0
1772202565.615529,1772202565.5621269,-1000.0,-801.26953125,-523.4375,-67.3828125,0.0,0,0
1772202565.615566,1772202565.5660205,-874.51171875,-1000.0,-367.67578125,-108.88671875,0.0,0,0
1772202565.615603,1772202565.569914,523.92578125,296.38671875,340.33203125,-4.8828125,0.0,0,0
1772202565.615641,1772202565.5738077,-822.75390625,-849.12109375,675.29296875,112.79296875,0.0,0,0
1772202565.615679,1772202565.5777013,547.8515625,767.08984375,172.36328125,87.890625,0.0,0,0
1772202565.615716,1772202565.581595,-887.6953125,-612.79296875,-474.12109375,-12.20703125,0.0,0,0
1772202565.615753,1772202565.5854886,-1000.0,-1000.0,-405.76171875,-70.80078125,0.0,0,0
1772202565.690444,1772202565.5897732,434.08203125,63.96484375,292.48046875,-14.16015625,0.0,0,0
1772202565.690571,1772202565.5936668,-844.23828125,-887.20703125,695.3125,71.2890625,0.0,0,0
1772202565.690613,1772202565.5975606,714.35546875,818.359375,284.66796875,52.734375,0.0,0,0
1772202565.690652,1772202565.6014543,-710.9375,-557.12890625,-422.36328125,-55.17578125,0.0,0,0
1772202565.690689,1772202565.6053479,-1000.0,-1000.0,-482.421875,-103.02734375,0.0,0,0
1772202565.690725,1772202565.6092415,291.50390625,-144.04296875,194.3359375,-34.1796875,0.0,0,0
1772202565.690762,1772202565.6131353,-857.91015625,-937.98828125,657.71484375,29.78515625,0.0,0,0
1772202565.690799,1772202565.617029,791.50390625,826.66015625,347.65625,25.87890625,0.0,0,0
1772202565.6908429,1772202565.6209226,-569.3359375,-548.828125,-354.4921875,-71.2890625,0.0,0,0
1772202565.690889,1772202565.6248164,-1000.0,-1000.0,-525.87890625,-136.71875,0.0,0,0
1772202565.6909308,1772202565.62871,-19.04296875,-541.50390625,106.93359375,-67.3828125,0.0,0,0
1772202565.690969,1772202565.6326036,-907.71484375,886.71875,649.4140625,47.36328125,0.0,0,0
1772202565.705597,1772202565.636668,816.89453125,955.078125,393.5546875,68.84765625,0.0,0,0
1772202565.705673,1772202565.6405618,-547.8515625,-477.05078125,-335.9375,-24.4140625,0.0,0,0
1772202565.705715,1772202565.6444554,-1000.0,-1000.0,-608.3984375,-127.44140625,0.0,0,0
1772202565.705753,1772202565.6483493,-377.9296875,-712.40234375,-56.15234375,-83.49609375,0.0,0,0
1772202565.70579,1772202565.652243,972.65625,697.265625,541.9921875,36.62109375,0.0,0,0
1772202565.705827,1772202565.6561368,880.859375,-895.99609375,413.0859375,53.7109375,0.0,0,0
1772202565.705865,1772202565.6600304,-535.64453125,-255.37109375,-271.484375,-13.671875,0.0,0,0
1772202565.706147,1772202565.6639242,-1000.0,-1000.0,-651.85546875,-92.7734375,0.0,0,0
1772202565.706186,1772202565.6678178,-642.08984375,-843.26171875,-166.50390625,-64.453125,0.0,0,0
1772202565.7062242,1772202565.6717117,801.26953125,529.296875,546.38671875,39.0625,0.0,0,0
1772202565.70626,1772202565.6756053,-987.79296875,-834.47265625,499.51171875,97.65625,0.0,0,0
1772202565.706296,1772202565.6794991,-417.96875,-65.91796875,-189.453125,32.71484375,0.0,0,0
1772202565.751969,1772202565.6835468,-1000.0,-1000.0,-642.578125,-74.70703125,0.0,0,0
1772202565.752105,1772202565.6874406,-762.20703125,-844.7265625,-282.71484375,-55.6640625,0.0,0,0
1772202565.7521658,1772202565.6913342,645.01953125,513.18359375,451.171875,66.40625,0.0,0,0
1772202565.75222,1772202565.695228,-883.7890625,-811.03515625,524.4140625,93.26171875,0.0,0,0
1772202565.752274,1772202565.699122,-236.81640625,305.17578125,-123.046875,-3.90625,0.0,0,0
1772202565.752327,1772202565.7030156,-1000.0,-1000.0,-600.09765625,-81.54296875,0.0,0,0
1772202565.752377,1772202565.7069094,-834.9609375,-900.390625,-338.37890625,-82.03125,0.0,0,0
1772202565.752429,1772202565.710803,515.13671875,510.25390625,380.37109375,-8.30078125,0.0,0,0
1772202565.752481,1772202565.714697,-818.84765625,-825.68359375,588.37890625,66.40625,0.0,0,0
1772202565.752532,1772202565.7185907,118.1640625,602.5390625,-10.7421875,16.6015625,0.0,0,0
1772202565.752583,1772202565.7224844,-1000.0,-842.28515625,-577.1484375,-73.2421875,0.0,0,0
1772202565.7526321,1772202565.7263782,-862.79296875,-1000.0,-385.25390625,-80.078125,0.0,0,0
1772202565.809823,1772202565.7304068,518.5546875,391.11328125,345.21484375,12.6953125,0.0,0,0
1772202565.810026,1772202565.7343004,-815.91796875,-847.65625,640.13671875,102.5390625,0.0,0,0
1772202565.8101408,1772202565.7381942,470.21484375,746.09375,100.5859375,47.8515625,0.0,0,0
1772202565.810199,1772202565.742088,-949.70703125,-675.78125,-522.94921875,-60.05859375,0.0,0,0
1772202565.810252,1772202565.745982,-946.2890625,-1000.0,-425.78125,-70.3125,0.0,0,0
1772202565.810302,1772202565.7498755,497.0703125,279.78515625,291.50390625,14.16015625,0.0,0,0
1772202565.810352,1772202565.7537694,-835.9375,-856.4453125,658.69140625,82.03125,0.0,0,0
1772202565.8104022,1772202565.7576632,649.90234375,790.0390625,196.2890625,45.41015625,0.0,0,0
1772202565.8104792,1772202565.7615569,-785.64453125,-547.36328125,-485.3515625,-48.33984375,0.0,0,0
1772202565.81053,1772202565.7654507,-1000.0,-1000.0,-498.53515625,-97.65625,0.0,0,0
1772202565.810588,1772202565.7693446,339.35546875,-173.33984375,186.03515625,-33.69140625,0.0,0,0
1772202565.8106382,1772202565.7732384,-854.00390625,-946.77734375,662.109375,55.6640625,0.0,0,0
1772202565.8542259,1772202565.7772484,774.90234375,833.49609375,305.17578125,63.96484375,0.0,0,0
1772202565.854391,1772202565.7811422,-605.46875,-553.22265625,-432.12890625,-39.0625,0.0,0,0
1772202565.8544488,1772202565.785036,-1000.0,-1000.0,-543.9453125,-105.46875,0.0,0,0
1772202565.8545,1772202565.78893,103.515625,-486.81640625,92.28515625,-21.97265625,0.0,0,0
1772202565.854552,1772202565.7928238,-879.8828125,913.57421875,595.703125,50.29296875,0.0,0,0
1772202565.854603,1772202565.7967174,807.12890625,941.89453125,345.21484375,30.2734375,0.0,0,0
1772202565.8546538,1772202565.8006113,-546.38671875,-477.05078125,-365.72265625,-46.38671875,0.0,0,0
1772202565.8547149,1772202565.804505,-1000.0,-1000.0,-619.62890625,-115.234375,0.0,0,0
1772202565.854773,1772202565.808399,-265.625,-687.98828125,-46.38671875,-71.77734375,0.0,0,0
1772202565.8548338,1772202565.8122928,-978.515625,754.8828125,553.22265625,38.57421875,0.0,0,0
1772202565.8548858,1772202565.8161867,843.75,-957.03125,387.20703125,62.5,0.0,0,0
1772202565.854953,1772202565.8200803,-558.10546875,-386.23046875,-306.15234375,-32.71484375,0.0,0,0
1772202565.8993769,1772202565.8241837,-1000.0,-1000.0,-648.4375,-119.62890625,0.0,0,0
1772202565.8995001,1772202565.8280776,-592.7734375,-808.10546875,-161.62109375,-80.56640625,0.0,0,0
1772202565.899588,1772202565.8319714,848.6328125,573.73046875,528.3203125,43.9453125,0.0,0,0
1772202565.899662,1772202565.8358653,973.14453125,-851.5625,476.5625,83.0078125,0.0,0,0
1772202565.89971,1772202565.839759,-467.7734375,-141.11328125,-226.5625,-4.39453125,0.0,0,0
1772202565.899756,1772202565.843653,-1000.0,-1000.0,-643.5546875,-99.12109375,0.0,0,0
1772202565.899798,1772202565.8475468,-741.69921875,-839.84375,-262.6953125,-88.8671875,0.0,0,0
1772202565.899842,1772202565.8514407,676.26953125,514.16015625,444.82421875,28.80859375,0.0,0,0
1772202565.899885,1772202565.8553345,-905.2734375,-813.4765625,512.20703125,104.98046875,0.0,0,0
1772202565.8999271,1772202565.8592284,-295.8984375,218.75,-140.625,34.66796875,0.0,0,0
1772202565.899969,1772202565.8631222,-1000.0,-1000.0,-629.39453125,-89.35546875,0.0,0,0
1772202565.900009,1772202565.867016,-830.56640625,-875.0,-304.19921875,-97.16796875,0.0,0,0
1772202565.944521,1772202565.8711038,533.69140625,524.4140625,436.5234375,16.11328125,0.0,0,0
1772202565.9446661,1772202565.8749976,-833.0078125,-821.2890625,571.77734375,77.1484375,0.0,0,0
1772202565.944709,1772202565.8788915,-20.99609375,546.875,-64.453125,22.94921875,0.0,0,0
1772202565.944749,1772202565.8827853,-1000.0,-913.0859375,-613.76953125,-62.98828125,0.0,0,0
1772202565.9447858,1772202565.8866792,-848.6328125,-953.125,-379.8828125,-89.84375,0.0,0,0
1772202565.944824,1772202565.890573,513.671875,514.6484375,368.65234375,2.44140625,0.0,0,0
1772202565.944862,1772202565.8944669,-812.98828125,-837.890625,622.0703125,70.80078125,0.0,0,0
1772202565.944899,1772202565.898361,362.3046875,656.25,53.22265625,31.73828125,0.0,0,0
1772202565.944936,1772202565.9022548,-1000.0,-765.13671875,-570.80078125,-45.8984375,0.0,0,0
1772202565.944993,1772202565.9061487,-909.66796875,-1000.0,-430.6640625,-66.40625,0.0,0,0
1772202565.9450371,1772202565.9100425,515.13671875,279.78515625,303.22265625,-5.37109375,0.0,0,0
1772202565.9450738,1772202565.9139364,-830.078125,-858.3984375,657.71484375,63.96484375,0.0,0,0
1772202566.002688,1772202565.9180202,612.79296875,801.7578125,159.66796875,58.10546875,0.0,0,0
1772202566.0027661,1772202565.921914,-832.03125,-577.1484375,-532.71484375,-43.9453125,0.0,0,0
1772202566.002795,1772202565.9258082,-1000.0,-1000.0,-494.62890625,-85.9375,0.0,0,0
1772202566.002819,1772202565.929702,392.578125,93.26171875,212.890625,-7.8125,0.0,0,0
1772202566.002843,1772202565.933596,-848.6328125,-879.39453125,644.53125,55.17578125,0.0,0,0
1772202566.002867,1772202565.93749,746.09375,805.17578125,259.765625,58.59375,0.0,0,0
1772202566.002892,1772202565.9413838,-656.73828125,-541.9921875,-481.4453125,-10.7421875,0.0,0,0
1772202566.002916,1772202565.9452777,-1000.0,-1000.0,-565.4296875,-64.453125,0.0,0,0
1772202566.002938,1772202565.9491718,205.078125,-335.9375,123.53515625,-4.8828125,0.0,0,0
1772202566.0029619,1772202565.9530656,-863.76953125,999.0234375,622.0703125,65.4296875,0.0,0,0
1772202566.003045,1772202565.9569595,800.29296875,854.00390625,327.1484375,57.6171875,0.0,0,0
1772202566.0031092,1772202565.9608536,-545.41015625,-562.98828125,-391.6015625,-32.2265625,0.0,0,0
1772202566.033602,1772202565.9649107,-1000.0,-1000.0,-593.75,-101.07421875,0.0,0,0
1772202566.0336452,1772202565.9688046,-178.22265625,-620.1171875,23.92578125,-62.01171875,0.0,0,0
1772202566.033661,1772202565.9726987,-950.1953125,815.91796875,606.4453125,39.0625,0.0,0,0
1772202566.0336761,1772202565.9765925,831.54296875,-983.88671875,407.2265625,68.359375,0.0,0,0
1772202566.0336902,1772202565.9804866,-551.7578125,-403.80859375,-310.546875,-28.3203125,0.0,0,0
1772202566.033705,1772202565.9843805,-1000.0,-1000.0,-602.05078125,-118.65234375,0.0,0,0
1772202566.033721,1772202565.9882746,-562.01171875,-790.52734375,-77.63671875,-105.46875,0.0,0,0
1772202566.0337532,1772202565.9921684,879.39453125,623.53515625,552.24609375,0.48828125,0.0,0,0
1772202566.03377,1772202565.9960625,937.98828125,-888.671875,446.2890625,72.265625,0.0,0,0
1772202566.033785,1772202565.9999564,-511.71875,-282.71484375,-255.37109375,-4.8828125,0.0,0,0
1772202566.033799,1772202566.0038502,-1000.0,-1000.0,-643.06640625,-111.328125,0.0,0,0
1772202566.033878,1772202566.0077443,-693.84765625,-815.4296875,-174.31640625,-89.35546875,0.0,0,0
1772202566.078641,1772202566.011788,742.67578125,551.7578125,551.7578125,3.90625,0.0,0,0
1772202566.0786922,1772202566.015682,-947.265625,-833.0078125,532.2265625,48.33984375,0.0,0,0
1772202566.078708,1772202566.0195758,-369.140625,-4.39453125,-155.76171875,-4.39453125,0.0,0,0
1772202566.078722,1772202566.02347,-1000.0,-1000.0,-604.4921875,-85.9375,0.0,0,0
1772202566.078735,1772202566.0273638,-820.80078125,-848.14453125,-281.25,-88.8671875,0.0,0,0
1772202566.078748,1772202566.0312579,553.7109375,512.6953125,472.65625,-1.953125,0.0,0,0
1772202566.07876,1772202566.035152,-846.6796875,-811.5234375,597.16796875,66.40625,0.0,0,0
1772202566.078773,1772202566.0390458,-116.69921875,402.83203125,-64.94140625,30.2734375,0.0,0,0
1772202566.0787861,1772202566.04294,-1000.0,-977.05078125,-592.28515625,-69.3359375,0.0,0,0
1772202566.078798,1772202566.0468338,-840.33203125,-940.91796875,-340.33203125,-87.890625,0.0,0,0
1772202566.078811,1772202566.0507278,511.71875,483.3984375,405.2734375,4.8828125,0.0,0,0
1772202566.078824,1772202566.0546217,-812.98828125,-837.890625,648.4375,83.984375,0.0,0,0
1772202566.123743,1772202566.0586505,273.92578125,674.8046875,75.1953125,46.38671875,0.0,0,0
1772202566.1237729,1772202566.0625446,-1000.0,-783.69140625,-539.55078125,-61.03515625,0.0,0,0
1772202566.123792,1772202566.0664387,-882.32421875,-1000.0,-382.8125,-94.23828125,0.0,0,0
1772202566.123808,1772202566.0703325,527.83203125,418.9453125,341.30859375,-11.71875,0.0,0,0
1772202566.123826,1772202566.0742266,-826.66015625,-862.3046875,640.625,66.40625,0.0,0,0
1772202566.123842,1772202566.0781207,581.0546875,791.50390625,150.390625,28.80859375,0.0,0,0
1772202566.123859,1772202566.0820146,-863.28125,-555.17578125,-514.16015625,-87.890625,0.0,0,0
1772202566.1238751,1772202566.0859087,-1000.0,-1000.0,-495.60546875,-122.55859375,0.0,0,0
1772202566.1238909,1772202566.0898027,416.9921875,-24.90234375,199.70703125,-47.8515625,0.0,0,0
1772202566.123926,1772202566.0936966,-841.796875,-907.2265625,633.30078125,39.55078125,0.0,0,0
1772202566.123945,1772202566.0975907,710.44921875,821.77734375,229.98046875,29.296875,0.0,0,0
1772202566.1239622,1772202566.1014848,-705.56640625,-552.24609375,-473.14453125,-73.2421875,0.0,0,0
1772202566.1843998,1772202566.1055074,-1000.0,-1000.0,-522.4609375,-137.6953125,0.0,0,0
1772202566.1844559,1772202566.1094015,250.0,-303.22265625,129.8828125,-68.84765625,0.0,0,0
1772202566.18448,1772202566.1132956,-857.91015625,-989.74609375,614.74609375,29.78515625,0.0,0,0
1772202566.184505,1772202566.1171894,792.48046875,849.609375,322.75390625,33.69140625,0.0,0,0
1772202566.184525,1772202566.1210835,-563.4765625,-560.05859375,-383.7890625,-61.03515625,0.0,0,0
1772202566.184546,1772202566.1249776,-1000.0,-1000.0,-526.85546875,-115.234375,0.0,0,0
1772202566.1845639,1772202566.1288717,-76.66015625,-596.19140625,73.73046875,-55.17578125,0.0,0,0
1772202566.1845849,1772202566.1327658,-921.38671875,854.98046875,598.14453125,55.6640625,0.0,0,0
1772202566.184635,1772202566.1366596,819.82421875,964.35546875,375.48828125,71.77734375,0.0,0,0
1772202566.184662,1772202566.1405537,-546.38671875,-485.83984375,-327.1484375,-53.22265625,0.0,0,0
1772202566.184685,1772202566.1444478,-1000.0,-1000.0,-604.4921875,-131.34765625,0.0,0,0
1772202566.184705,1772202566.148342,-485.3515625,-751.953125,-70.3125,-78.61328125,0.0,0,0
1772202566.230054,1772202566.152367,930.17578125,671.875,553.7109375,26.85546875,0.0,0,0
1772202566.230109,1772202566.156261,895.99609375,-910.15625,438.4765625,52.24609375,0.0,0,0
1772202566.230143,1772202566.160155,-549.31640625,-319.82421875,-236.81640625,-39.55078125,0.0,0,0
1772202566.230176,1772202566.1640491,-1000.0,-1000.0,-605.95703125,-110.3515625,0.0,0,0
1772202566.230207,1772202566.1679432,-678.7109375,-834.9609375,-156.73828125,-81.0546875,0.0,0,0
1772202566.230241,1772202566.1718373,766.11328125,519.04296875,545.8984375,28.80859375,0.0,0,0
1772202566.230322,1772202566.1757314,-972.65625,-826.171875,518.06640625,81.0546875,0.0,0,0
1772202566.2304,1772202566.1796255,-411.62109375,13.671875,-142.08984375,-4.8828125,0.0,0,0
1772202566.2304451,1772202566.1835196,-1000.0,-1000.0,-575.1953125,-95.703125,0.0,0,0
1772202566.230479,1772202566.1874137,-808.59375,-851.5625,-241.69921875,-92.7734375,0.0,0,0
1772202566.2305138,1772202566.1913075,588.37890625,515.13671875,480.46875,-10.25390625,0.0,0,0
1772202566.230549,1772202566.1952016,-873.53515625,-812.5,594.23828125,43.45703125,0.0,0,0
1772202566.305296,1772202566.19941,-230.95703125,389.16015625,-26.3671875,-22.4609375,0.0,0,0
1772202566.305399,1772202566.203304,-1000.0,-997.0703125,-530.76171875,-119.140625,0.0,0,0
1772202566.305442,1772202566.2071981,-834.9609375,-899.90234375,-282.2265625,-134.27734375,0.0,0,0
1772202566.305481,1772202566.2110922,513.18359375,540.52734375,436.5234375,-42.96875,0.0,0,0
1772202566.30552,1772202566.2149863,-817.87109375,-843.26171875,640.625,33.69140625,0.0,0,0
1772202566.305557,1772202566.2188804,148.4375,672.36328125,75.68359375,-23.4375,0.0,0,0
1772202566.305593,1772202566.2227747,-1000.0,-763.18359375,-492.67578125,-123.046875,0.0,0,0
1772202566.3056278,1772202566.2266688,-865.234375,-1000.0,-335.9375,-145.99609375,0.0,0,0
1772202566.305664,1772202566.230563,519.04296875,335.9375,358.3984375,-64.94140625,0.0,0,0
1772202566.3057,1772202566.234457,-819.82421875,-854.4921875,678.7109375,35.15625,0.0,0,0
1772202566.3057358,1772202566.238351,531.73828125,781.73828125,215.8203125,18.06640625,0.0,0,0
1772202566.305773,1772202566.2422452,-899.4140625,-594.23828125,-395.01953125,-72.265625,0.0,0,0
1772202566.320498,1772202566.2463396,-995.1171875,-1000.0,-353.02734375,-112.79296875,0.0,0,0
1772202566.320571,1772202566.2502337,441.40625,81.0546875,285.64453125,-56.640625,0.0,0,0
1772202566.320609,1772202566.254128,-838.8671875,-882.32421875,670.8984375,42.96875,0.0,0,0
1772202566.320647,1772202566.258022,688.96484375,807.12890625,274.90234375,18.06640625,0.0,0,0
1772202566.3206851,1772202566.2619162,-733.88671875,-543.45703125,-394.04296875,-91.796875,0.0,0,0
1772202566.3207219,1772202566.2658105,-1000.0,-1000.0,-432.12890625,-129.8828125,0.0,0,0
1772202566.320758,1772202566.2697046,279.78515625,-324.21875,185.546875,-68.84765625,0.0,0,0
1772202566.320794,1772202566.2735987,-856.93359375,-997.0703125,636.23046875,10.7421875,0.0,0,0
1772202566.3208299,1772202566.277493,789.55078125,854.4921875,342.28515625,12.6953125,0.0,0,0
1772202566.320866,1772202566.281387,-583.0078125,-562.5,-346.6796875,-103.515625,0.0,0,0
1772202566.3209019,1772202566.2852812,-1000.0,-1000.0,-506.8359375,-181.15234375,0.0,0,0
1772202566.320936,1772202566.2891755,34.1796875,-550.29296875,70.80078125,-113.28125,0.0,0,0
1772202566.365705,1772202566.2932541,-895.01953125,886.71875,571.2890625,-12.20703125,0.0,0,0
1772202566.365834,1772202566.2971482,810.546875,943.84765625,349.12109375,9.765625,0.0,0,0
1772202566.3658812,1772202566.3010426,-544.921875,-503.41796875,-322.265625,-64.94140625,0.0,0,0
1772202566.36592,1772202566.3049366,-1000.0,-1000.0,-572.75390625,-151.85546875,0.0,0,0
1772202566.365963,1772202566.308831,-372.0703125,-762.20703125,-68.84765625,-137.6953125,0.0,0,0
1772202566.3660002,1772202566.312725,979.4921875,671.875,519.53125,-37.109375,0.0,0,0
1772202566.366038,1772202566.3166194,867.1875,-927.24609375,407.2265625,7.32421875,0.0,0,0
1772202566.3660748,1772202566.3205135,-556.15234375,-366.69921875,-260.7421875,-69.82421875,0.0,0,0
1772202566.366112,1772202566.3244078,-1000.0,-1000.0,-606.4453125,-144.53125,0.0,0,0
1772202566.366147,1772202566.328302,-617.1875,-830.078125,-156.25,-103.02734375,0.0,0,0
1772202566.3661819,1772202566.3321962,827.63671875,535.15625,481.4453125,-1.953125,0.0,0,0
1772202566.366219,1772202566.3360903,987.79296875,-837.40234375,458.49609375,73.73046875,0.0,0,0
1772202566.409518,1772202566.3401465,-453.125,-81.0546875,-157.2265625,24.4140625,0.0,0,0
1772202566.409611,1772202566.3440409,-1000.0,-1000.0,-575.68359375,-61.03515625,0.0,0,0
1772202566.409643,1772202566.347935,-758.30078125,-834.9609375,-217.28515625,-35.15625,0.0,0,0
1772202566.4098492,1772202566.3518293,645.99609375,503.90625,486.81640625,62.5,0.0,0,0
1772202566.410145,1772202566.3557236,-885.7421875,-810.546875,554.19921875,112.79296875,0.0,0,0
1772202566.4101849,1772202566.3596177,-235.3515625,466.30859375,-30.2734375,41.50390625,0.0,0,0
1772202566.410723,1772202566.363512,-1000.0,-954.1015625,-498.53515625,-26.3671875,0.0,0,0
1772202566.410885,1772202566.3674061,-837.890625,-943.84765625,-267.578125,-45.8984375,0.0,0,0
1772202566.41098,1772202566.3713005,524.4140625,499.0234375,428.22265625,14.6484375,0.0,0,0
1772202566.4110148,1772202566.3751945,-826.171875,-820.80078125,620.60546875,105.95703125,0.0,0,0
1772202566.411059,1772202566.3790889,44.921875,551.7578125,63.96484375,64.94140625,0.0,0,0
1772202566.4110909,1772202566.3829832,-1000.0,-881.8359375,-465.8203125,-32.71484375,0.0,0,0
1772202566.454426,1772202566.3870225,-854.4921875,-1000.0,-309.5703125,-51.26953125,0.0,0,0
1772202566.454485,1772202566.3909166,515.13671875,406.25,345.21484375,28.80859375,0.0,0,0
1772202566.4545012,1772202566.394811,-813.96484375,-844.23828125,620.60546875,101.5625,0.0,0,0
1772202566.454517,1772202566.3987052,422.8515625,731.4453125,107.421875,59.5703125,0.0,0,0
1772202566.4545321,1772202566.4025993,-968.75,-693.84765625,-506.34765625,-33.69140625,0.0,0,0
1772202566.454548,1772202566.4064937,-939.94140625,-1000.0,-408.69140625,-49.31640625,0.0,0,0
1772202566.4545631,1772202566.410388,492.1875,287.109375,222.16796875,8.7890625,0.0,0,0
1772202566.454577,1772202566.4142823,-837.890625,-858.3984375,555.6640625,67.87109375,0.0,0,0
1772202566.4545941,1772202566.4181764,664.55078125,796.38671875,149.90234375,48.33984375,0.0,0,0
1772202566.4546099,1772202566.4220707,-771.97265625,-542.48046875,-501.46484375,-45.41015625,0.0,0,0
1772202566.4546251,1772202566.425965,-1000.0,-1000.0,-535.64453125,-93.26171875,0.0,0,0
1772202566.454693,1772202566.4298592,343.26171875,-149.90234375,92.7734375,-36.1328125,0.0,0,0
1772202566.498467,1772202566.433886,-854.00390625,-939.453125,528.3203125,50.29296875,0.0,0,0
1772202566.4985018,1772202566.4377804,773.4375,829.1015625,197.265625,63.4765625,0.0,0,0
1772202566.498518,1772202566.4416747,-606.4453125,-550.29296875,-484.375,-31.73828125,0.0,0,0
1772202566.498533,1772202566.445569,-1000.0,-1000.0,-607.91015625,-105.46875,0.0,0,0
1772202566.4985468,1772202566.4494634,97.65625,-518.06640625,-7.32421875,-68.359375,0.0,0,0
1772202566.498561,1772202566.4533575,-881.8359375,920.41015625,491.2109375,18.06640625,0.0,0,0
1772202566.4985752,1772202566.4572518,807.6171875,894.04296875,232.91015625,24.4140625,0.0,0,0
1772202566.49859,1772202566.461146,-546.875,-564.94140625,-448.73046875,-53.7109375,0.0,0,0
1772202566.498604,1772202566.4650404,-1000.0,-1000.0,-675.78125,-110.83984375,0.0,0,0
1772202566.4986188,1772202566.4689348,-265.625,-692.87109375,-127.9296875,-72.265625,0.0,0,0
1772202566.498633,1772202566.4728289,-979.4921875,738.28125,446.2890625,-9.27734375,0.0,0,0
1772202566.498647,1772202566.4767232,844.23828125,-939.94140625,312.98828125,19.53125,0.0,0,0
1772202566.587796,1772202566.4807377,-558.59375,-347.16796875,-354.00390625,-45.41015625,0.0,0,0
1772202566.587855,1772202566.484632,-1000.0,-1000.0,-711.42578125,-132.8125,0.0,0,0
1772202566.5878751,1772202566.4885263,-573.73046875,-753.41796875,-238.28125,-106.4453125,0.0,0,0
1772202566.587897,1772202566.4924207,854.4921875,620.1171875,415.52734375,-36.62109375,0.0,0,0
1772202566.5879161,1772202566.496315,977.05078125,-845.703125,360.3515625,24.90234375,0.0,0,0
1772202566.587936,1772202566.5002093,-452.1484375,-1.46484375,-257.32421875,-11.23046875,0.0,0,0
1772202566.587955,1772202566.5041037,-1000.0,-1000.0,-670.8984375,-102.5390625,0.0,0,0
1772202566.587975,1772202566.507998,-738.28125,-855.95703125,-332.03125,-92.7734375,0.0,0,0
1772202566.587998,1772202566.511892,683.10546875,521.484375,355.46875,5.37109375,0.0,0,0
1772202566.588017,1772202566.5157864,-910.15625,-814.453125,415.52734375,56.640625,0.0,0,0
1772202566.588036,1772202566.5196807,-304.6875,252.44140625,-189.94140625,4.8828125,0.0,0,0
1772202566.588056,1772202566.523575,-1000.0,-1000.0,-646.484375,-92.7734375,0.0,0,0
1772202566.602083,1772202566.5275898,-824.21875,-879.39453125,-371.58203125,-105.46875,0.0,0,0
1772202566.6021152,1772202566.5314841,534.66796875,526.85546875,312.5,-18.5546875,0.0,0,0
1772202566.602138,1772202566.5353785,-830.56640625,-823.73046875,481.4453125,39.0625,0.0,0,0
1772202566.6022,1772202566.5392728,16.6015625,563.4765625,-83.49609375,10.7421875,0.0,0,0
1772202566.602257,1772202566.543167,-1000.0,-898.4375,-612.3046875,-54.6875,0.0,0,0
1772202566.602287,1772202566.5470614,-852.05078125,-967.28515625,-409.66796875,-115.72265625,0.0,0,0
1772202566.6023118,1772202566.5509558,514.6484375,501.953125,249.51171875,-43.45703125,0.0,0,0
1772202566.6023371,1772202566.55485,-813.96484375,-845.703125,498.53515625,58.59375,0.0,0,0
1772202566.6023638,1772202566.5587444,395.99609375,697.265625,-4.8828125,0.9765625,0.0,0,0
1772202566.602389,1772202566.5626388,-986.81640625,-727.05078125,-591.30859375,-91.796875,0.0,0,0
1772202566.6024141,1772202566.566533,-917.48046875,-1000.0,-484.86328125,-106.93359375,0.0,0,0
1772202566.602437,1772202566.5704274,515.13671875,292.96875,179.19921875,-28.80859375,0.0,0,0
1772202566.665243,1772202566.5746229,-831.0546875,-856.4453125,513.671875,48.828125,0.0,0,0
1772202566.665345,1772202566.5785172,614.2578125,791.50390625,59.08203125,21.484375,0.0,0,0
1772202566.665388,1772202566.5824115,-827.1484375,-567.3828125,-576.171875,-66.40625,0.0,0,0
1772202566.665427,1772202566.586306,-1000.0,-1000.0,-547.36328125,-91.30859375,0.0,0,0
1772202566.665463,1772202566.5902004,379.39453125,-29.296875,94.7265625,-3.90625,0.0,0,0
1772202566.6655009,1772202566.5940948,-847.65625,-907.71484375,522.94921875,59.5703125,0.0,0,0
1772202566.665538,1772202566.597989,743.1640625,814.94140625,174.8046875,32.2265625,0.0,0,0
1772202566.665577,1772202566.6018836,-659.66796875,-543.9453125,-493.65234375,-32.2265625,0.0,0,0
1772202566.665615,1772202566.605778,-1000.0,-1000.0,-590.8203125,-83.0078125,0.0,0,0
1772202566.66565,1772202566.6096723,194.82421875,-459.9609375,10.7421875,-38.57421875,0.0,0,0
1772202566.665687,1772202566.6135666,-865.72265625,946.77734375,495.60546875,41.50390625,0.0,0,0
1772202566.6657238,1772202566.6174612,798.828125,880.37109375,232.421875,40.52734375,0.0,0,0
1772202566.695311,1772202566.6215482,-548.33984375,-564.453125,-437.98828125,-38.57421875,0.0,0,0
1772202566.695404,1772202566.6254427,-1000.0,-1000.0,-643.5546875,-89.84375,0.0,0,0
1772202566.696287,1772202566.629337,-194.3359375,-637.20703125,-94.7265625,-46.38671875,0.0,0,0
1772202566.6964202,1772202566.6332316,-956.0546875,792.96875,458.49609375,21.484375,0.0,0,0
1772202566.696492,1772202566.637126,835.44921875,-961.42578125,293.9453125,36.62109375,0.0,0,0
1772202566.696535,1772202566.6410203,-554.19921875,-366.69921875,-343.75,-41.50390625,0.0,0,0
1772202566.696574,1772202566.6449149,-1000.0,-1000.0,-650.87890625,-96.6796875,0.0,0,0
1772202566.696613,1772202566.6488092,-516.6015625,-801.7578125,-181.640625,-50.78125,0.0,0,0
1772202566.6966631,1772202566.6527038,907.71484375,618.1640625,441.40625,17.578125,0.0,0,0
1772202566.696699,1772202566.656598,918.9453125,-893.5546875,342.28515625,58.59375,0.0,0,0
1772202566.696735,1772202566.6604927,-526.3671875,-305.6640625,-318.359375,2.44140625,0.0,0,0
1772202566.69678,1772202566.664387,-1000.0,-1000.0,-678.22265625,-75.68359375,0.0,0,0
1772202566.74058,1772202566.6684563,-699.21875,-820.3125,-270.01953125,-45.8984375,0.0,0,0
1772202566.740708,1772202566.672351,738.28125,499.0234375,389.16015625,30.2734375,0.0,0,0
1772202566.740762,1772202566.6762452,-950.1953125,-808.59375,409.1796875,72.265625,0.0,0,0
1772202566.740814,1772202566.6801398,-376.953125,288.57421875,-215.33203125,12.20703125,0.0,0,0
1772202566.740865,1772202566.684034,-1000.0,-1000.0,-690.4296875,-81.54296875,0.0,0,0
1772202566.7409139,1772202566.6879287,-812.01171875,-888.18359375,-375.48828125,-82.03125,0.0,0,0
1772202566.7409668,1772202566.691823,570.80078125,531.25,334.9609375,0.9765625,0.0,0,0
1772202566.741272,1772202566.6957176,-855.46875,-818.359375,451.66015625,59.5703125,0.0,0,0
1772202566.741326,1772202566.699612,-148.92578125,471.19140625,-163.57421875,17.578125,0.0,0,0
1772202566.741377,1772202566.7035065,-1000.0,-956.54296875,-682.12890625,-61.5234375,0.0,0,0
1772202566.741427,1772202566.707401,-839.35546875,-931.15234375,-414.0625,-45.8984375,0.0,0,0
1772202566.741477,1772202566.7112954,512.20703125,520.5078125,294.43359375,22.94921875,0.0,0,0
1772202566.784887,1772202566.715353,-814.453125,-838.37890625,498.046875,56.640625,0.0,0,0
1772202566.785012,1772202566.7192473,232.421875,654.296875,-78.125,31.25,0.0,0,0
1772202566.7850702,1772202566.723142,-1000.0,-784.66796875,-661.1328125,-38.0859375,0.0,0,0
1772202566.785123,1772202566.7270365,-877.44140625,-1000.0,-516.11328125,-68.359375,0.0,0,0
1772202566.7851741,1772202566.7309308,525.390625,349.12109375,175.78125,-10.25390625,0.0,0,0
1772202566.7852302,1772202566.7348254,-822.75390625,-849.609375,512.20703125,62.01171875,0.0,0,0
1772202566.78528,1772202566.73872,538.0859375,761.23046875,6.8359375,20.01953125,0.0,0,0
1772202566.7853298,1772202566.7426143,-894.04296875,-623.046875,-642.578125,-74.70703125,0.0,0,0
1772202566.7853801,1772202566.7465088,-1000.0,-1000.0,-565.4296875,-104.4921875,0.0,0,0
1772202566.785429,1772202566.7504034,435.05859375,105.95703125,117.67578125,-39.55078125,0.0,0,0
1772202566.785472,1772202566.7542977,-837.890625,-878.90625,511.23046875,29.78515625,0.0,0,0
1772202566.785512,1772202566.7581923,687.5,814.453125,101.07421875,-2.44140625,0.0,0,0
1772202566.8304262,1772202566.7622406,-735.3515625,-555.6640625,-604.4921875,-98.14453125,0.0,0,0
1772202566.830556,1772202566.766135,-1000.0,-1000.0,-653.3203125,-135.7421875,0.0,0,0
1772202566.830647,1772202566.7700295,277.34375,-126.46484375,18.5546875,-83.984375,0.0,0,0
1772202566.8307111,1772202566.773924,-856.4453125,-932.6171875,484.375,-22.94921875,0.0,0,0
1772202566.8307571,1772202566.7778187,786.62109375,821.77734375,168.9453125,-16.11328125,0.0,0,0
1772202566.830802,1772202566.7817132,-569.3359375,-547.36328125,-522.94921875,-86.42578125,0.0,0,0
1772202566.8308532,1772202566.7856076,-1000.0,-1000.0,-692.87109375,-165.0390625,0.0,0,0
1772202566.8309069,1772202566.7895021,-63.96484375,-639.16015625,-86.42578125,-131.34765625,0.0,0,0
1772202566.830951,1772202566.7933967,-918.45703125,822.75390625,473.14453125,-34.1796875,0.0,0,0
1772202566.830994,1772202566.7972913,820.80078125,976.07421875,266.11328125,-0.9765625,0.0,0,0
1772202566.831052,1772202566.8011858,-548.33984375,-484.375,-424.31640625,-69.82421875,0.0,0,0
1772202566.831104,1772202566.8050802,-1000.0,-1000.0,-689.94140625,-132.8125,0.0,0,0
1772202566.889386,1772202566.809205,-431.15234375,-742.67578125,-149.90234375,-107.91015625,0.0,0,0
1772202566.889497,1772202566.8130996,950.68359375,675.29296875,466.30859375,-32.71484375,0.0,0,0
1772202566.88955,1772202566.8169942,890.13671875,-903.3203125,331.0546875,7.32421875,0.0,0,0
1772202566.889602,1772202566.8208888,-539.55078125,-290.0390625,-352.05078125,-48.33984375,0.0,0,0
1772202566.889653,1772202566.8247833,-1000.0,-1000.0,-662.109375,-106.4453125,0.0,0,0
1772202566.889705,1772202566.828678,-644.53125,-805.6640625,-226.5625,-70.3125,0.0,0,0
1772202566.889759,1772202566.8325725,795.8984375,574.21875,432.6171875,16.6015625,0.0,0,0
1772202566.889796,1772202566.836467,-981.4453125,-842.28515625,411.1328125,74.70703125,0.0,0,0
1772202566.889853,1772202566.8403616,-407.71484375,-66.89453125,-251.953125,20.5078125,0.0,0,0
1772202566.889911,1772202566.8442562,-1000.0,-1000.0,-671.875,-68.359375,0.0,0,0
1772202566.8899488,1772202566.8481507,-774.4140625,-840.33203125,-304.19921875,-53.7109375,0.0,0,0
1772202566.889985,1772202566.8520453,625.0,508.7890625,418.9453125,30.76171875,0.0,0,0
1772202566.932657,1772202566.8560655,-875.48828125,-810.546875,497.0703125,76.66015625,0.0,0,0
1772202566.932725,1772202566.8599603,-209.9609375,391.11328125,-159.1796875,4.8828125,0.0,0,0
1772202566.9327512,1772202566.863855,-1000.0,-988.76953125,-675.29296875,-89.35546875,0.0,0,0
1772202566.932773,1772202566.8677495,-840.33203125,-920.8984375,-404.296875,-90.33203125,0.0,0,0
1772202566.9327948,1772202566.871644,519.04296875,507.8125,322.265625,-13.671875,0.0,0,0
1772202566.93286,1772202566.8755386,-822.75390625,-825.1953125,535.15625,47.36328125,0.0,0,0
1772202566.932884,1772202566.8794332,86.42578125,597.16796875,-95.21484375,1.46484375,0.0,0,0
1772202566.9329689,1772202566.8833277,-1000.0,-844.23828125,-680.6640625,-79.58984375,0.0,0,0
1772202566.933006,1772202566.8872223,-857.421875,-1000.0,-473.14453125,-105.95703125,0.0,0,0
1772202566.933045,1772202566.8911169,515.13671875,380.37109375,240.234375,-35.64453125,0.0,0,0
1772202566.93312,1772202566.8950114,-816.89453125,-846.6796875,609.375,49.8046875,0.0,0,0
1772202566.933144,1772202566.898906,501.953125,745.60546875,160.15625,7.32421875,0.0,0,0
1772202566.977558,1772202566.9029005,-925.78125,-655.2734375,-502.9296875,-55.17578125,0.0,0,0
1772202566.977601,1772202566.906795,-968.75,-1000.0,-393.5546875,-76.66015625,0.0,0,0
1772202566.977615,1772202566.9106896,472.16796875,186.5234375,385.25390625,-30.2734375,0.0,0,0
1772202566.9776268,1772202566.9145842,-835.44921875,-864.2578125,808.10546875,37.109375,0.0,0,0
1772202566.977639,1772202566.9184787,659.66796875,796.875,296.38671875,22.4609375,0.0,0,0
1772202566.977651,1772202566.9223733,-770.01953125,-538.57421875,-501.46484375,-35.15625,0.0,0,0
1772202566.977663,1772202566.926268,-1000.0,-1000.0,-530.76171875,-52.24609375,0.0,0,0
1772202566.977729,1772202566.9301627,312.01171875,-287.109375,233.3984375,-0.48828125,0.0,0,0
1772202566.9777439,1772202566.9340572,-853.02734375,-983.88671875,750.9765625,64.453125,0.0,0,0
1772202566.977783,1772202566.9379518,773.4375,847.65625,343.75,54.6875,0.0,0,0
1772202566.9778051,1772202566.9418464,-594.7265625,-559.5703125,-477.05078125,-25.390625,0.0,0,0
1772202566.9778318,1772202566.945741,-1000.0,-1000.0,-620.60546875,-102.05078125,0.0,0,0
1772202567.023388,1772202566.9498231,15.625,-573.73046875,92.7734375,-51.7578125,0.0,0,0
1772202567.023415,1772202566.9537177,-899.4140625,861.328125,686.03515625,43.9453125,0.0,0,0
1772202567.023424,1772202566.9576125,815.91796875,973.6328125,397.4609375,49.31640625,0.0,0,0
1772202567.023433,1772202566.961507,-549.31640625,-457.03125,-423.828125,-37.109375,0.0,0,0
1772202567.023442,1772202566.9654016,-1000.0,-1000.0,-708.984375,-80.078125,0.0,0,0
1772202567.0234501,1772202566.9692965,-311.03515625,-691.89453125,-35.15625,-46.875,0.0,0,0
1772202567.023458,1772202566.973191,-994.140625,748.53515625,630.859375,20.99609375,0.0,0,0
1772202567.023506,1772202566.9770856,850.09765625,-948.73046875,415.0390625,64.94140625,0.0,0,0
1772202567.023516,1772202566.9809804,-561.5234375,-374.0234375,-382.32421875,-6.34765625,0.0,0,0
1772202567.023565,1772202566.984875,-1000.0,-1000.0,-763.18359375,-105.95703125,0.0,0,0
1772202567.0235982,1772202566.9887695,-609.375,-823.73046875,-187.01171875,-103.515625,0.0,0,0
1772202567.023608,1772202566.9926643,836.9140625,544.921875,584.47265625,-7.8125,0.0,0,0
1772202567.068293,1772202566.9967332,979.00390625,-840.8203125,508.30078125,44.43359375,0.0,0,0
1772202567.068326,1772202567.000628,-465.8203125,-93.26171875,-280.76171875,-21.484375,0.0,0,0
1772202567.068336,1772202567.0045226,-1000.0,-1000.0,-757.8125,-102.5390625,0.0,0,0
1772202567.068345,1772202567.0084171,-770.99609375,-843.75,-298.33984375,-102.05078125,0.0,0,0
1772202567.0683541,1772202567.012312,647.4609375,514.16015625,535.64453125,-20.01953125,0.0,0,0
1772202567.068362,1772202567.0162065,-903.3203125,-812.5,597.16796875,37.109375,0.0,0,0
1772202567.068371,1772202567.0201013,-309.08203125,262.6953125,-181.640625,-7.32421875,0.0,0,0
1772202567.068379,1772202567.0239959,-1000.0,-1000.0,-739.74609375,-64.94140625,0.0,0,0
1772202567.068392,1772202567.0278907,-833.49609375,-880.859375,-363.76953125,-86.9140625,0.0,0,0
1772202567.068414,1772202567.0317852,526.85546875,527.34375,473.14453125,-27.34375,0.0,0,0
1772202567.068435,1772202567.03568,-831.54296875,-822.265625,637.6953125,34.1796875,0.0,0,0
1772202567.068481,1772202567.0395746,-12.20703125,562.5,-63.96484375,10.7421875,0.0,0,0
1772202567.113536,1772202567.043632,-1000.0,-873.53515625,-685.05859375,-46.38671875,0.0,0,0
1772202567.1135669,1772202567.0475268,-856.93359375,-1000.0,-457.51953125,-72.265625,0.0,0,0
1772202567.113578,1772202567.0514216,522.4609375,405.2734375,388.671875,-3.41796875,0.0,0,0
1772202567.113589,1772202567.0553162,-814.94140625,-834.47265625,704.58984375,68.84765625,0.0,0,0
1772202567.1136,1772202567.059211,221.6796875,584.9609375,4.39453125,36.1328125,0.0,0,0
1772202567.11361,1772202567.0631056,-1000.0,-756.34765625,-682.6171875,-30.2734375,0.0,0,0
1772202567.113621,1772202567.0670004,-919.921875,-1000.0,-523.4375,-63.96484375,0.0,0,0
1772202567.113631,1772202567.070895,452.63671875,187.01171875,257.8125,-13.671875,0.0,0,0
1772202567.113641,1772202567.0747898,-816.89453125,-858.3984375,674.8046875,62.01171875,0.0,0,0
1772202567.113654,1772202567.0786846,589.35546875,795.41015625,137.20703125,41.50390625,0.0,0,0
1772202567.113664,1772202567.0825791,-833.984375,-559.5703125,-652.83203125,-34.66796875,0.0,0,0
1772202567.113675,1772202567.086474,-1000.0,-1000.0,-620.1171875,-70.80078125,0.0,0,0
1772202567.188896,1772202567.0907195,325.1953125,-134.765625,177.734375,-24.90234375,0.0,0,0
1772202567.188939,1772202567.0946143,-840.33203125,-935.546875,653.3203125,39.0625,0.0,0,0
1772202567.188957,1772202567.098509,726.07421875,831.0546875,215.33203125,38.57421875,0.0,0,0
1772202567.188986,1772202567.1024039,-662.59765625,-553.22265625,-585.44921875,-34.66796875,0.0,0,0
1772202567.189003,1772202567.1062984,-1000.0,-1000.0,-706.0546875,-89.35546875,0.0,0,0
1772202567.189018,1772202567.1101933,90.8203125,-429.6875,25.390625,-58.10546875,0.0,0,0
1772202567.189065,1772202567.114088,-881.8359375,949.21875,590.8203125,-0.9765625,0.0,0,0
1772202567.189085,1772202567.1179829,804.19921875,900.87890625,283.69140625,21.97265625,0.0,0,0
1772202567.1891,1772202567.1218777,-550.78125,-524.90234375,-493.65234375,-56.640625,0.0,0,0
1772202567.189204,1772202567.1257725,-1000.0,-1000.0,-746.58203125,-134.765625,0.0,0,0
1772202567.189234,1772202567.1296673,-276.85546875,-698.2421875,-84.47265625,-104.00390625,0.0,0,0
1772202567.18925,1772202567.1335618,-982.421875,755.37109375,579.58984375,-33.203125,0.0,0,0
1772202567.20352,1772202567.1376042,846.6796875,-976.5625,361.81640625,1.46484375,0.0,0,0
1772202567.203548,1772202567.141499,-559.5703125,-429.6875,-419.43359375,-66.89453125,0.0,0,0
1772202567.2035599,1772202567.1453938,-1000.0,-1000.0,-753.90625,-135.7421875,0.0,0,0
1772202567.2035708,1772202567.1492887,-558.59375,-770.5078125,-173.828125,-92.28515625,0.0,0,0
1772202567.203582,1772202567.1531835,875.0,620.60546875,512.6953125,-6.8359375,0.0,0,0
1772202567.203593,1772202567.1570783,948.73046875,-864.74609375,409.66796875,39.0625,0.0,0,0
1772202567.203605,1772202567.160973,-492.67578125,-165.0390625,-354.00390625,-18.5546875,0.0,0,0
1772202567.203616,1772202567.1648679,-1000.0,-1000.0,-806.640625,-100.5859375,0.0,0,0
1772202567.203627,1772202567.1687627,-703.61328125,-828.61328125,-333.0078125,-89.84375,0.0,0,0
1772202567.203649,1772202567.1726575,716.796875,501.953125,453.125,-0.48828125,0.0,0,0
1772202567.203666,1772202567.1765523,-919.43359375,-809.5703125,487.79296875,74.21875,0.0,0,0
1772202567.203678,1772202567.180447,-305.17578125,393.06640625,-236.328125,60.05859375,0.0,0,0
1772202567.248448,1772202567.1844711,-1000.0,-995.60546875,-766.6015625,-28.3203125,0.0,0,0
1772202567.248489,1772202567.188366,-814.94140625,-902.83203125,-438.96484375,-64.453125,0.0,0,0
1772202567.248505,1772202567.1922607,548.33984375,537.59765625,357.91015625,19.53125,0.0,0,0
1772202567.24852,1772202567.1961555,-833.984375,-825.68359375,532.71484375,90.8203125,0.0,0,0
1772202567.248534,1772202567.2000504,0.9765625,554.19921875,-154.78515625,43.45703125,0.0,0,0
1772202567.248547,1772202567.2039454,-1000.0,-890.13671875,-753.41796875,-30.2734375,0.0,0,0
1772202567.2485602,1772202567.2078402,-850.09765625,-996.58203125,-510.7421875,-39.55078125,0.0,0,0
1772202567.248574,1772202567.211735,513.18359375,448.2421875,297.36328125,30.2734375,0.0,0,0
1772202567.248587,1772202567.2156298,-813.96484375,-839.35546875,589.35546875,101.5625,0.0,0,0
1772202567.248599,1772202567.2195246,398.92578125,689.453125,-25.87890625,77.63671875,0.0,0,0
1772202567.2486122,1772202567.2234194,-991.69921875,-749.0234375,-682.12890625,-6.34765625,0.0,0,0
1772202567.2486248,1772202567.2273142,-902.34375,-1000.0,-522.94921875,-31.25,0.0,0,0
1772202567.30689,1772202567.2313244,539.55078125,339.35546875,254.8828125,-22.94921875,0.0,0,0
1772202567.30692,1772202567.2352192,-839.35546875,-862.79296875,636.23046875,-26.3671875,0.0,0,0
1772202567.3069382,1772202567.239114,641.6015625,812.01171875,109.86328125,-58.10546875,0.0,0,0
1772202567.306955,1772202567.2430089,-814.94140625,-568.359375,-641.6015625,-131.8359375,0.0,0,0
1772202567.3069718,1772202567.2469037,-1000.0,-1000.0,-613.28125,-160.15625,0.0,0,0
1772202567.307013,1772202567.2507985,425.78125,152.34375,160.64453125,-100.5859375,0.0,0,0
1772202567.3070421,1772202567.2546935,-851.5625,-869.140625,593.26171875,-39.0625,0.0,0,0
1772202567.30706,1772202567.2585883,745.1171875,798.828125,129.8828125,-30.2734375,0.0,0,0
1772202567.3070772,1772202567.2624831,-665.0390625,-538.57421875,-624.0234375,-81.0546875,0.0,0,0
1772202567.307093,1772202567.266378,-1000.0,-1000.0,-668.45703125,-120.1171875,0.0,0,0
1772202567.307109,1772202567.2702727,248.53515625,-324.70703125,62.5,-55.6640625,0.0,0,0
1772202567.307125,1772202567.2741675,-859.375,994.140625,602.5390625,38.57421875,0.0,0,0
1772202567.3549628,1772202567.2782638,798.828125,875.9765625,284.1796875,55.6640625,0.0,0,0
1772202567.3550022,1772202567.2821586,-554.6875,-525.390625,-500.0,-24.4140625,0.0,0,0
1772202567.3550248,1772202567.2860537,-1000.0,-1000.0,-721.19140625,-89.35546875,0.0,0,0
1772202567.355053,1772202567.2899485,-85.44921875,-624.51171875,-54.19921875,-46.38671875,0.0,0,0
1772202567.355077,1772202567.2938433,-923.828125,808.10546875,569.82421875,27.34375,0.0,0,0
1772202567.355106,1772202567.297738,821.77734375,-972.16796875,352.05078125,49.31640625,0.0,0,0
1772202567.3551302,1772202567.3016331,-547.8515625,-378.90625,-429.19921875,-10.7421875,0.0,0,0
1772202567.355154,1772202567.305528,-1000.0,-1000.0,-762.6953125,-76.66015625,0.0,0,0
1772202567.355177,1772202567.3094227,-474.609375,-771.97265625,-160.15625,-56.640625,0.0,0,0
1772202567.355201,1772202567.3133178,927.734375,643.06640625,535.15625,12.6953125,0.0,0,0
1772202567.3552241,1772202567.3172126,912.109375,-885.25390625,407.2265625,53.22265625,0.0,0,0
1772202567.355247,1772202567.3211074,-521.97265625,-265.13671875,-332.03125,-5.37109375,0.0,0,0
1772202567.39963,1772202567.3251922,-1000.0,-1000.0,-744.140625,-80.078125,0.0,0,0
1772202567.399677,1772202567.3290873,-679.19921875,-837.890625,-269.04296875,-89.35546875,0.0,0,0
1772202567.399709,1772202567.332982,761.71875,521.97265625,486.328125,-33.69140625,0.0,0,0
1772202567.39974,1772202567.336877,-964.84375,-826.66015625,464.35546875,11.71875,0.0,0,0
1772202567.399821,1772202567.340772,-394.53125,13.671875,-299.8046875,-63.96484375,0.0,0,0
1772202567.3999171,1772202567.344667,-1000.0,-1000.0,-779.296875,-142.578125,0.0,0,0
1772202567.399969,1772202567.3485618,-797.8515625,-852.05078125,-391.6015625,-124.51171875,0.0,0,0
1772202567.400005,1772202567.3524568,584.9609375,515.13671875,401.3671875,-49.8046875,0.0,0,0
1772202567.400036,1772202567.3563516,-857.421875,-812.01171875,541.50390625,1.953125,0.0,0,0
1772202567.400067,1772202567.3602467,-145.01953125,382.8125,-165.0390625,-44.921875,0.0,0,0
1772202567.4001338,1772202567.3641415,-1000.0,-988.76953125,-744.62890625,-113.76953125,0.0,0,0
1772202567.400179,1772202567.3680365,-839.84375,-928.22265625,-461.9140625,-108.88671875,0.0,0,0
1772202567.4464471,1772202567.37211,513.18359375,495.1171875,335.44921875,-35.15625,0.0,0,0
1772202567.446572,1772202567.376005,-814.94140625,-835.9375,581.54296875,25.87890625,0.0,0,0
1772202567.44663,1772202567.3799,221.6796875,659.66796875,-66.40625,9.765625,0.0,0,0
1772202567.446919,1772202567.3837948,-1000.0,-799.8046875,-718.75,-53.22265625,0.0,0,0
1772202567.4469771,1772202567.3876898,-875.48828125,-1000.0,-522.4609375,-88.37890625,0.0,0,0
1772202567.4470289,1772202567.3915846,524.4140625,422.36328125,273.92578125,-47.8515625,0.0,0,0
1772202567.4470851,1772202567.3954797,-823.2421875,-853.02734375,598.14453125,5.37109375,0.0,0,0
1772202567.447135,1772202567.3993747,551.26953125,757.8125,30.2734375,-3.41796875,0.0,0,0
1772202567.4471848,1772202567.4032695,-893.06640625,-616.2109375,-679.19921875,-58.59375,0.0,0,0
1772202567.447244,1772202567.4071646,-988.28125,-1000.0,-612.3046875,-95.703125,0.0,0,0
1772202567.447381,1772202567.4110594,462.40234375,76.66015625,145.99609375,-45.8984375,0.0,0,0
1772202567.4474611,1772202567.4149544,-845.21484375,-884.765625,599.609375,32.71484375,0.0,0,0
1772202567.489581,1772202567.4190145,708.0078125,818.359375,130.37109375,24.90234375,0.0,0,0
1772202567.489663,1772202567.4229093,-717.28515625,-557.6171875,-654.78515625,-64.453125,0.0,0,0
1772202567.489703,1772202567.4268043,-1000.0,-1000.0,-687.98828125,-97.65625,0.0,0,0
1772202567.4897401,1772202567.4306993,294.43359375,-125.9765625,44.43359375,-51.7578125,0.0,0,0
1772202567.4897768,1772202567.4345942,-854.00390625,-932.6171875,547.8515625,-2.44140625,0.0,0,0
1772202567.489815,1772202567.4384892,777.34375,821.77734375,199.21875,7.8125,0.0,0,0
1772202567.489851,1772202567.4423842,-580.078125,-546.875,-599.609375,-45.41015625,0.0,0,0
1772202567.489887,1772202567.4462793,-1000.0,-1000.0,-767.578125,-102.05078125,0.0,0,0
1772202567.489923,1772202567.450174,-57.6171875,-627.9296875,-65.91796875,-66.40625,0.0,0,0
1772202567.489959,1772202567.4540691,-916.9921875,833.984375,546.875,28.80859375,0.0,0,0
1772202567.489994,1772202567.4579642,819.3359375,968.26171875,294.43359375,48.828125,0.0,0,0
1772202567.49003,1772202567.4618592,-547.36328125,-493.1640625,-489.2578125,-41.9921875,0.0,0,0
1772202567.533791,1772202567.4659057,-1000.0,-1000.0,-788.57421875,-126.953125,0.0,0,0
1772202567.533844,1772202567.4698007,-446.77734375,-746.58203125,-176.26953125,-82.51953125,0.0,0,0
1772202567.533869,1772202567.4736958,951.171875,675.78125,509.765625,-0.9765625,0.0,0,0
1772202567.533893,1772202567.4775908,875.48828125,-910.15625,362.79296875,18.06640625,0.0,0,0
1772202567.533918,1772202567.4814856,-568.359375,-316.40625,-396.97265625,-34.1796875,0.0,0,0
1772202567.533941,1772202567.4853806,-1000.0,-1000.0,-792.48046875,-103.02734375,0.0,0,0
1772202567.533963,1772202567.4892757,-676.26953125,-837.890625,-302.734375,-92.28515625,0.0,0,0
1772202567.533987,1772202567.4931707,778.3203125,523.4375,458.0078125,-30.2734375,0.0,0,0
1772202567.534056,1772202567.4970658,-993.65234375,-831.0546875,434.08203125,19.04296875,0.0,0,0
1772202567.534101,1772202567.5009608,-448.2421875,-34.1796875,-312.01171875,-10.7421875,0.0,0,0
1772202567.5341282,1772202567.5048559,-1000.0,-1000.0,-785.64453125,-81.54296875,0.0,0,0
1772202567.5341508,1772202567.5087507,-772.4609375,-846.19140625,-373.53515625,-93.75,0.0,0,0
1772202567.5825222,1772202567.5127885,632.32421875,512.6953125,430.17578125,-12.6953125,0.0,0,0
1772202567.582599,1772202567.5166836,-883.30078125,-811.5234375,511.23046875,36.62109375,0.0,0,0
1772202567.582628,1772202567.5205786,-247.55859375,363.76953125,-193.84765625,-22.94921875,0.0,0,0
1772202567.582653,1772202567.5244737,-1000.0,-1000.0,-740.234375,-93.75,0.0,0,0
1772202567.582677,1772202567.5283687,-833.49609375,-908.69140625,-451.171875,-112.3046875,0.0,0,0
1772202567.582701,1772202567.5322638,512.6953125,516.6015625,373.046875,-46.875,0.0,0,0
1772202567.582727,1772202567.5361588,-817.87109375,-822.75390625,587.40234375,39.0625,0.0,0,0
1772202567.582755,1772202567.5400538,134.765625,577.1484375,-100.5859375,35.64453125,0.0,0,0
1772202567.582783,1772202567.543949,-1000.0,-859.86328125,-732.91015625,-50.29296875,0.0,0,0
1772202567.582807,1772202567.547844,-865.234375,-1000.0,-522.4609375,-84.47265625,0.0,0,0
1772202567.582832,1772202567.551739,519.53125,379.39453125,280.2734375,-22.94921875,0.0,0,0
1772202567.582856,1772202567.555634,-816.89453125,-840.8203125,615.72265625,47.8515625,0.0,0,0
1772202567.624613,1772202567.5596557,472.16796875,724.12109375,30.2734375,27.83203125,0.0,0,0
1772202567.624724,1772202567.5635507,-946.2890625,-691.89453125,-666.015625,-32.71484375,0.0,0,0
1772202567.6247838,1772202567.5674458,-950.1953125,-1000.0,-565.4296875,-74.21875,0.0,0,0
1772202567.624825,1772202567.5713408,492.1875,240.234375,209.47265625,-6.8359375,0.0,0,0
1772202567.624862,1772202567.5752358,-837.40234375,-859.375,633.30078125,100.5859375,0.0,0,0
1772202567.6249,1772202567.579131,660.64453125,802.734375,160.64453125,94.23828125,0.0,0,0
1772202567.624937,1772202567.583026,-772.94921875,-550.29296875,-618.65234375,40.52734375,0.0,0,0
1772202567.624974,1772202567.586921,-1000.0,-1000.0,-652.83203125,32.71484375,0.0,0,0
1772202567.62501,1772202567.590816,330.078125,-83.984375,105.46875,58.10546875,0.0,0,0
1772202567.625045,1772202567.5947113,-852.05078125,-921.875,607.421875,113.28125,0.0,0,0
1772202567.625081,1772202567.5986063,770.5078125,819.3359375,213.37890625,124.0234375,0.0,0,0
1772202567.6251168,1772202567.6025014,-604.00390625,-544.921875,-574.70703125,48.828125,0.0,0,0
1772202567.685366,1772202567.606516,-1000.0,-1000.0,-711.9140625,-5.37109375,0.0,0,0
1772202567.685492,1772202567.610411,60.546875,-528.3203125,-17.578125,34.1796875,0.0,0,0
1772202567.685545,1772202567.614306,-887.6953125,907.2265625,577.1484375,107.421875,0.0,0,0
1772202567.685667,1772202567.618201,809.08203125,919.921875,310.05859375,114.74609375,0.0,0,0
1772202567.685747,1772202567.622096,-545.41015625,-529.78515625,-509.27734375,42.96875,0.0,0,0
1772202567.685803,1772202567.6259913,-1000.0,-1000.0,-770.01953125,-31.73828125,0.0,0,0
1772202567.6858602,1772202567.6298864,-320.3125,-710.9375,-132.8125,-6.34765625,0.0,0,0
1772202567.68591,1772202567.6337814,-996.09375,734.375,506.34765625,88.8671875,0.0,0,0
1772202567.685961,1772202567.6376765,852.05078125,-957.03125,323.2421875,118.65234375,0.0,0,0
1772202567.686014,1772202567.6415715,-562.5,-397.4609375,-437.98828125,45.41015625,0.0,0,0
1772202567.6860642,1772202567.6454666,-1000.0,-1000.0,-794.921875,-33.203125,0.0,0,0
1772202567.6861298,1772202567.6493618,-589.84375,-791.9921875,-229.4921875,-12.6953125,0.0,0,0
1772202567.729964,1772202567.6533768,851.5625,595.703125,498.53515625,62.98828125,0.0,0,0
1772202567.7301152,1772202567.6572719,967.7734375,-858.88671875,419.43359375,77.63671875,0.0,0,0
1772202567.730175,1772202567.661167,-475.09765625,-156.73828125,-329.58984375,20.01953125,0.0,0,0
1772202567.730228,1772202567.665062,-1000.0,-1000.0,-801.7578125,-45.8984375,0.0,0,0
1772202567.7302809,1772202567.6689572,-736.81640625,-837.40234375,-353.515625,-43.45703125,0.0,0,0
1772202567.7303329,1772202567.6728523,683.59375,511.71875,451.171875,22.94921875,0.0,0,0
1772202567.7303839,1772202567.6767473,-909.1796875,-812.98828125,475.5859375,60.546875,0.0,0,0
1772202567.730442,1772202567.6806424,-302.734375,233.3984375,-251.46484375,25.87890625,0.0,0,0
1772202567.7305431,1772202567.6845376,-1000.0,-1000.0,-771.484375,-39.0625,0.0,0,0
1772202567.730607,1772202567.6884327,-829.1015625,-876.953125,-444.82421875,-49.31640625,0.0,0,0
1772202567.730669,1772202567.6923277,531.73828125,525.390625,367.67578125,30.2734375,0.0,0,0
1772202567.73072,1772202567.6962228,-831.0546875,-821.2890625,543.45703125,74.21875,0.0,0,0
1772202567.7905412,1772202567.7004058,-4.39453125,548.33984375,-154.78515625,36.1328125,0.0,0,0
1772202567.790665,1772202567.704301,-1000.0,-908.203125,-753.90625,-24.4140625,0.0,0,0
1772202567.790708,1772202567.7081962,-851.07421875,-965.33203125,-507.32421875,-41.50390625,0.0,0,0
1772202567.790748,1772202567.7120914,514.6484375,500.9765625,266.11328125,16.11328125,0.0,0,0
1772202567.790786,1772202567.7159865,-813.4765625,-851.5625,560.05859375,91.30859375,0.0,0,0
1772202567.790823,1772202567.7198818,359.86328125,725.5859375,-34.66796875,62.98828125,0.0,0,0
1772202567.79086,1772202567.7237768,-1000.0,-691.89453125,-742.67578125,-14.6484375,0.0,0,0
1772202567.791105,1772202567.727672,-911.1328125,-1000.0,-603.02734375,-30.2734375,0.0,0,0
1772202567.791146,1772202567.7315671,512.20703125,271.484375,191.40625,17.08984375,0.0,0,0
1772202567.791182,1772202567.7354624,-827.1484375,-855.95703125,588.8671875,72.75390625,0.0,0,0
1772202567.79122,1772202567.7393575,601.5625,791.015625,67.87109375,45.8984375,0.0,0,0
1772202567.791255,1772202567.7432528,-832.51953125,-566.89453125,-691.89453125,-33.69140625,0.0,0,0
1772202567.820069,1772202567.7473176,-1000.0,-1000.0,-665.0390625,-75.1953125,0.0,0,0
1772202567.8201752,1772202567.7512126,354.98046875,-52.24609375,97.16796875,-63.96484375,0.0,0,0
1772202567.820229,1772202567.7551079,-845.21484375,-914.55078125,581.54296875,-10.7421875,0.0,0,0
1772202567.820281,1772202567.759003,738.76953125,824.21875,161.1328125,42.96875,0.0,0,0
1772202567.820331,1772202567.7628982,-657.2265625,-552.24609375,-631.8359375,-5.37109375,0.0,0,0
1772202567.8203819,1772202567.7667935,-1000.0,-1000.0,-729.00390625,-67.3828125,0.0,0,0
1772202567.82043,1772202567.7706885,148.4375,-331.54296875,-11.71875,-41.015625,0.0,0,0
1772202567.82048,1772202567.7745838,-871.58203125,-999.51171875,534.66796875,38.0859375,0.0,0,0
1772202567.82053,1772202567.7784789,796.38671875,852.5390625,216.796875,96.19140625,0.0,0,0
1772202567.820579,1772202567.7823741,-551.7578125,-565.4296875,-566.89453125,22.94921875,0.0,0,0
1772202567.820629,1772202567.7862692,-1000.0,-1000.0,-795.41015625,-84.9609375,0.0,0,0
1772202567.8206751,1772202567.7901645,-258.7890625,-688.96484375,-126.953125,-54.19921875,0.0,0,0
1772202567.865537,1772202567.7942224,-976.5625,766.11328125,541.9921875,27.83203125,0.0,0,0
1772202567.86566,1772202567.7981176,842.28515625,-984.375,322.265625,64.453125,0.0,0,0
1772202567.8657112,1772202567.8020127,-557.6171875,-446.77734375,-474.12109375,10.7421875,0.0,0,0
1772202567.8657632,1772202567.805908,-1000.0,-1000.0,-822.75390625,-74.70703125,0.0,0,0
1772202567.865814,1772202567.8098032,-616.2109375,-834.9609375,-261.23046875,-55.17578125,0.0,0,0
1772202567.865864,1772202567.8136985,863.28125,579.58984375,492.1875,24.90234375,0.0,0,0
1772202567.8659132,1772202567.8175936,909.66796875,-899.4140625,388.18359375,50.78125,0.0,0,0
1772202567.865962,1772202567.8214889,-586.9140625,-343.26171875,-387.20703125,-10.25390625,0.0,0,0
1772202567.866017,1772202567.8253841,-1000.0,-1000.0,-823.2421875,-86.42578125,0.0,0,0
1772202567.8660638,1772202567.8292792,-827.1484375,-840.33203125,-366.2109375,-72.265625,0.0,0,0
1772202567.8661141,1772202567.8331745,634.27734375,527.83203125,422.8515625,16.6015625,0.0,0,0
1772202567.866163,1772202567.8370697,-991.2109375,-837.40234375,433.59375,81.0546875,0.0,0,0
1772202567.909714,1772202567.8411129,-520.5078125,-96.6796875,-307.12890625,38.0859375,0.0,0,0
1772202567.909801,1772202567.8450081,-1000.0,-1000.0,-813.4765625,-33.69140625,0.0,0,0
1772202567.909843,1772202567.8489034,-844.7265625,-839.35546875,-456.54296875,-55.17578125,0.0,0,0
1772202567.909882,1772202567.8527987,537.109375,490.72265625,374.0234375,10.7421875,0.0,0,0
1772202567.9099221,1772202567.856694,-865.234375,-807.12890625,528.3203125,64.94140625,0.0,0,0
1772202567.909958,1772202567.8605893,-240.72265625,486.328125,-186.03515625,36.62109375,0.0,0,0
1772202567.909997,1772202567.8644843,-1000.0,-920.8984375,-799.31640625,-45.41015625,0.0,0,0
1772202567.910034,1772202567.8683796,-822.265625,-1000.0,-548.33984375,-89.35546875,0.0,0,0
1772202567.910079,1772202567.8722749,498.53515625,400.390625,277.34375,-16.6015625,0.0,0,0
1772202567.910122,1772202567.8761702,-810.05859375,-829.58984375,559.5703125,59.5703125,0.0,0,0
1772202567.9101682,1772202567.8800654,364.2578125,669.921875,-82.03125,9.27734375,0.0,0,0
1772202567.9102159,1772202567.8839605,-1000.0,-770.5078125,-755.859375,-64.94140625,0.0,0,0
1772202567.954622,1772202567.8879924,-896.484375,-1000.0,-589.84375,-94.7265625,0.0,0,0
1772202567.954734,1772202567.8918877,537.109375,334.9609375,213.37890625,-46.38671875,0.0,0,0
1772202567.954787,1772202567.895783,-840.8203125,-859.86328125,604.98046875,18.06640625,0.0,0,0
1772202567.954839,1772202567.8996782,651.85546875,801.7578125,50.78125,9.27734375,0.0,0,0
1772202567.954889,1772202567.9035735,-815.4296875,-569.82421875,-729.98046875,-43.9453125,0.0,0,0
1772202567.9549398,1772202567.9074688,-1000.0,-1000.0,-675.78125,-51.7578125,0.0,0,0
1772202567.954989,1772202567.911364,462.40234375,88.8671875,92.28515625,20.99609375,0.0,0,0
1772202567.955039,1772202567.9152594,-866.2109375,-881.34765625,548.828125,85.44921875,0.0,0,0
1772202567.955088,1772202567.9191546,789.0625,812.5,109.375,47.8515625,0.0,0,0
1772202567.955137,1772202567.92305,-615.72265625,-551.26953125,-693.84765625,-41.9921875,0.0,0,0
1772202567.95519,1772202567.9269452,-1000.0,-1000.0,-754.8828125,-73.2421875,0.0,0,0
1772202567.9552379,1772202567.9308405,270.01953125,-198.2421875,5.37109375,5.37109375,0.0,0,0
1772202567.9989738,1772202567.9348545,-859.375,-971.19140625,548.33984375,88.37890625,0.0,0,0
1772202567.999064,1772202567.9387498,800.78125,878.41796875,217.7734375,77.1484375,0.0,0,0
1772202567.999103,1772202567.942645,-549.31640625,-483.88671875,-578.125,-11.23046875,0.0,0,0
1772202567.99914,1772202567.9465404,-1000.0,-1000.0,-799.8046875,-96.19140625,0.0,0,0
1772202567.999176,1772202567.9504356,-83.49609375,-584.47265625,-109.375,-87.40234375,0.0,0,0
1772202567.999212,1772202567.954331,-922.8515625,854.4921875,520.01953125,-20.5078125,0.0,0,0
1772202567.999249,1772202567.9582262,822.75390625,981.93359375,255.37109375,2.9296875,0.0,0,0
1772202567.999286,1772202567.9621215,-549.31640625,-449.21875,-562.98828125,-66.89453125,0.0,0,0
1772202567.9993222,1772202567.9660168,-1000.0,-1000.0,-878.41796875,-121.09375,0.0,0,0
1772202567.999358,1772202567.969912,-435.546875,-730.95703125,-259.765625,-91.796875,0.0,0,0
1772202567.999394,1772202567.9738073,932.6171875,683.10546875,460.9375,-27.34375,0.0,0,0
1772202567.999438,1772202567.9777026,935.05859375,-896.97265625,327.63671875,13.671875,0.0,0,0
1772202568.087121,1772202567.9817045,-467.7734375,-268.5546875,-467.28515625,-33.203125,0.0,0,0
1772202568.087272,1772202567.9855998,-1000.0,-1000.0,-893.06640625,-87.40234375,0.0,0,0
1772202568.087332,1772202567.9894953,-664.55078125,-811.5234375,-365.72265625,-71.77734375,0.0,0,0
1772202568.0873861,1772202567.9933906,752.9296875,524.90234375,432.6171875,-3.90625,0.0,0,0
1772202568.087438,1772202567.9972858,-925.29296875,-815.91796875,401.3671875,48.828125,0.0,0,0
1772202568.0874891,1772202568.0011811,-294.921875,215.33203125,-335.44921875,8.7890625,0.0,0,0
1772202568.08754,1772202568.0050764,-1000.0,-1000.0,-838.8671875,-80.078125,0.0,0,0
1772202568.08758,1772202568.0089717,-804.19921875,-883.7890625,-449.21875,-90.33203125,0.0,0,0
1772202568.087617,1772202568.012867,562.5,532.71484375,393.5546875,-12.20703125,0.0,0,0
1772202568.0876532,1772202568.0167623,-835.9375,-816.89453125,493.65234375,35.15625,0.0,0,0
1772202568.0876899,1772202568.0206575,0.48828125,332.03125,-247.0703125,-15.13671875,0.0,0,0
1772202568.08773,1772202568.024553,-1000.0,-1000.0,-817.87109375,-70.3125,0.0,0,0
1772202568.1034088,1772202568.0285497,-849.609375,-890.625,-503.41796875,-81.54296875,0.0,0,0
1772202568.103512,1772202568.032445,513.18359375,534.1796875,332.51953125,-28.80859375,0.0,0,0
1772202568.103571,1772202568.0363402,-813.4765625,-835.44921875,559.5703125,23.4375,0.0,0,0
1772202568.103626,1772202568.0402355,392.578125,634.27734375,-117.1875,-4.39453125,0.0,0,0
1772202568.103678,1772202568.044131,-995.1171875,-820.80078125,-779.78515625,-52.734375,0.0,0,0
1772202568.103729,1772202568.0480263,-901.3671875,-1000.0,-566.40625,-66.89453125,0.0,0,0
1772202568.103779,1772202568.0519216,539.0625,420.8984375,234.86328125,-0.48828125,0.0,0,0
1772202568.103829,1772202568.055817,-839.84375,-855.46875,579.58984375,77.1484375,0.0,0,0
1772202568.1038878,1772202568.0597122,645.99609375,768.06640625,-1.953125,29.296875,0.0,0,0
1772202568.1039538,1772202568.0636075,-809.5703125,-635.7421875,-765.13671875,-38.0859375,0.0,0,0
1772202568.104005,1772202568.067503,-1000.0,-1000.0,-659.66796875,-75.68359375,0.0,0,0
1772202568.1042922,1772202568.0713983,418.9453125,236.81640625,153.3203125,-30.2734375,0.0,0,0
1772202568.1489139,1772202568.0754719,-854.00390625,-858.3984375,587.890625,56.15234375,0.0,0,0
1772202568.149034,1772202568.0793672,758.7890625,798.828125,89.35546875,49.31640625,0.0,0,0
1772202568.1490738,1772202568.0832624,-646.484375,-544.921875,-718.75,-25.87890625,0.0,0,0
1772202568.149112,1772202568.087158,-1000.0,-1000.0,-729.00390625,-82.51953125,0.0,0,0
1772202568.149148,1772202568.0910532,237.3046875,-152.34375,59.08203125,-23.4375,0.0,0,0
1772202568.149184,1772202568.0949485,-858.88671875,-939.94140625,597.65625,74.70703125,0.0,0,0
1772202568.1492212,1772202568.098844,797.8515625,828.61328125,193.359375,57.6171875,0.0,0,0
1772202568.149257,1772202568.1027393,-544.43359375,-549.31640625,-643.5546875,-21.97265625,0.0,0,0
1772202568.1492941,1772202568.1066346,-1000.0,-1000.0,-796.38671875,-65.4296875,0.0,0,0
1772202568.149329,1772202568.11053,-162.109375,-533.69140625,-72.265625,-55.17578125,0.0,0,0
1772202568.149376,1772202568.1144254,-944.3359375,897.4609375,550.29296875,23.92578125,0.0,0,0
1772202568.149429,1772202568.1183207,830.078125,939.94140625,279.78515625,67.3828125,0.0,0,0
1772202568.194527,1772202568.122382,-551.26953125,-499.0234375,-560.05859375,-1.953125,0.0,0,0
1772202568.194678,1772202568.1262772,-1000.0,-1000.0,-874.0234375,-70.3125,0.0,0,0
1772202568.194735,1772202568.1301727,-514.16015625,-690.4296875,-205.56640625,-38.0859375,0.0,0,0
1772202568.1947892,1772202568.134068,900.87890625,728.02734375,512.20703125,30.2734375,0.0,0,0
1772202568.194842,1772202568.1379635,945.3125,-916.015625,315.4296875,75.68359375,0.0,0,0
1772202568.194889,1772202568.1418588,-479.98046875,-292.48046875,-485.3515625,3.41796875,0.0,0,0
1772202568.1949282,1772202568.1457543,-1000.0,-1000.0,-901.3671875,-87.890625,0.0,0,0
1772202568.194963,1772202568.1496496,-696.2890625,-829.1015625,-348.14453125,-52.24609375,0.0,0,0
1772202568.194999,1772202568.153545,734.86328125,553.7109375,474.12109375,36.62109375,0.0,0,0
1772202568.195036,1772202568.1574404,-935.05859375,-845.703125,417.96875,72.75390625,0.0,0,0
1772202568.1950731,1772202568.1613357,-342.28515625,-126.953125,-387.6953125,29.296875,0.0,0,0
1772202568.1951091,1772202568.1652312,-1000.0,-1000.0,-865.72265625,-35.15625,0.0,0,0
1772202568.2713,1772202568.1694813,-820.3125,-836.9140625,-409.1796875,-41.015625,0.0,0,0
1772202568.2714539,1772202568.1733768,549.8046875,508.7890625,431.15234375,40.0390625,0.0,0,0
1772202568.271512,1772202568.1772723,-840.33203125,-810.05859375,498.53515625,93.75,0.0,0,0
1772202568.271565,1772202568.1811678,-78.125,310.546875,-291.9921875,15.13671875,0.0,0,0
1772202568.27162,1772202568.1850631,-1000.0,-1000.0,-879.8828125,-65.91796875,0.0,0,0
1772202568.271669,1772202568.1889586,-838.8671875,-887.6953125,-504.8828125,-80.078125,0.0,0,0
1772202568.27172,1772202568.1928542,507.32421875,531.25,359.86328125,-20.01953125,0.0,0,0
1772202568.27177,1772202568.1967494,-812.01171875,-828.61328125,560.05859375,27.34375,0.0,0,0
1772202568.27182,1772202568.200645,398.4375,599.609375,-152.83203125,-8.7890625,0.0,0,0
1772202568.271871,1772202568.2045405,-992.67578125,-862.3046875,-813.4765625,-60.546875,0.0,0,0
1772202568.271921,1772202568.2084358,-901.85546875,-1000.0,-576.66015625,-76.66015625,0.0,0,0
1772202568.2720032,1772202568.2123313,540.52734375,462.40234375,284.66796875,-35.64453125,0.0,0,0
1772202568.285237,1772202568.2163785,-847.16796875,-863.76953125,637.6953125,28.80859375,0.0,0,0
1772202568.2853398,1772202568.220274,677.734375,783.69140625,4.39453125,15.13671875,0.0,0,0
1772202568.285381,1772202568.2241695,-808.10546875,-639.6484375,-751.46484375,-55.6640625,0.0,0,0
1772202568.28542,1772202568.228065,-990.72265625,-1000.0,-623.046875,-95.21484375,0.0,0,0
1772202568.2854679,1772202568.2319605,520.99609375,331.54296875,225.09765625,-36.1328125,0.0,0,0
1772202568.285509,1772202568.2358558,-871.58203125,-857.91015625,662.109375,46.38671875,0.0,0,0
1772202568.285546,1772202568.2397513,788.0859375,795.8984375,99.609375,43.9453125,0.0,0,0
1772202568.285583,1772202568.2436469,-604.4921875,-542.96875,-729.4921875,-14.16015625,0.0,0,0
1772202568.28562,1772202568.2475424,-1000.0,-1000.0,-722.16796875,-43.45703125,0.0,0,0
1772202568.285654,1772202568.251438,234.375,-117.67578125,86.9140625,4.39453125,0.0,0,0
1772202568.28569,1772202568.2553334,-857.91015625,-930.6640625,624.0234375,74.70703125,0.0,0,0
1772202568.2857249,1772202568.2592287,795.41015625,824.21875,206.0546875,62.01171875,0.0,0,0
1772202568.3292758,1772202568.2632518,-541.50390625,-547.8515625,-648.4375,-14.6484375,0.0,0,0
1772202568.329401,1772202568.2671473,-1000.0,-1000.0,-789.55078125,-70.80078125,0.0,0,0
1772202568.3294451,1772202568.2710428,-207.03125,-512.20703125,-13.671875,-37.109375,0.0,0,0
1772202568.329485,1772202568.2749383,-958.984375,904.296875,600.5859375,34.1796875,0.0,0,0
1772202568.329524,1772202568.2788339,836.9140625,942.3828125,283.69140625,53.7109375,0.0,0,0
1772202568.3295622,1772202568.2827294,-554.6875,-486.81640625,-539.55078125,1.46484375,0.0,0,0
1772202568.329599,1772202568.286625,-1000.0,-1000.0,-828.125,-55.17578125,0.0,0,0
1772202568.3296351,1772202568.2905204,-520.99609375,-693.359375,-137.20703125,-22.94921875,0.0,0,0
1772202568.329674,1772202568.2944157,912.59765625,763.18359375,570.80078125,50.29296875,0.0,0,0
1772202568.32971,1772202568.2983112,909.1796875,-980.95703125,350.5859375,77.63671875,0.0,0,0
1772202568.329762,1772202568.3022068,-542.96875,-440.91796875,-462.890625,24.4140625,0.0,0,0
1772202568.329807,1772202568.3061023,-1000.0,-1000.0,-819.3359375,-53.22265625,0.0,0,0
1772202568.37467,1772202568.310113,-707.03125,-815.91796875,-237.3046875,-37.109375,0.0,0,0
1772202568.374793,1772202568.3140085,729.98046875,571.77734375,513.671875,33.203125,0.0,0,0
1772202568.3748522,1772202568.317904,-945.80078125,-861.81640625,416.50390625,49.31640625,0.0,0,0
1772202568.3749068,1772202568.3217995,-375.48828125,-208.0078125,-380.37109375,-0.9765625,0.0,0,0
1772202568.3749602,1772202568.325695,-1000.0,-1000.0,-841.30859375,-59.08203125,0.0,0,0
1772202568.375011,1772202568.3295906,-826.171875,-837.890625,-345.703125,-53.7109375,0.0,0,0
1772202568.375061,1772202568.333486,556.640625,516.11328125,475.09765625,16.11328125,0.0,0,0
1772202568.375118,1772202568.3373816,-854.98046875,-817.3828125,486.328125,62.98828125,0.0,0,0
1772202568.375169,1772202568.3412771,-170.8984375,119.62890625,-273.4375,12.20703125,0.0,0,0
1772202568.37522,1772202568.3451726,-1000.0,-1000.0,-810.05859375,-63.4765625,0.0,0,0
1772202568.37527,1772202568.3490682,-836.42578125,-859.86328125,-436.03515625,-86.42578125,0.0,0,0
1772202568.37532,1772202568.3529637,510.7421875,516.6015625,421.875,-28.3203125,0.0,0,0
1772202568.432925,1772202568.3569636,-813.4765625,-814.94140625,576.171875,38.0859375,0.0,0,0
1772202568.433088,1772202568.3608592,230.46875,520.01953125,-145.99609375,8.30078125,0.0,0,0
1772202568.433147,1772202568.3647547,-1000.0,-905.76171875,-755.859375,-59.08203125,0.0,0,0
1772202568.4331992,1772202568.3686502,-876.953125,-1000.0,-505.37109375,-87.40234375,0.0,0,0
1772202568.4332569,1772202568.372546,524.90234375,413.57421875,331.0546875,-33.69140625,0.0,0,0
1772202568.4333088,1772202568.3764415,-820.3125,-827.1484375,636.71875,33.203125,0.0,0,0
1772202568.433363,1772202568.380337,535.64453125,652.83203125,-40.0390625,10.7421875,0.0,0,0
1772202568.433412,1772202568.3842325,-894.53125,-774.90234375,-742.1875,-49.31640625,0.0,0,0
1772202568.433463,1772202568.388128,-1000.0,-1000.0,-574.70703125,-74.21875,0.0,0,0
1772202568.4335418,1772202568.3920236,417.48046875,290.0390625,242.67578125,-21.97265625,0.0,0,0
1772202568.43361,1772202568.395919,-833.49609375,-854.00390625,646.484375,45.8984375,0.0,0,0
1772202568.4336598,1772202568.3998146,677.734375,781.73828125,92.7734375,28.3203125,0.0,0,0
1772202568.479111,1772202568.4038947,-740.234375,-573.73046875,-685.546875,-55.17578125,0.0,0,0
1772202568.479211,1772202568.4077902,-1000.0,-1000.0,-661.62109375,-78.125,0.0,0,0
1772202568.479253,1772202568.4116857,253.41796875,-68.359375,119.62890625,-2.9296875,0.0,0,0
1772202568.4794939,1772202568.4155815,-857.91015625,-917.96875,607.421875,58.10546875,0.0,0,0
1772202568.479537,1772202568.419477,794.43359375,823.2421875,170.8984375,54.6875,0.0,0,0
1772202568.479574,1772202568.4233725,-563.4765625,-549.8046875,-647.94921875,-20.01953125,0.0,0,0
1772202568.479611,1772202568.427268,-1000.0,-1000.0,-764.16015625,-57.6171875,0.0,0,0
1772202568.479646,1772202568.4311638,-57.12890625,-398.92578125,-5.37109375,16.11328125,0.0,0,0
1772202568.479684,1772202568.4350593,-916.015625,974.609375,580.56640625,50.78125,0.0,0,0
1772202568.4797199,1772202568.4389548,819.82421875,864.2578125,239.2578125,29.78515625,0.0,0,0
1772202568.479756,1772202568.4428504,-547.8515625,-567.87109375,-596.19140625,-30.76171875,0.0,0,0
1772202568.479794,1772202568.4467459,-1000.0,-1000.0,-828.61328125,-84.9609375,0.0,0,0
1772202568.524513,1772202568.4508135,-429.19921875,-626.46484375,-120.1171875,-47.8515625,0.0,0,0
1772202568.5246332,1772202568.454709,955.078125,802.734375,543.9453125,25.390625,0.0,0,0
1772202568.52469,1772202568.4586048,882.8125,-966.796875,315.91796875,54.6875,0.0,0,0
1772202568.5247412,1772202568.4625003,-550.29296875,-369.140625,-494.62890625,7.32421875,0.0,0,0
1772202568.5247931,1772202568.4663959,-1000.0,-1000.0,-866.69921875,-68.359375,0.0,0,0
1772202568.524843,1772202568.4702916,-666.50390625,-780.76171875,-253.90625,-42.96875,0.0,0,0
1772202568.524893,1772202568.4741871,777.83203125,637.20703125,488.76953125,15.625,0.0,0,0
1772202568.524943,1772202568.4780827,-976.5625,-888.18359375,349.609375,47.36328125,0.0,0,0
1772202568.5249941,1772202568.4819784,-412.109375,-278.3203125,-442.87109375,6.8359375,0.0,0,0
1772202568.525043,1772202568.485874,-1000.0,-1000.0,-894.53125,-76.66015625,0.0,0,0
1772202568.52509,1772202568.4897695,-791.015625,-833.0078125,-400.87890625,-82.03125,0.0,0,0
1772202568.52513,1772202568.4936652,610.3515625,515.13671875,433.59375,-2.9296875,0.0,0,0
1772202568.569251,1772202568.497721,-875.48828125,-819.82421875,441.40625,44.43359375,0.0,0,0
1772202568.56938,1772202568.5016167,-235.83984375,80.56640625,-337.890625,14.16015625,0.0,0,0
1772202568.5694342,1772202568.5055122,-1000.0,-1000.0,-856.93359375,-39.55078125,0.0,0,0
1772202568.5694878,1772202568.509408,-834.47265625,-858.3984375,-467.7734375,-50.78125,0.0,0,0
1772202568.5695412,1772202568.5133035,513.18359375,517.08984375,385.7421875,28.3203125,0.0,0,0
1772202568.569592,1772202568.517199,-817.3828125,-812.5,537.59765625,70.80078125,0.0,0,0
1772202568.569647,1772202568.5210948,132.8125,430.17578125,-226.07421875,17.578125,0.0,0,0
1772202568.569695,1772202568.5249903,-1000.0,-962.40234375,-834.9609375,-48.33984375,0.0,0,0
1772202568.569731,1772202568.528886,-863.28125,-956.0546875,-525.390625,-59.5703125,0.0,0,0
1772202568.569767,1772202568.5327816,517.578125,467.28515625,304.19921875,-11.71875,0.0,0,0
1772202568.569803,1772202568.5366774,-816.40625,-830.56640625,581.54296875,40.52734375,0.0,0,0
1772202568.569843,1772202568.540573,504.8828125,648.4375,-75.1953125,14.6484375,0.0,0,0
1772202568.614344,1772202568.5446181,-928.7109375,-786.1328125,-748.53515625,-47.8515625,0.0,0,0
1772202568.61452,1772202568.548514,-967.7734375,-1000.0,-555.6640625,-76.66015625,0.0,0,0
1772202568.614578,1772202568.5524094,475.5859375,327.63671875,267.578125,-38.0859375,0.0,0,0
1772202568.61462,1772202568.5563052,-835.44921875,-847.16796875,642.08984375,28.3203125,0.0,0,0
1772202568.614659,1772202568.5602007,662.109375,756.34765625,52.734375,13.671875,0.0,0,0
1772202568.6146948,1772202568.5640965,-765.13671875,-620.1171875,-701.66015625,-53.7109375,0.0,0,0
1772202568.614733,1772202568.5679922,-1000.0,-1000.0,-639.16015625,-91.30859375,0.0,0,0
1772202568.614769,1772202568.5718877,299.31640625,41.015625,143.06640625,-46.38671875,0.0,0,0
1772202568.614846,1772202568.5757835,-856.93359375,-891.11328125,619.62890625,16.11328125,0.0,0,0
1772202568.6148832,1772202568.579679,789.0625,812.98828125,166.9921875,11.23046875,0.0,0,0
1772202568.614939,1772202568.5835748,-577.63671875,-547.36328125,-645.99609375,-34.1796875,0.0,0,0
1772202568.6149771,1772202568.5874703,-1000.0,-1000.0,-703.125,-52.24609375,0.0,0,0
1772202568.659706,1772202568.5915067,23.4375,-301.7578125,61.5234375,-35.15625,0.0,0,0
1772202568.659782,1772202568.5954025,-895.99609375,-989.2578125,611.328125,32.2265625,0.0,0,0
1772202568.659822,1772202568.5992982,813.4765625,849.609375,250.9765625,59.08203125,0.0,0,0
1772202568.659859,1772202568.6031938,-546.875,-560.05859375,-589.84375,-29.296875,0.0,0,0
1772202568.6598961,1772202568.6070895,-1000.0,-1000.0,-807.6171875,-86.42578125,0.0,0,0
1772202568.659931,1772202568.6109853,-331.0546875,-579.58984375,-75.68359375,-25.87890625,0.0,0,0
1772202568.659969,1772202568.6148808,-1000.0,870.60546875,563.96484375,51.26953125,0.0,0,0
1772202568.660005,1772202568.6187766,852.5390625,950.68359375,295.41015625,71.77734375,0.0,0,0
1772202568.660052,1772202568.6226723,-562.5,-502.9296875,-511.71875,31.25,0.0,0,0
1772202568.660088,1772202568.6265678,-1000.0,-1000.0,-823.73046875,-12.6953125,0.0,0,0
1772202568.6601229,1772202568.6304636,-621.58203125,-729.00390625,-176.26953125,20.01953125,0.0,0,0
1772202568.660169,1772202568.6343594,826.171875,687.01171875,564.453125,82.51953125,0.0,0,0
1772202568.705765,1772202568.638384,993.1640625,-903.3203125,414.55078125,104.98046875,0.0,0,0
1772202568.7058501,1772202568.6422799,-446.77734375,-287.59765625,-387.20703125,54.19921875,0.0,0,0
1772202568.705908,1772202568.6461756,-1000.0,-1000.0,-799.31640625,2.44140625,0.0,0,0
1772202568.7060301,1772202568.6500711,-764.6484375,-842.28515625,-280.2734375,-9.765625,0.0,0,0
1772202568.7060921,1772202568.653967,651.3671875,528.80859375,522.4609375,24.4140625,0.0,0,0
1772202568.706147,1772202568.6578627,-895.99609375,-835.44921875,507.8125,68.359375,0.0,0,0
1772202568.706198,1772202568.6617584,-289.55078125,-80.078125,-288.0859375,13.18359375,0.0,0,0
1772202568.706249,1772202568.665654,-1000.0,-1000.0,-797.36328125,-55.17578125,0.0,0,0
1772202568.706298,1772202568.6695497,-832.03125,-838.37890625,-371.09375,-21.484375,0.0,0,0
1772202568.706348,1772202568.6734455,513.671875,507.32421875,480.95703125,63.96484375,0.0,0,0
1772202568.706398,1772202568.6773412,-819.82421875,-811.03515625,592.28515625,89.84375,0.0,0,0
1772202568.7064478,1772202568.6812367,87.890625,399.90234375,-156.25,32.2265625,0.0,0,0
1772202568.750048,1772202568.6852548,-1000.0,-992.1875,-754.39453125,-53.7109375,0.0,0,0
1772202568.7501462,1772202568.6891503,-857.421875,-903.80859375,-458.49609375,-86.42578125,0.0,0,0
1772202568.750186,1772202568.693046,515.13671875,538.0859375,384.765625,-21.97265625,0.0,0,0
1772202568.750226,1772202568.6969419,-814.453125,-840.33203125,617.67578125,30.76171875,0.0,0,0
1772202568.750263,1772202568.7008376,478.02734375,656.73828125,-74.21875,-12.6953125,0.0,0,0
1772202568.7503,1772202568.7047334,-946.2890625,-778.3203125,-726.5625,-83.49609375,0.0,0,0
1772202568.750336,1772202568.7086291,-950.68359375,-1000.0,-527.34375,-109.375,0.0,0,0
1772202568.75038,1772202568.712525,492.67578125,333.0078125,311.03515625,-20.99609375,0.0,0,0
1772202568.750419,1772202568.7164204,-834.47265625,-843.26171875,677.734375,62.01171875,0.0,0,0
1772202568.750456,1772202568.7203162,646.97265625,742.1875,61.03515625,15.13671875,0.0,0,0
1772202568.7505019,1772202568.724212,-787.59765625,-662.109375,-692.3828125,-62.5,0.0,0,0
1772202568.750558,1772202568.7281077,-1000.0,-1000.0,-595.703125,-69.82421875,0.0,0,0
1772202568.811042,1772202568.732113,336.42578125,175.78125,204.58984375,-11.71875,0.0,0,0
1772202568.811164,1772202568.7360086,-856.4453125,-866.69921875,646.97265625,36.62109375,0.0,0,0
1772202568.811212,1772202568.7399044,786.1328125,807.12890625,160.15625,27.83203125,0.0,0,0
1772202568.811253,1772202568.7438002,-590.33203125,-551.7578125,-642.578125,-56.640625,0.0,0,0
1772202568.81129,1772202568.747696,-1000.0,-1000.0,-682.12890625,-127.9296875,0.0,0,0
1772202568.811327,1772202568.7515917,95.703125,-117.67578125,110.3515625,-80.56640625,0.0,0,0
1772202568.8113651,1772202568.7554874,-880.37109375,-930.17578125,626.46484375,-11.23046875,0.0,0,0
1772202568.811564,1772202568.7593832,806.640625,822.265625,235.3515625,-17.08984375,0.0,0,0
1772202568.811604,1772202568.763279,-545.41015625,-546.38671875,-585.9375,-82.03125,0.0,0,0
1772202568.811641,1772202568.7671747,-1000.0,-1000.0,-758.30078125,-123.53515625,0.0,0,0
1772202568.811677,1772202568.7710705,-282.2265625,-573.73046875,-23.92578125,-100.09765625,0.0,0,0
1772202568.811713,1772202568.7749662,-983.3984375,876.953125,583.0078125,-50.29296875,0.0,0,0
1772202568.900604,1772202568.7793255,845.21484375,941.89453125,286.1328125,-42.96875,0.0,0,0
1772202568.900728,1772202568.7832212,-559.08203125,-512.20703125,-545.8984375,-103.02734375,0.0,0,0
1772202568.9007711,1772202568.7871172,-1000.0,-1000.0,-855.95703125,-166.015625,0.0,0,0
1772202568.9008079,1772202568.791013,-606.4453125,-699.21875,-226.07421875,-146.97265625,0.0,0,0
1772202568.900846,1772202568.7949088,840.8203125,717.28515625,451.66015625,-53.22265625,0.0,0,0
1772202568.900883,1772202568.7988045,976.07421875,-910.15625,270.5078125,11.23046875,0.0,0,0
1772202568.9009202,1772202568.8027005,-468.26171875,-285.15625,-549.8046875,-49.8046875,0.0,0,0
1772202568.900956,1772202568.8065963,-1000.0,-1000.0,-963.37890625,-125.0,0.0,0,0
1772202568.901024,1772202568.810492,-742.67578125,-822.75390625,-401.3671875,-76.171875,0.0,0,0
1772202568.901078,1772202568.814388,670.8984375,532.2265625,392.578125,21.97265625,0.0,0,0
1772202568.9011168,1772202568.8182838,-896.97265625,-824.70703125,336.9140625,80.56640625,0.0,0,0
1772202568.901155,1772202568.8221796,-276.3671875,47.36328125,-444.3359375,58.10546875,0.0,0,0
1772202568.902714,1772202568.8262694,-1000.0,-1000.0,-932.6171875,-5.859375,0.0,0,0
1772202568.9027798,1772202568.8301654,-833.0078125,-860.83984375,-483.3984375,5.37109375,0.0,0,0
1772202568.9028218,1772202568.8340611,525.87890625,522.4609375,376.953125,108.88671875,0.0,0,0
1772202568.90286,1772202568.837957,-827.63671875,-813.96484375,446.2890625,178.22265625,0.0,0,0
1772202568.902899,1772202568.841853,18.5546875,293.9453125,-347.65625,123.53515625,0.0,0,0
1772202568.902936,1772202568.8457487,-1000.0,-1000.0,-904.296875,39.0625,0.0,0,0
1772202568.902972,1772202568.8496447,-853.02734375,-885.25390625,-543.45703125,34.1796875,0.0,0,0
1772202568.903009,1772202568.8535404,515.625,529.296875,327.1484375,146.97265625,0.0,0,0
1772202568.9030578,1772202568.8574362,-813.4765625,-824.70703125,529.296875,230.95703125,0.0,0,0
1772202568.903095,1772202568.8613322,375.0,583.49609375,-201.66015625,166.9921875,0.0,0,0
1772202568.9031308,1772202568.865228,-996.09375,-861.81640625,-856.4453125,45.41015625,0.0,0,0
1772202568.903168,1772202568.869124,-914.0625,-1000.0,-601.07421875,5.859375,0.0,0,0
1772202568.944164,1772202568.8731756,513.18359375,407.71484375,275.87890625,107.91015625,0.0,0,0
1772202568.9442759,1772202568.8770716,-831.54296875,-843.26171875,617.1875,190.91796875,0.0,0,0
1772202568.94432,1772202568.8809674,622.0703125,725.09765625,-41.9921875,140.625,0.0,0,0
1772202568.9443572,1772202568.8848634,-822.265625,-699.70703125,-796.38671875,33.203125,0.0,0,0
1772202568.944396,1772202568.8887591,-1000.0,-1000.0,-643.06640625,-12.20703125,0.0,0,0
1772202568.944431,1772202568.8926551,386.71875,283.203125,209.9609375,72.75390625,0.0,0,0
1772202568.944469,1772202568.896551,-852.05078125,-857.91015625,617.1875,169.921875,0.0,0,0
1772202568.944507,1772202568.900447,759.765625,794.921875,70.3125,149.90234375,0.0,0,0
1772202568.944543,1772202568.9043427,-625.0,-540.52734375,-736.328125,49.31640625,0.0,0,0
1772202568.944578,1772202568.9082386,-1000.0,-1000.0,-717.7734375,-10.25390625,0.0,0,0
1772202568.9446132,1772202568.9121344,126.953125,-174.8046875,101.5625,78.61328125,0.0,0,0
1772202568.944649,1772202568.9160304,-876.46484375,-947.265625,616.2109375,168.45703125,0.0,0,0
1772202568.98959,1772202568.9200733,805.6640625,834.47265625,172.8515625,146.97265625,0.0,0,0
1772202568.989683,1772202568.9239693,-545.8984375,-553.7109375,-690.4296875,38.0859375,0.0,0,0
1772202568.98972,1772202568.9278653,-1000.0,-1000.0,-789.0625,-52.734375,0.0,0,0
1772202568.989755,1772202568.931761,-243.65234375,-479.00390625,15.13671875,13.671875,0.0,0,0
1772202568.989794,1772202568.935657,-971.19140625,925.78125,613.28125,140.625,0.0,0,0
1772202568.989832,1772202568.939553,840.8203125,918.45703125,271.97265625,147.4609375,0.0,0,0
1772202568.989869,1772202568.9434488,-556.640625,-514.6484375,-600.5859375,28.80859375,0.0,0,0
1772202568.9899049,1772202568.9473448,-1000.0,-1000.0,-849.609375,-73.73046875,0.0,0,0
1772202568.98994,1772202568.9512405,-573.2421875,-700.68359375,-109.86328125,-29.78515625,0.0,0,0
1772202568.98998,1772202568.9551365,855.46875,730.95703125,589.84375,104.98046875,0.0,0,0
1772202568.990016,1772202568.9590325,979.4921875,-934.5703125,340.8203125,137.20703125,0.0,0,0
1772202568.9900532,1772202568.9629283,-447.75390625,-347.65625,-503.41796875,13.18359375,0.0,0,0
1772202569.0339541,1772202568.9669554,-1000.0,-1000.0,-878.90625,-104.00390625,0.0,0,0
1772202569.034071,1772202568.9708512,-735.3515625,-816.40625,-250.9765625,-43.45703125,0.0,0,0
1772202569.034113,1772202568.9747472,676.7578125,555.17578125,557.12890625,83.49609375,0.0,0,0
1772202569.0341508,1772202568.9786432,-895.99609375,-840.33203125,413.57421875,118.65234375,0.0,0,0
1772202569.034195,1772202568.982539,-265.13671875,-80.078125,-408.203125,41.50390625,0.0,0,0
1772202569.034231,1772202568.986435,-1000.0,-1000.0,-848.6328125,-88.8671875,0.0,0,0
1772202569.0342689,1772202568.990331,-833.984375,-845.703125,-353.515625,-80.56640625,0.0,0,0
1772202569.034306,1772202568.994227,525.390625,516.11328125,523.4375,63.4765625,0.0,0,0
1772202569.0343418,1772202568.9981227,-827.1484375,-812.98828125,519.04296875,111.81640625,0.0,0,0
1772202569.034379,1772202569.0020187,27.34375,247.0703125,-304.19921875,10.25390625,0.0,0,0
1772202569.034415,1772202569.0059147,-1000.0,-1000.0,-830.078125,-105.46875,0.0,0,0
1772202569.0344489,1772202569.0098104,-850.09765625,-877.44140625,-427.734375,-106.93359375,0.0,0,0
1772202569.079484,1772202569.013826,511.23046875,526.3671875,458.984375,28.80859375,0.0,0,0
1772202569.079575,1772202569.017722,-814.453125,-827.1484375,604.00390625,139.16015625,0.0,0,0
1772202569.079635,1772202569.021618,472.65625,603.02734375,-149.90234375,64.453125,0.0,0,0
1772202569.079673,1772202569.025514,-948.73046875,-849.12109375,-797.36328125,-95.21484375,0.0,0,0
1772202569.079714,1772202569.0294096,-945.3125,-1000.0,-538.0859375,-110.83984375,0.0,0,0
1772202569.079753,1772202569.0333056,499.51171875,418.9453125,358.88671875,44.43359375,0.0,0,0
1772202569.0797892,1772202569.0372016,-837.40234375,-842.7734375,627.9296875,135.25390625,0.0,0,0
1772202569.0798259,1772202569.0410976,657.2265625,720.703125,-85.9375,42.48046875,0.0,0,0
1772202569.0798678,1772202569.0449936,-777.34375,-687.98828125,-806.15234375,-110.3515625,0.0,0,0
1772202569.079904,1772202569.0488896,-1000.0,-1000.0,-603.02734375,-157.2265625,0.0,0,0
1772202569.0799391,1772202569.0527854,334.47265625,219.7265625,271.484375,-37.109375,0.0,0,0
1772202569.079975,1772202569.0566814,-854.98046875,-859.375,653.3203125,86.9140625,0.0,0,0
1772202569.1239529,1772202569.0606847,779.296875,801.7578125,62.01171875,55.17578125,0.0,0,0
1772202569.124042,1772202569.0645807,-591.796875,-548.33984375,-744.62890625,-91.796875,0.0,0,0
1772202569.124086,1772202569.0684767,-1000.0,-1000.0,-666.015625,-161.1328125,0.0,0,0
1772202569.124126,1772202569.0723724,53.22265625,-119.62890625,195.80078125,-33.203125,0.0,0,0
1772202569.1241632,1772202569.0762684,-889.6484375,-931.15234375,670.41015625,94.23828125,0.0,0,0
1772202569.124201,1772202569.0801644,807.12890625,823.2421875,198.73046875,77.1484375,0.0,0,0
1772202569.124237,1772202569.0840604,-541.9921875,-546.38671875,-674.8046875,-75.1953125,0.0,0,0
1772202569.124275,1772202569.0879564,-1000.0,-1000.0,-760.25390625,-179.19921875,0.0,0,0
1772202569.124311,1772202569.0918524,-390.625,-553.7109375,58.10546875,-80.56640625,0.0,0,0
1772202569.124348,1772202569.0957484,972.16796875,894.04296875,625.48828125,75.1953125,0.0,0,0
1772202569.124385,1772202569.0996444,871.58203125,928.7109375,248.046875,86.42578125,0.0,0,0
1772202569.124635,1772202569.1035402,-555.17578125,-522.94921875,-604.4921875,-90.33203125,0.0,0,0
1772202569.1830342,1772202569.1075337,-1000.0,-1000.0,-788.0859375,-181.15234375,0.0,0,0
1772202569.183187,1772202569.1114297,-611.328125,-662.59765625,-28.3203125,-74.70703125,0.0,0,0
1772202569.183249,1772202569.1153257,820.3125,768.5546875,614.74609375,76.171875,0.0,0,0
1772202569.183302,1772202569.1192217,-987.3046875,-947.75390625,332.03125,126.46484375,0.0,0,0
1772202569.183365,1772202569.1231177,-406.25,-356.93359375,-513.671875,-12.6953125,0.0,0,0
1772202569.183413,1772202569.1270137,-1000.0,-1000.0,-810.546875,-164.55078125,0.0,0,0
1772202569.183449,1772202569.1309097,-794.43359375,-833.984375,-167.96875,-95.21484375,0.0,0,0
1772202569.183485,1772202569.1348057,592.28515625,532.71484375,573.2421875,61.5234375,0.0,0,0
1772202569.1835232,1772202569.1387017,-862.79296875,-838.37890625,416.015625,101.5625,0.0,0,0
1772202569.1835678,1772202569.1425977,-167.48046875,-92.7734375,-405.76171875,-32.2265625,0.0,0,0
1772202569.183628,1772202569.1464937,-1000.0,-1000.0,-810.546875,-188.96484375,0.0,0,0
1772202569.183674,1772202569.1503897,-841.796875,-843.26171875,-268.5546875,-145.5078125,0.0,0,0
1772202569.229747,1772202569.15446,517.578125,513.671875,566.89453125,28.80859375,0.0,0,0
1772202569.229864,1772202569.158356,-818.84765625,-812.01171875,527.83203125,100.5859375,0.0,0,0
1772202569.229922,1772202569.162252,143.5546875,267.08984375,-275.87890625,-18.5546875,0.0,0,0
1772202569.229988,1772202569.166148,-1000.0,-1000.0,-782.2265625,-161.62109375,0.0,0,0
1772202569.230041,1772202569.170044,-864.74609375,-880.859375,-357.421875,-138.671875,0.0,0,0
1772202569.230093,1772202569.1739402,519.04296875,527.34375,534.1796875,26.3671875,0.0,0,0
1772202569.230144,1772202569.1778362,-817.87109375,-822.75390625,599.609375,113.76953125,0.0,0,0
1772202569.230195,1772202569.1817322,514.16015625,572.75390625,-201.171875,13.18359375,0.0,0,0
1772202569.2302458,1772202569.1856282,-914.0625,-869.62890625,-793.45703125,-125.9765625,0.0,0,0
1772202569.230297,1772202569.1895242,-983.3984375,-1000.0,-479.00390625,-147.94921875,0.0,0,0
1772202569.230346,1772202569.1934202,455.078125,406.73828125,399.90234375,0.48828125,0.0,0,0
1772202569.230399,1772202569.1973162,-846.6796875,-847.65625,631.34765625,121.09375,0.0,0,0
1772202569.305156,1772202569.2014766,716.30859375,743.65234375,-86.9140625,36.62109375,0.0,0,0
1772202569.3053088,1772202569.2053726,-716.30859375,-685.05859375,-757.32421875,-118.1640625,0.0,0,0
1772202569.30537,1772202569.2092688,-1000.0,-1000.0,-492.67578125,-147.4609375,0.0,0,0
1772202569.305421,1772202569.2131648,326.171875,307.6171875,366.69921875,-15.13671875,0.0,0,0
1772202569.305474,1772202569.2170608,-858.88671875,-857.421875,689.94140625,107.91015625,0.0,0,0
1772202569.305526,1772202569.2209568,792.96875,793.9453125,88.37890625,72.265625,0.0,0,0
1772202569.305575,1772202569.224853,-553.7109375,-540.52734375,-688.96484375,-92.7734375,0.0,0,0
1772202569.3056269,1772202569.228749,-1000.0,-1000.0,-574.70703125,-147.94921875,0.0,0,0
1772202569.305676,1772202569.232645,-76.171875,-161.62109375,255.37109375,-8.7890625,0.0,0,0
1772202569.305727,1772202569.236541,-922.36328125,-942.87109375,686.03515625,123.53515625,0.0,0,0
1772202569.305778,1772202569.2404373,825.1953125,832.51953125,184.5703125,97.65625,0.0,0,0
1772202569.305828,1772202569.2443333,-552.24609375,-552.734375,-649.90234375,-70.80078125,0.0,0,0
1772202569.320392,1772202569.2483912,-1000.0,-1000.0,-680.17578125,-158.69140625,0.0,0,0
1772202569.3204758,1772202569.2522874,-376.46484375,-477.05078125,133.30078125,-40.52734375,0.0,0,0
1772202569.32052,1772202569.2561834,975.5859375,932.6171875,665.52734375,123.53515625,0.0,0,0
1772202569.320559,1772202569.2600794,873.046875,902.34375,259.27734375,120.1171875,0.0,0,0
1772202569.320601,1772202569.2639756,-548.33984375,-538.0859375,-582.03125,-56.640625,0.0,0,0
1772202569.320639,1772202569.2678716,-1000.0,-1000.0,-732.91015625,-147.94921875,0.0,0,0
1772202569.320674,1772202569.2717679,-664.0625,-691.40625,9.765625,-61.03515625,0.0,0,0
1772202569.32071,1772202569.2756639,771.484375,744.140625,625.48828125,80.56640625,0.0,0,0
1772202569.320747,1772202569.2795599,-963.37890625,-945.80078125,327.1484375,95.703125,0.0,0,0
1772202569.3207839,1772202569.283456,-382.8125,-365.72265625,-505.859375,-69.82421875,0.0,0,0
1772202569.3208199,1772202569.287352,-1000.0,-1000.0,-790.0390625,-181.15234375,0.0,0,0
1772202569.3208551,1772202569.2912483,-791.50390625,-813.96484375,-122.55859375,-98.14453125,0.0,0,0
1772202569.365236,1772202569.2952926,601.07421875,575.1953125,605.95703125,74.21875,0.0,0,0
1772202569.365332,1772202569.2991889,-865.72265625,-856.93359375,399.90234375,136.23046875,0.0,0,0
1772202569.365371,1772202569.3030849,-182.6171875,-178.22265625,-412.59765625,5.37109375,0.0,0,0
1772202569.3654091,1772202569.306981,-1000.0,-1000.0,-786.62109375,-123.046875,0.0,0,0
1772202569.3654468,1772202569.310877,-837.890625,-838.37890625,-239.74609375,-85.44921875,0.0,0,0
1772202569.365484,1772202569.3147733,513.671875,515.13671875,584.47265625,75.68359375,0.0,0,0
1772202569.365528,1772202569.3186693,-816.40625,-815.4296875,476.5625,139.16015625,0.0,0,0
1772202569.3655639,1772202569.3225656,178.22265625,166.015625,-333.49609375,6.8359375,0.0,0,0
1772202569.365601,1772202569.3264616,-1000.0,-1000.0,-784.66796875,-142.08984375,0.0,0,0
1772202569.365639,1772202569.3303578,-869.62890625,-865.72265625,-341.30859375,-104.98046875,0.0,0,0
1772202569.365681,1772202569.3342538,521.484375,519.53125,520.5078125,75.1953125,0.0,0,0
1772202569.36572,1772202569.33815,-818.84765625,-819.3359375,550.78125,161.62109375,0.0,0,0
1772202569.410767,1772202569.3421788,522.94921875,565.91796875,-230.46875,45.8984375,0.0,0,0
1772202569.41089,1772202569.3460748,-900.87890625,-874.51171875,-767.08984375,-113.28125,0.0,0,0
1772202569.410948,1772202569.349971,-1000.0,-1000.0,-439.94140625,-125.9765625,0.0,0,0
1772202569.410998,1772202569.353867,423.828125,408.69140625,425.78125,44.921875,0.0,0,0
1772202569.41105,1772202569.3577633,-847.16796875,-855.95703125,627.44140625,177.24609375,0.0,0,0
1772202569.4111,1772202569.3616595,731.4453125,775.87890625,-88.37890625,83.49609375,0.0,0,0
1772202569.4111512,1772202569.3655555,-686.03515625,-632.32421875,-754.39453125,-86.9140625,0.0,0,0
1772202569.411201,1772202569.3694518,-1000.0,-1000.0,-521.484375,-118.65234375,0.0,0,0
1772202569.411249,1772202569.3733478,271.484375,255.859375,341.796875,45.41015625,0.0,0,0
1772202569.411299,1772202569.377244,-854.4921875,-855.95703125,663.0859375,171.875,0.0,0,0
1772202569.4113479,1772202569.38114,782.2265625,792.96875,25.390625,95.21484375,0.0,0,0
1772202569.4113972,1772202569.3850362,-583.984375,-564.453125,-717.7734375,-81.0546875,0.0,0,0
1772202569.455029,1772202569.3890498,-1000.0,-1000.0,-570.3125,-126.953125,0.0,0,0
1772202569.455167,1772202569.392946,-8.7890625,-56.15234375,266.6015625,27.34375,0.0,0,0
1772202569.45521,1772202569.396842,-908.203125,-917.48046875,675.78125,176.7578125,0.0,0,0
1772202569.4552479,1772202569.4007382,713.8671875,718.75,121.58203125,130.37109375,0.0,0,0
1772202569.4552908,1772202569.4046345,-578.61328125,-579.1015625,-669.43359375,-49.31640625,0.0,0,0
1772202569.4553301,1772202569.4085305,-1000.0,-1000.0,-638.18359375,-125.0,0.0,0,0
1772202569.4553652,1772202569.4124267,-447.75390625,-491.2109375,155.2734375,1.953125,0.0,0,0
1772202569.455402,1772202569.416323,958.49609375,941.40625,650.87890625,162.59765625,0.0,0,0
1772202569.455447,1772202569.420219,871.09375,880.37109375,221.6796875,153.80859375,0.0,0,0
1772202569.4554849,1772202569.4241152,-571.77734375,-571.77734375,-610.3515625,-26.3671875,0.0,0,0
1772202569.455521,1772202569.4280114,-1000.0,-1000.0,-727.5390625,-119.140625,0.0,0,0
1772202569.4555562,1772202569.4319074,-631.8359375,-639.6484375,-11.71875,0.0,0.0,0,0
1772202569.500458,1772202569.4359124,815.4296875,806.640625,563.4765625,152.83203125,0.0,0,0
1772202569.500561,1772202569.4398086,997.55859375,-989.74609375,234.375,146.97265625,0.0,0,0
1772202569.500619,1772202569.4437046,-441.89453125,-425.78125,-606.93359375,-9.27734375,0.0,0,0
1772202569.500844,1772202569.4476008,-1000.0,-1000.0,-843.75,-127.9296875,0.0,0,0
1772202569.500899,1772202569.451497,-755.37109375,-767.08984375,-159.1796875,-53.22265625,0.0,0,0
1772202569.500951,1772202569.4553933,644.04296875,625.0,541.50390625,112.79296875,0.0,0,0
1772202569.501002,1772202569.4592893,-877.9296875,-864.2578125,305.17578125,158.203125,0.0,0,0
1772202569.5010529,1772202569.4631855,-202.63671875,-164.0625,-528.3203125,13.18359375,0.0,0,0
1772202569.501104,1772202569.4670818,-1000.0,-1000.0,-883.7890625,-135.25390625,0.0,0,0
1772202569.501152,1772202569.4709778,-836.42578125,-840.8203125,-298.33984375,-91.30859375,0.0,0,0
1772202569.501203,1772202569.474874,513.18359375,517.08984375,503.90625,89.35546875,0.0,0,0
1772202569.501259,1772202569.4787703,-816.89453125,-816.40625,398.4375,151.85546875,0.0,0,0
1772202569.5460658,1772202569.4827685,162.109375,146.484375,-403.80859375,41.015625,0.0,0,0
1772202569.546176,1772202569.4866648,-1000.0,-1000.0,-834.9609375,-94.7265625,0.0,0,0
1772202569.546232,1772202569.490561,-866.69921875,-862.79296875,-343.26171875,-82.03125,0.0,0,0
1772202569.5462852,1772202569.4944572,520.01953125,518.06640625,499.0234375,83.984375,0.0,0,0
1772202569.5463371,1772202569.4983535,-820.80078125,-820.80078125,496.58203125,172.8515625,0.0,0,0
1772202569.546389,1772202569.5022495,538.0859375,574.70703125,-271.97265625,48.828125,0.0,0,0
1772202569.54644,1772202569.5061457,-904.78515625,-884.27734375,-798.33984375,-122.55859375,0.0,0,0
1772202569.546491,1772202569.510042,-977.5390625,-991.2109375,-457.51953125,-113.76953125,0.0,0,0
1772202569.5465422,1772202569.5139382,476.07421875,469.7265625,411.1328125,58.10546875,0.0,0,0
1772202569.546591,1772202569.5178344,-848.6328125,-850.5859375,580.078125,165.52734375,0.0,0,0
1772202569.5466409,1772202569.5217304,715.33203125,732.91015625,-139.6484375,61.5234375,0.0,0,0
1772202569.54669,1772202569.5256267,-719.23828125,-696.77734375,-773.92578125,-124.0234375,0.0,0,0
1772202569.6057239,1772202569.5296094,-1000.0,-1000.0,-528.80859375,-143.06640625,0.0,0,0
1772202569.605891,1772202569.5335054,336.42578125,315.91796875,338.37890625,30.2734375,0.0,0,0
1772202569.605952,1772202569.5374017,-854.4921875,-855.46875,632.32421875,153.3203125,0.0,0,0
1772202569.606008,1772202569.541298,776.3671875,788.57421875,-17.08984375,72.75390625,0.0,0,0
1772202569.6060631,1772202569.5451941,-584.9609375,-574.70703125,-729.98046875,-100.5859375,0.0,0,0
1772202569.606117,1772202569.5490904,-1000.0,-1000.0,-541.50390625,-148.4375,0.0,0,0
1772202569.606167,1772202569.5529866,-7.8125,8.30078125,274.90234375,2.9296875,0.0,0,0
1772202569.606217,1772202569.5568829,-904.78515625,-898.4375,638.671875,156.25,0.0,0,0
1772202569.606266,1772202569.5607789,818.84765625,816.40625,86.9140625,103.515625,0.0,0,0
1772202569.6063218,1772202569.564675,-551.26953125,-548.33984375,-704.58984375,-89.84375,0.0,0,0
1772202569.606372,1772202569.5685713,-1000.0,-1000.0,-648.92578125,-171.38671875,0.0,0,0
1772202569.60642,1772202569.5724676,-304.19921875,-322.265625,156.73828125,-25.390625,0.0,0,0
1772202569.6518972,1772202569.5765295,-991.2109375,-996.09375,631.8359375,133.7890625,0.0,0,0
1772202569.652071,1772202569.5804257,849.12109375,851.5625,187.5,100.09765625,0.0,0,0
1772202569.6521442,1772202569.584322,-561.5234375,-562.01171875,-656.25,-78.61328125,0.0,0,0
1772202569.6521971,1772202569.5882182,-1000.0,-1000.0,-735.83984375,-173.33984375,0.0,0,0
1772202569.652249,1772202569.5921144,-612.79296875,-636.71875,37.59765625,-63.96484375,0.0,0,0
1772202569.652299,1772202569.5960107,835.9375,824.70703125,608.88671875,87.890625,0.0,0,0
1772202569.652349,1772202569.599907,976.07421875,976.5625,225.09765625,82.03125,0.0,0,0
1772202569.652398,1772202569.6038032,-472.16796875,-484.86328125,-620.60546875,-61.03515625,0.0,0,0
1772202569.652451,1772202569.6076994,-1000.0,-1000.0,-825.1953125,-180.17578125,0.0,0,0
1772202569.652499,1772202569.6115956,-750.48828125,-765.13671875,-121.09375,-97.65625,0.0,0,0
1772202569.652546,1772202569.6154919,666.50390625,647.94921875,551.7578125,81.0546875,0.0,0,0
1772202569.652583,1772202569.619388,-902.83203125,-892.08984375,279.296875,110.3515625,0.0,0,0
1772202569.6958091,1772202569.6234376,-294.43359375,-281.73828125,-553.22265625,-18.5546875,0.0,0,0
1772202569.695931,1772202569.6273339,-1000.0,-1000.0,-871.09375,-142.08984375,0.0,0,0
1772202569.695988,1772202569.63123,-827.1484375,-829.1015625,-258.7890625,-91.30859375,0.0,0,0
1772202569.6960409,1772202569.6351264,521.97265625,509.27734375,516.11328125,87.40234375,0.0,0,0
1772202569.696094,1772202569.6390226,-823.2421875,-814.453125,378.90625,141.6015625,0.0,0,0
1772202569.6961448,1772202569.642919,73.2421875,149.90234375,-432.6171875,-8.7890625,0.0,0,0
1772202569.6961951,1772202569.6468153,-1000.0,-1000.0,-873.53515625,-171.875,0.0,0,0
1772202569.696243,1772202569.6507115,-857.91015625,-866.69921875,-366.69921875,-133.30078125,0.0,0,0
1772202569.696295,1772202569.6546078,516.11328125,520.5078125,501.46484375,70.3125,0.0,0,0
1772202569.6963441,1772202569.658504,-814.94140625,-815.4296875,471.6796875,135.25390625,0.0,0,0
1772202569.696394,1772202569.6624002,439.453125,476.5625,-324.70703125,-1.953125,0.0,0,0
1772202569.6964421,1772202569.6662965,-967.28515625,-952.63671875,-831.0546875,-160.15625,0.0,0,0
1772202569.753291,1772202569.6703389,-929.6875,-936.5234375,-435.05859375,-147.4609375,0.0,0,0
1772202569.753428,1772202569.674235,512.20703125,514.6484375,441.40625,41.50390625,0.0,0,0
1772202569.753487,1772202569.6781313,-839.84375,-843.26171875,559.08203125,156.73828125,0.0,0,0
1772202569.7535412,1772202569.6820276,660.15625,678.22265625,-198.2421875,52.734375,0.0,0,0
1772202569.753592,1772202569.685924,-791.50390625,-778.3203125,-814.453125,-121.09375,0.0,0,0
1772202569.75365,1772202569.6898203,-1000.0,-1000.0,-500.9765625,-139.16015625,0.0,0,0
1772202569.753709,1772202569.6937165,397.4609375,408.203125,377.44140625,35.15625,0.0,0,0
1772202569.753765,1772202569.6976128,-849.12109375,-847.65625,626.46484375,154.78515625,0.0,0,0
1772202569.753817,1772202569.701509,746.09375,742.1875,-74.21875,83.0078125,0.0,0,0
1772202569.753878,1772202569.7054055,-643.06640625,-648.92578125,-779.78515625,-96.6796875,0.0,0,0
1772202569.753949,1772202569.7093017,-1000.0,-1000.0,-569.3359375,-160.15625,0.0,0,0
1772202569.753997,1772202569.713198,136.23046875,140.13671875,277.83203125,-4.8828125,0.0,0,0
1772202569.7853818,1772202569.717221,-874.51171875,-872.0703125,633.30078125,157.2265625,0.0,0,0
1772202569.7855942,1772202569.7211173,803.22265625,805.17578125,44.43359375,89.84375,0.0,0,0
1772202569.785675,1772202569.7250135,-552.24609375,-545.8984375,-738.76953125,-106.4453125,0.0,0,0
1772202569.7857358,1772202569.7289097,-1000.0,-1000.0,-645.99609375,-156.25,0.0,0,0
1772202569.7857852,1772202569.7328062,-209.47265625,-223.14453125,187.98828125,-19.04296875,0.0,0,0
1772202569.7858372,1772202569.7367024,-959.9609375,-962.40234375,650.390625,114.74609375,0.0,0,0
1772202569.785887,1772202569.7405987,836.42578125,838.37890625,143.5546875,101.5625,0.0,0,0
1772202569.7859368,1772202569.7444952,-554.19921875,-554.19921875,-699.70703125,-76.66015625,0.0,0,0
1772202569.78599,1772202569.7483914,-1000.0,-1000.0,-717.28515625,-186.03515625,0.0,0,0
1772202569.78604,1772202569.7522876,-557.12890625,-563.4765625,74.21875,-73.73046875,0.0,0,0
1772202569.78609,1772202569.7561839,890.625,886.71875,620.60546875,80.56640625,0.0,0,0
1772202569.786138,1772202569.7600803,917.96875,931.640625,238.28125,99.609375,0.0,0,0
1772202569.8311622,1772202569.7640967,-543.45703125,-524.90234375,-606.93359375,-56.15234375,0.0,0,0
1772202569.831311,1772202569.7679932,-1000.0,-1000.0,-776.3671875,-178.22265625,0.0,0,0
1772202569.831371,1772202569.7718894,-711.42578125,-710.9375,-38.57421875,-75.1953125,0.0,0,0
1772202569.831425,1772202569.7757857,717.28515625,709.9609375,622.55859375,112.3046875,0.0,0,0
1772202569.831476,1772202569.7796822,-932.6171875,-914.55078125,324.21875,136.23046875,0.0,0,0
1772202569.831527,1772202569.7835784,-343.75,-305.6640625,-498.53515625,-18.5546875,0.0,0,0
1772202569.831577,1772202569.7874749,-1000.0,-1000.0,-784.66796875,-134.765625,0.0,0,0
1772202569.831755,1772202569.791371,-832.03125,-842.7734375,-158.203125,-79.58984375,0.0,0,0
1772202569.831813,1772202569.7952673,543.9453125,530.76171875,591.30859375,99.609375,0.0,0,0
1772202569.831865,1772202569.7991638,-846.6796875,-839.84375,424.8046875,157.71484375,0.0,0,0
1772202569.831916,1772202569.80306,-126.46484375,-107.421875,-382.32421875,3.41796875,0.0,0,0
1772202569.8319669,1772202569.8069563,-1000.0,-1000.0,-780.76171875,-141.6015625,0.0,0,0
1772202569.889337,1772202569.8110442,-838.37890625,-838.8671875,-243.65234375,-93.75,0.0,0,0
1772202569.8895419,1772202569.8149405,509.765625,509.765625,573.73046875,79.1015625,0.0,0,0
1772202569.889594,1772202569.818837,-812.01171875,-810.05859375,495.60546875,162.59765625,0.0,0,0
1772202569.889643,1772202569.8227332,293.45703125,315.91796875,-298.828125,50.29296875,0.0,0,0
1772202569.889684,1772202569.8266296,-1000.0,-1000.0,-780.76171875,-136.71875,0.0,0,0
1772202569.8897212,1772202569.8305259,-885.7421875,-888.18359375,-348.6328125,-141.11328125,0.0,0,0
1772202569.889759,1772202569.8344223,529.78515625,531.73828125,496.58203125,59.5703125,0.0,0,0
1772202569.889795,1772202569.8383186,-828.125,-828.61328125,555.17578125,161.1328125,0.0,0,0
1772202569.8898299,1772202569.842215,585.9375,603.02734375,-197.75390625,33.69140625,0.0,0,0
1772202569.889867,1772202569.8461113,-865.234375,-852.05078125,-770.01953125,-132.32421875,0.0,0,0
1772202569.889904,1772202569.8500078,-1000.0,-1000.0,-454.58984375,-132.32421875,0.0,0,0
1772202569.88994,1772202569.853904,439.453125,429.19921875,414.0625,35.64453125,0.0,0,0
1772202569.919761,1772202569.8578918,-840.8203125,-844.23828125,619.62890625,153.3203125,0.0,0,0
1772202569.9199271,1772202569.861788,696.2890625,720.21484375,-84.9609375,62.5,0.0,0,0
1772202569.9199831,1772202569.8656845,-728.02734375,-704.58984375,-732.91015625,-111.81640625,0.0,0,0
1772202569.9200351,1772202569.869581,-1000.0,-1000.0,-504.8828125,-144.53125,0.0,0,0
1772202569.920084,1772202569.8734772,285.15625,286.1328125,338.8671875,13.18359375,0.0,0,0
1772202569.9201338,1772202569.8773737,-853.515625,-854.00390625,672.8515625,146.484375,0.0,0,0
1772202569.9201841,1772202569.88127,776.3671875,781.25,36.62109375,76.171875,0.0,0,0
1772202569.920234,1772202569.8851664,-582.03125,-564.94140625,-738.76953125,-87.40234375,0.0,0,0
1772202569.920286,1772202569.8890626,-1000.0,-1000.0,-620.60546875,-145.99609375,0.0,0,0
1772202569.920334,1772202569.892959,-60.05859375,-131.8359375,219.23828125,-2.9296875,0.0,0,0
1772202569.9204109,1772202569.8968556,-917.96875,-935.05859375,655.76171875,154.296875,0.0,0,0
1772202569.92048,1772202569.9007518,819.3359375,827.63671875,146.484375,107.91015625,0.0,0,0
1772202569.97959,1772202569.9047282,-547.8515625,-550.29296875,-677.24609375,-87.40234375,0.0,0,0
1772202569.9797492,1772202569.9086244,-1000.0,-1000.0,-687.98828125,-179.19921875,0.0,0,0
1772202569.979809,1772202569.912521,-439.94140625,-482.91015625,121.58203125,-25.390625,0.0,0,0
1772202569.979863,1772202569.9164174,943.84765625,918.45703125,655.2734375,125.9765625,0.0,0,0
1772202569.979916,1772202569.9203136,900.87890625,933.59375,252.44140625,89.35546875,0.0,0,0
1772202569.979979,1772202569.92421,-526.3671875,-490.72265625,-598.6328125,-71.77734375,0.0,0,0
1772202569.98003,1772202569.9281065,-1000.0,-1000.0,-768.5546875,-177.24609375,0.0,0,0
1772202569.980078,1772202569.9320028,-666.9921875,-688.96484375,-6.8359375,-66.40625,0.0,0,0
1772202569.980128,1772202569.9358993,774.4140625,752.9296875,600.5859375,93.26171875,0.0,0,0
1772202569.9801779,1772202569.9397955,-970.703125,-955.078125,267.08984375,113.28125,0.0,0,0
1772202569.980227,1772202569.943692,-401.3671875,-384.765625,-557.12890625,-42.96875,0.0,0,0
1772202569.980277,1772202569.9475884,-1000.0,-1000.0,-814.453125,-180.6640625,0.0,0,0
1772202570.024085,1772202569.951642,-800.29296875,-805.17578125,-139.6484375,-82.03125,0.0,0,0
1772202570.0242019,1772202569.9555383,584.9609375,563.96484375,578.61328125,98.6328125,0.0,0,0
1772202570.0242429,1772202569.9594347,-860.83984375,-841.30859375,365.72265625,116.2109375,0.0,0,0
1772202570.024284,1772202569.9633312,-161.62109375,-73.2421875,-452.63671875,-41.015625,0.0,0,0
1772202570.0243242,1772202569.9672275,-1000.0,-1000.0,-829.1015625,-171.875,0.0,0,0
1772202570.024369,1772202569.971124,-843.26171875,-851.5625,-258.30078125,-117.67578125,0.0,0,0
1772202570.024405,1772202569.9750204,520.99609375,522.94921875,548.33984375,47.36328125,0.0,0,0
1772202570.0244422,1772202569.978917,-820.3125,-817.3828125,451.171875,124.51171875,0.0,0,0
