timestamp,lsl_timestamp,TP9,AF7,AF8,TP10,Right AUX,keypress_A,keypress_B
1772204005.0619478,1772204004.9983222,-684.08203125,-1000.0,-88.8671875,-678.7109375,0.0,0,0
1772204005.062143,1772204005.0022173,707.51953125,-9.765625,-993.65234375,20.01953125,0.0,0,0
1772204005.0621738,1772204005.0061123,-836.42578125,-783.203125,-924.31640625,510.25390625,0.0,0,0
1772204005.0622,1772204005.0100074,169.921875,388.671875,226.07421875,91.796875,0.0,0,0
1772204005.062224,1772204005.0139024,-1000.0,-925.29296875,-1000.0,-613.28125,0.0,0,0
1772204005.0622468,1772204005.0177972,-925.29296875,-1000.0,-215.8203125,-731.93359375,0.0,0,0
1772204005.06227,1772204005.0216923,383.30078125,-143.5546875,979.00390625,-41.50390625,0.0,0,0
1772204005.062294,1772204005.0255873,-785.15625,-837.890625,-916.50390625,512.6953125,0.0,0,0
1772204005.062318,1772204005.0294824,143.06640625,574.21875,227.05078125,200.68359375,0.0,0,0
1772204005.0623412,1772204005.0333772,-1000.0,-803.7109375,-1000.0,-523.4375,0.0,0,0
1772204005.0623639,1772204005.0372722,-1000.0,-1000.0,-411.62109375,-732.421875,0.0,0,0
1772204005.062386,1772204005.0411673,79.58984375,-210.9375,840.8203125,-90.33203125,0.0,0,0
1772204005.107141,1772204005.0451603,-769.04296875,-935.05859375,-882.8125,482.421875,0.0,0,0
1772204005.107222,1772204005.0490553,313.96484375,846.19140625,363.28125,300.29296875,0.0,0,0
1772204005.107253,1772204005.0529504,-958.0078125,-488.28125,-1000.0,-448.73046875,0.0,0,0
1772204005.107281,1772204005.0568454,-1000.0,-1000.0,-569.82421875,-791.50390625,0.0,0,0
1772204005.107307,1772204005.0607405,-109.86328125,-177.24609375,696.2890625,-211.9140625,0.0,0,0
1772204005.107332,1772204005.0646353,-816.89453125,-993.65234375,-880.37109375,390.13671875,0.0,0,0
1772204005.1073558,1772204005.0685303,507.8125,-972.65625,533.69140625,365.234375,0.0,0,0
1772204005.10738,1772204005.0724254,-857.91015625,-136.23046875,-964.84375,-354.00390625,0.0,0,0
1772204005.107404,1772204005.0763204,-1000.0,-1000.0,-748.046875,-791.9921875,0.0,0,0
1772204005.1074271,1772204005.0802155,-221.6796875,-283.69140625,551.26953125,-276.3671875,0.0,0,0
1772204005.107451,1772204005.0841105,-914.55078125,958.49609375,-925.78125,372.0703125,0.0,0,0
1772204005.107475,1772204005.0880053,774.90234375,-926.7578125,775.87890625,458.0078125,0.0,0,0
1772204005.1670568,1772204005.0919876,-588.8671875,22.4609375,-668.45703125,-260.7421875,0.0,0,0
1772204005.1671722,1772204005.0958827,-1000.0,-1000.0,-932.12890625,-790.0390625,0.0,0,0
1772204005.1672142,1772204005.0997777,-186.03515625,-465.33203125,421.875,-386.23046875,0.0,0,0
1772204005.167252,1772204005.1036727,-979.98046875,864.2578125,-975.09765625,282.71484375,0.0,0,0
1772204005.167291,1772204005.1075678,987.79296875,-875.48828125,971.6796875,502.44140625,0.0,0,0
1772204005.167329,1772204005.1114628,-241.69921875,202.63671875,-304.6875,-167.48046875,0.0,0,0
1772204005.1673658,1772204005.1153579,-1000.0,-1000.0,-1000.0,-783.69140625,0.0,0,0
1772204005.167401,1772204005.1192527,-211.42578125,-720.703125,208.49609375,-484.375,0.0,0,0
1772204005.167438,1772204005.1231477,983.3984375,670.41015625,-988.76953125,227.5390625,0.0,0,0
1772204005.167478,1772204005.1270428,-944.3359375,-827.63671875,-949.21875,520.5078125,0.0,0,0
1772204005.167514,1772204005.1309378,-14.6484375,165.0390625,-45.41015625,-98.14453125,0.0,0,0
1772204005.167551,1772204005.1348329,-1000.0,-1000.0,-1000.0,-740.72265625,0.0,0,0
1772204005.212367,1772204005.138805,-402.34375,-957.51953125,57.6171875,-583.0078125,0.0,0,0
1772204005.212485,1772204005.1427,896.97265625,334.9609375,-997.0703125,152.83203125,0.0,0,0
1772204005.212529,1772204005.146595,-891.6015625,-778.3203125,-926.26953125,561.5234375,0.0,0,0
1772204005.212571,1772204005.15049,165.52734375,142.08984375,158.203125,21.97265625,0.0,0,0
1772204005.212645,1772204005.154385,-1000.0,-1000.0,-1000.0,-639.16015625,0.0,0,0
1772204005.212683,1772204005.1582801,-619.140625,-1000.0,-92.28515625,-599.609375,0.0,0,0
1772204005.2127192,1772204005.1621752,770.01953125,62.5,997.55859375,99.609375,0.0,0,0
1772204005.212755,1772204005.1660702,-849.609375,-769.53125,-924.8046875,568.84765625,0.0,0,0
1772204005.2127922,1772204005.1699653,178.7109375,323.73046875,227.05078125,125.9765625,0.0,0,0
1772204005.21283,1772204005.1738603,-1000.0,-950.68359375,-1000.0,-567.87109375,0.0,0,0
1772204005.212865,1772204005.1777554,-870.60546875,-1000.0,-332.51953125,-667.96875,0.0,0,0
1772204005.2129102,1772204005.1816504,467.7734375,-146.484375,910.64453125,1.46484375,0.0,0,0
1772204005.273708,1772204005.185793,-795.41015625,-825.1953125,-895.99609375,531.73828125,0.0,0,0
1772204005.273857,1772204005.189688,145.99609375,524.4140625,208.984375,222.16796875,0.0,0,0
1772204005.2739148,1772204005.1935833,-1000.0,-853.02734375,-1000.0,-488.76953125,0.0,0,0
1772204005.273969,1772204005.1974783,-1000.0,-1000.0,-491.69921875,-699.21875,0.0,0,0
1772204005.2740202,1772204005.2013733,127.44140625,-219.7265625,761.23046875,-61.03515625,0.0,0,0
1772204005.274066,1772204005.2052684,-765.13671875,-918.45703125,-866.69921875,500.48828125,0.0,0,0
1772204005.274104,1772204005.2091634,273.92578125,790.0390625,320.3125,295.8984375,0.0,0,0
1772204005.27414,1772204005.2130585,-979.00390625,-569.82421875,-1000.0,-444.3359375,0.0,0,0
1772204005.2742221,1772204005.2169535,-1000.0,-1000.0,-632.32421875,-753.90625,0.0,0,0
1772204005.274291,1772204005.2208486,-52.734375,-182.6171875,617.1875,-163.57421875,0.0,0,0
1772204005.274338,1772204005.2247438,-799.8046875,-986.328125,-863.28125,443.84765625,0.0,0,0
1772204005.274376,1772204005.228639,459.47265625,-991.2109375,491.69921875,395.99609375,0.0,0,0
1772204005.303469,1772204005.2326763,-880.37109375,-200.1953125,-973.14453125,-347.65625,0.0,0,0
1772204005.30363,1772204005.2365713,-1000.0,-1000.0,-790.52734375,-767.578125,0.0,0,0
1772204005.3037398,1772204005.2404666,-222.65625,-230.95703125,464.84375,-234.375,0.0,0,0
1772204005.303819,1772204005.2443616,-896.97265625,974.12109375,-905.2734375,394.04296875,0.0,0,0
1772204005.3038778,1772204005.2482567,718.75,-934.5703125,715.8203125,455.078125,0.0,0,0
1772204005.303931,1772204005.2521517,-660.64453125,20.01953125,-718.26171875,-262.20703125,0.0,0,0
1772204005.3039849,1772204005.2560468,-1000.0,-1000.0,-976.5625,-764.16015625,0.0,0,0
1772204005.304032,1772204005.259942,-195.80078125,-436.5234375,294.43359375,-318.359375,0.0,0,0
1772204005.3040829,1772204005.263837,-960.9375,881.8359375,-961.42578125,345.21484375,0.0,0,0
1772204005.304134,1772204005.2677321,932.12890625,-883.7890625,929.19921875,511.23046875,0.0,0,0
1772204005.304184,1772204005.2716272,-352.5390625,178.7109375,-385.25390625,-164.0625,0.0,0,0
1772204005.304233,1772204005.2755225,-1000.0,-1000.0,-1000.0,-742.67578125,0.0,0,0
1772204005.34749,1772204005.2795482,-172.8515625,-688.96484375,173.33984375,-423.828125,0.0,0,0
1772204005.3476129,1772204005.2834432,999.51171875,698.73046875,-989.74609375,271.97265625,0.0,0,0
1772204005.347658,1772204005.2873383,-958.984375,-834.47265625,-954.1015625,534.66796875,0.0,0,0
1772204005.347698,1772204005.2912335,-64.94140625,174.31640625,-97.65625,-105.46875,0.0,0,0
1772204005.347743,1772204005.2951286,-1000.0,-1000.0,-1000.0,-734.86328125,0.0,0,0
1772204005.347779,1772204005.2990236,-354.4921875,-887.6953125,87.40234375,-530.2734375,0.0,0,0
1772204005.347816,1772204005.3029187,920.8984375,441.89453125,-995.1171875,190.91796875,0.0,0,0
1772204005.347853,1772204005.306814,-903.3203125,-791.015625,-934.5703125,543.45703125,0.0,0,0
1772204005.3478909,1772204005.310709,118.65234375,145.01953125,114.74609375,-15.625,0.0,0,0
1772204005.347928,1772204005.314604,-1000.0,-1000.0,-1000.0,-660.15625,0.0,0,0
1772204005.3479621,1772204005.3184993,-543.9453125,-1000.0,-140.13671875,-590.33203125,0.0,0,0
1772204005.3479989,1772204005.3223944,829.1015625,105.46875,980.46875,132.8125,0.0,0,0
1772204005.436428,1772204005.326411,-863.28125,-766.11328125,-920.41015625,583.0078125,0.0,0,0
1772204005.436579,1772204005.3303063,188.4765625,298.828125,224.12109375,104.98046875,0.0,0,0
1772204005.4366221,1772204005.3342013,-1000.0,-963.37890625,-1000.0,-594.7265625,0.0,0,0
1772204005.437052,1772204005.3380966,-816.89453125,-1000.0,-381.8359375,-661.62109375,0.0,0,0
1772204005.437095,1772204005.3419917,544.43359375,-104.4921875,884.27734375,54.6875,0.0,0,0
1772204005.437136,1772204005.345887,-806.640625,-813.96484375,-887.6953125,591.796875,0.0,0,0
1772204005.437175,1772204005.349782,151.3671875,501.953125,201.66015625,219.7265625,0.0,0,0
1772204005.437212,1772204005.353677,-1000.0,-860.83984375,-1000.0,-509.765625,0.0,0,0
1772204005.437247,1772204005.3575723,-1000.0,-1000.0,-589.84375,-693.84765625,0.0,0,0
1772204005.4372811,1772204005.3614674,189.94140625,-224.609375,674.31640625,-43.45703125,0.0,0,0
1772204005.4373178,1772204005.3653626,-766.6015625,-907.2265625,-849.609375,516.6015625,0.0,0,0
1772204005.437354,1772204005.3692577,226.07421875,751.46484375,258.7890625,291.50390625,0.0,0,0
1772204005.43841,1772204005.3732717,-999.51171875,-620.60546875,-1000.0,-431.640625,0.0,0,0
1772204005.438463,1772204005.3771667,-1000.0,-1000.0,-614.2578125,-709.47265625,0.0,0,0
1772204005.438499,1772204005.381062,-25.390625,-188.4765625,618.65234375,-112.79296875,0.0,0,0
1772204005.438535,1772204005.384957,-790.0390625,-974.12109375,-862.3046875,478.515625,0.0,0,0
1772204005.438571,1772204005.3888524,419.921875,973.14453125,425.78125,378.90625,0.0,0,0
1772204005.4386072,1772204005.3927474,-903.3203125,-270.01953125,-975.09765625,-354.98046875,0.0,0,0
1772204005.4386492,1772204005.3966427,-1000.0,-1000.0,-875.0,-737.3046875,0.0,0,0
1772204005.438686,1772204005.4005377,-202.1484375,-213.37890625,305.6640625,-200.68359375,0.0,0,0
1772204005.438761,1772204005.404433,-875.0,988.76953125,-887.6953125,427.24609375,0.0,0,0
1772204005.4388192,1772204005.408328,660.64453125,-951.171875,601.5625,452.63671875,0.0,0,0
1772204005.438859,1772204005.4122233,-724.12109375,-57.12890625,-827.1484375,-287.109375,0.0,0,0
1772204005.438897,1772204005.4161184,-1000.0,-1000.0,-914.55078125,-763.671875,0.0,0,0
1772204005.482881,1772204005.4201102,-202.1484375,-392.08984375,314.453125,-291.50390625,0.0,0,0
1772204005.4830022,1772204005.4240055,-950.68359375,901.3671875,-955.56640625,372.55859375,0.0,0,0
1772204005.48306,1772204005.4279006,896.484375,-894.04296875,847.16796875,514.6484375,0.0,0,0
1772204005.483114,1772204005.4317958,-410.15625,137.20703125,-510.25390625,-197.265625,0.0,0,0
1772204005.483168,1772204005.4356909,-1000.0,-1000.0,-1000.0,-761.71875,0.0,0,0
1772204005.4832199,1772204005.4395862,-175.29296875,-569.3359375,253.90625,-396.97265625,0.0,0,0
1772204005.483271,1772204005.4434812,-997.0703125,816.89453125,-989.2578125,294.43359375,0.0,0,0
1772204005.4833221,1772204005.4473765,-966.30859375,-857.421875,-986.81640625,521.484375,0.0,0,0
1772204005.483372,1772204005.4512718,-102.05078125,181.15234375,-173.33984375,-131.34765625,0.0,0,0
1772204005.483423,1772204005.4551668,-1000.0,-1000.0,-1000.0,-735.3515625,0.0,0,0
1772204005.483469,1772204005.459062,-324.70703125,-871.58203125,91.796875,-493.65234375,0.0,0,0
1772204005.483537,1772204005.4629571,934.08203125,466.796875,997.55859375,222.16796875,0.0,0,0
1772204005.570812,1772204005.4669404,-911.62109375,-794.43359375,-935.05859375,561.03515625,0.0,0,0
1772204005.571023,1772204005.4708357,90.8203125,146.484375,56.640625,-20.01953125,0.0,0,0
1772204005.5710778,1772204005.4747307,-1000.0,-1000.0,-1000.0,-666.50390625,0.0,0,0
1772204005.571127,1772204005.478626,-515.625,-1000.0,-110.3515625,-559.5703125,0.0,0,0
1772204005.571176,1772204005.482521,842.7734375,128.90625,968.26171875,165.0390625,0.0,0,0
1772204005.5712829,1772204005.4864163,-868.1640625,-763.18359375,-932.12890625,600.09765625,0.0,0,0
1772204005.571341,1772204005.4903116,194.3359375,237.79296875,203.125,97.65625,0.0,0,0
1772204005.5713909,1772204005.4942067,-1000.0,-994.140625,-1000.0,-587.890625,0.0,0,0
1772204005.571441,1772204005.498102,-772.4609375,-1000.0,-349.609375,-622.0703125,0.0,0,0
1772204005.571502,1772204005.501997,602.05078125,-59.5703125,892.08984375,80.56640625,0.0,0,0
1772204005.571552,1772204005.5058923,-816.89453125,-794.921875,-927.24609375,586.9140625,0.0,0,0
1772204005.5716019,1772204005.5097876,158.203125,433.10546875,185.05859375,189.94140625,0.0,0,0
1772204005.586816,1772204005.5137675,-1000.0,-896.97265625,-1000.0,-525.87890625,0.0,0,0
1772204005.586914,1772204005.5176628,-988.28125,-1000.0,-492.1875,-687.5,0.0,0,0
1772204005.58697,1772204005.5215578,267.578125,-235.83984375,777.34375,-12.20703125,0.0,0,0
1772204005.587024,1772204005.525453,-772.4609375,-885.7421875,-928.22265625,553.7109375,0.0,0,0
1772204005.5870762,1772204005.5293484,191.89453125,674.8046875,167.48046875,284.1796875,0.0,0,0
1772204005.587129,1772204005.5332434,-1000.0,-717.7734375,-1000.0,-445.80078125,0.0,0,0
1772204005.58719,1772204005.5371387,-1000.0,-1000.0,-618.65234375,-705.56640625,0.0,0,0
1772204005.587245,1772204005.541034,8.30078125,-198.73046875,619.140625,-97.16796875,0.0,0,0
1772204005.587296,1772204005.544929,-781.25,-956.0546875,-916.015625,502.9296875,0.0,0,0
1772204005.58736,1772204005.5488243,376.46484375,917.96875,306.640625,381.8359375,0.0,0,0
1772204005.587428,1772204005.5527196,-926.26953125,-377.9296875,-1000.0,-362.3046875,0.0,0,0
1772204005.5874949,1772204005.5566146,-1000.0,-1000.0,-738.28125,-721.19140625,0.0,0,0
1772204005.632174,1772204005.5606613,-169.921875,-173.33984375,483.88671875,-172.8515625,0.0,0,0
1772204005.6322749,1772204005.5645566,-850.5859375,-998.046875,-908.69140625,431.15234375,0.0,0,0
1772204005.632305,1772204005.568452,600.09765625,-961.9140625,522.4609375,445.3125,0.0,0,0
1772204005.6323352,1772204005.572347,-781.25,-84.47265625,-879.8828125,-271.484375,0.0,0,0
1772204005.632364,1772204005.5762422,-1000.0,-1000.0,-845.703125,-735.83984375,0.0,0,0
1772204005.632394,1772204005.5801375,-210.9375,-338.37890625,400.87890625,-261.23046875,0.0,0,0
1772204005.632423,1772204005.5840328,-934.08203125,929.19921875,-949.70703125,384.765625,0.0,0,0
1772204005.632452,1772204005.5879278,840.8203125,-908.203125,759.27734375,512.20703125,0.0,0,0
1772204005.632483,1772204005.591823,-496.09375,100.5859375,-605.95703125,-190.4296875,0.0,0,0
1772204005.632513,1772204005.5957184,-1000.0,-1000.0,-970.703125,-734.375,0.0,0,0
1772204005.632567,1772204005.5996137,-178.7109375,-555.17578125,328.61328125,-355.95703125,0.0,0,0
1772204005.632607,1772204005.603509,-993.1640625,819.3359375,-993.65234375,327.63671875,0.0,0,0
1772204005.6774652,1772204005.6075432,-976.07421875,-858.88671875,981.93359375,564.453125,0.0,0,0
1772204005.677556,1772204005.6114385,-148.4375,186.03515625,-229.00390625,-77.63671875,0.0,0,0
1772204005.677598,1772204005.6153338,-1000.0,-1000.0,-1000.0,-677.24609375,0.0,0,0
1772204005.677635,1772204005.619229,-280.2734375,-834.9609375,125.9765625,-431.15234375,0.0,0,0
1772204005.6776729,1772204005.6231241,956.54296875,520.99609375,-1000.0,272.4609375,0.0,0,0
1772204005.67771,1772204005.6270194,-925.29296875,-801.7578125,-941.40625,604.00390625,0.0,0,0
1772204005.6777458,1772204005.6309147,36.62109375,149.4140625,4.8828125,34.66796875,0.0,0,0
1772204005.677782,1772204005.63481,-1000.0,-1000.0,-1000.0,-613.76953125,0.0,0,0
1772204005.6778219,1772204005.6387053,-463.8671875,-1000.0,-73.2421875,-507.32421875,0.0,0,0
1772204005.677858,1772204005.6426005,866.2109375,168.45703125,968.26171875,214.35546875,0.0,0,0
1772204005.6778939,1772204005.6464958,-877.44140625,-764.16015625,-963.37890625,634.27734375,0.0,0,0
1772204005.677931,1772204005.650391,203.61328125,209.47265625,171.38671875,121.58203125,0.0,0,0
1772204005.722518,1772204005.654416,-1000.0,-1000.0,-1000.0,-575.1953125,0.0,0,0
1772204005.722671,1772204005.6583114,-708.0078125,-1000.0,-237.3046875,-589.35546875,0.0,0,0
1772204005.722732,1772204005.6622066,683.59375,-33.69140625,946.77734375,124.51171875,0.0,0,0
1772204005.722786,1772204005.6661017,-831.54296875,-787.59765625,-996.58203125,612.79296875,0.0,0,0
1772204005.7228448,1772204005.669997,166.50390625,402.34375,160.64453125,199.21875,0.0,0,0
1772204005.7228959,1772204005.6738923,-1000.0,-911.62109375,-1000.0,-487.79296875,0.0,0,0
1772204005.7229462,1772204005.6777875,-946.77734375,-1000.0,-479.98046875,-607.421875,0.0,0,0
1772204005.72324,1772204005.6816828,350.5859375,-225.5859375,791.9921875,50.78125,0.0,0,0
1772204005.723295,1772204005.685578,-780.76171875,-873.046875,-968.26171875,588.37890625,0.0,0,0
1772204005.72335,1772204005.6894734,142.578125,637.20703125,113.76953125,301.7578125,0.0,0,0
1772204005.723393,1772204005.6933687,-1000.0,-754.8828125,-1000.0,-424.8046875,0.0,0,0
1772204005.723428,1772204005.697264,-1000.0,-1000.0,-520.5078125,-669.43359375,0.0,0,0
1772204005.768539,1772204005.7012787,57.6171875,-205.56640625,742.67578125,-37.109375,0.0,0,0
1772204005.768706,1772204005.705174,-770.99609375,-942.3828125,-955.078125,555.6640625,0.0,0,0
1772204005.768762,1772204005.7090693,327.63671875,872.55859375,235.83984375,409.66796875,0.0,0,0
1772204005.768814,1772204005.7129645,-951.171875,-447.75390625,-1000.0,-313.96484375,0.0,0,0
1772204005.768864,1772204005.7168598,-1000.0,-1000.0,-637.20703125,-652.34375,0.0,0,0
1772204005.768916,1772204005.720755,-130.859375,-177.24609375,609.375,-94.7265625,0.0,0,0
1772204005.768965,1772204005.7246504,-822.75390625,-992.67578125,-938.96484375,520.99609375,0.0,0,0
1772204005.769016,1772204005.7285457,521.97265625,-974.12109375,409.1796875,512.6953125,0.0,0,0
1772204005.769065,1772204005.732441,-852.05078125,-134.27734375,-954.58984375,-229.00390625,0.0,0,0
1772204005.769116,1772204005.7363362,-1000.0,-1000.0,-721.6796875,-683.59375,0.0,0,0
1772204005.769163,1772204005.7402315,-218.75,-320.3125,536.62109375,-194.82421875,0.0,0,0
1772204005.769212,1772204005.7441268,-921.875,938.4765625,-958.984375,440.4296875,0.0,0,0
1772204005.8138812,1772204005.7481344,799.31640625,-916.50390625,698.73046875,538.0859375,0.0,0,0
1772204005.8140118,1772204005.7520297,-556.640625,50.78125,-673.828125,-177.24609375,0.0,0,0
1772204005.81407,1772204005.755925,-1000.0,-1000.0,-899.4140625,-711.42578125,0.0,0,0
1772204005.814132,1772204005.7598205,-182.6171875,-510.7421875,407.71484375,-306.640625,0.0,0,0
1772204005.814234,1772204005.7637157,-985.3515625,839.84375,-993.1640625,377.9296875,0.0,0,0
1772204005.814312,1772204005.767611,-995.60546875,-866.69921875,939.94140625,587.40234375,0.0,0,0
1772204005.8143659,1772204005.7715063,-205.078125,194.3359375,-323.2421875,-69.82421875,0.0,0,0
1772204005.8144178,1772204005.7754016,-1000.0,-1000.0,-1000.0,-663.57421875,0.0,0,0
1772204005.8144681,1772204005.7792969,-244.62890625,-775.390625,269.53125,-390.13671875,0.0,0,0
1772204005.814519,1772204005.7831922,970.21484375,599.12109375,-997.0703125,319.82421875,0.0,0,0
1772204005.814579,1772204005.7870874,-936.03515625,-815.91796875,-953.125,631.8359375,0.0,0,0
1772204005.8146281,1772204005.7909827,6.34765625,159.66796875,-62.5,34.66796875,0.0,0,0
1772204005.871736,1772204005.7950592,-1000.0,-1000.0,-1000.0,-584.9609375,0.0,0,0
1772204005.8718011,1772204005.7989545,-435.05859375,-983.3984375,94.23828125,-430.6640625,0.0,0,0
1772204005.871831,1772204005.8028498,879.39453125,282.71484375,986.81640625,279.296875,0.0,0,0
1772204005.871857,1772204005.806745,-883.30078125,-773.92578125,-958.984375,682.6171875,0.0,0,0
1772204005.871882,1772204005.8106406,190.91796875,162.109375,154.296875,153.80859375,0.0,0,0
1772204005.871906,1772204005.8145359,-1000.0,-1000.0,-1000.0,-523.4375,0.0,0,0
1772204005.871928,1772204005.8184311,-668.45703125,-1000.0,-127.44140625,-516.11328125,0.0,0,0
1772204005.8719518,1772204005.8223264,723.14453125,33.69140625,974.12109375,167.96875,0.0,0,0
1772204005.871975,1772204005.826222,-839.35546875,-772.94921875,994.140625,639.6484375,0.0,0,0
1772204005.8719978,1772204005.8301172,171.875,334.47265625,173.33984375,221.6796875,0.0,0,0
1772204005.872022,1772204005.8340125,-1000.0,-945.3125,-1000.0,-472.65625,0.0,0,0
1772204005.8720372,1772204005.8379078,-915.0390625,-1000.0,-358.88671875,-568.84765625,0.0,0,0
1772204005.901781,1772204005.8418868,399.4140625,-175.78125,878.90625,103.02734375,0.0,0,0
1772204005.901821,1772204005.845782,-786.62109375,-836.9140625,-991.69921875,636.71875,0.0,0,0
1772204005.901838,1772204005.8496776,143.06640625,548.828125,113.28125,323.2421875,0.0,0,0
1772204005.901854,1772204005.8535728,-1000.0,-836.9140625,-1000.0,-405.2734375,0.0,0,0
1772204005.90187,1772204005.8574681,-1000.0,-1000.0,-538.0859375,-628.41796875,0.0,0,0
1772204005.901885,1772204005.8613636,85.9375,-216.30859375,730.95703125,-2.44140625,0.0,0,0
1772204005.9019022,1772204005.865259,-768.5546875,-924.31640625,980.95703125,572.265625,0.0,0,0
1772204005.901919,1772204005.8691542,302.24609375,812.5,110.83984375,393.5546875,0.0,0,0
1772204005.90197,1772204005.8730497,-963.37890625,-540.52734375,-1000.0,-343.26171875,0.0,0,0
1772204005.90199,1772204005.876945,-1000.0,-1000.0,-622.0703125,-660.64453125,0.0,0,0
1772204005.902005,1772204005.8808403,-101.5625,-180.17578125,640.13671875,-85.44921875,0.0,0,0
1772204005.902022,1772204005.8847356,-813.4765625,-989.2578125,-981.4453125,518.06640625,0.0,0,0
1772204005.9613152,1772204005.888705,495.60546875,-982.91015625,295.41015625,488.76953125,0.0,0,0
1772204005.961379,1772204005.8926003,-864.2578125,-178.7109375,-964.35546875,-250.0,0.0,0,0
1772204005.961401,1772204005.8964958,-1000.0,-1000.0,-726.07421875,-684.5703125,0.0,0,0
1772204005.961418,1772204005.900391,-224.609375,-269.04296875,503.90625,-179.19921875,0.0,0,0
1772204005.9614358,1772204005.9042864,-909.66796875,960.9375,-970.21484375,462.890625,0.0,0,0
1772204005.961452,1772204005.908182,757.8125,-928.7109375,570.3125,544.921875,0.0,0,0
1772204005.961472,1772204005.9120772,-611.328125,23.4375,-750.48828125,-181.640625,0.0,0,0
1772204005.9614878,1772204005.9159725,-1000.0,-1000.0,-874.51171875,-697.265625,0.0,0,0
1772204005.961504,1772204005.919868,-187.98828125,-476.5625,402.34375,-274.4140625,0.0,0,0
1772204005.9615202,1772204005.9237633,-976.07421875,858.3984375,-994.62890625,385.7421875,0.0,0,0
1772204005.9615371,1772204005.9276586,976.5625,-874.0234375,861.328125,567.87109375,0.0,0,0
1772204005.9615529,1772204005.931554,-263.18359375,190.4296875,-409.1796875,-109.86328125,0.0,0,0
1772204006.006933,1772204005.9355972,-1000.0,-1000.0,-983.88671875,-682.6171875,0.0,0,0
1772204006.007042,1772204005.9394925,-212.890625,-718.26171875,373.53515625,-376.46484375,0.0,0,0
1772204006.0070798,1772204005.943388,983.88671875,670.8984375,996.09375,312.5,0.0,0,0
1772204006.007105,1772204005.9472833,-946.2890625,-827.63671875,-977.05078125,606.4453125,0.0,0,0
1772204006.0071292,1772204005.9511788,-26.85546875,165.0390625,-117.67578125,-5.859375,0.0,0,0
1772204006.007154,1772204005.955074,-1000.0,-1000.0,-1000.0,-629.39453125,0.0,0,0
1772204006.007176,1772204005.9589694,-404.296875,-957.51953125,225.09765625,-451.171875,0.0,0,0
1772204006.007199,1772204005.9628649,895.5078125,334.9609375,985.3515625,265.625,0.0,0,0
1772204006.007222,1772204005.9667602,-891.6015625,-777.83203125,997.0703125,638.671875,0.0,0,0
1772204006.0072472,1772204005.9706557,156.25,141.11328125,83.0078125,100.5859375,0.0,0,0
1772204006.0072699,1772204005.974551,-1000.0,-1000.0,-1000.0,-558.59375,0.0,0,0
1772204006.0072908,1772204005.9784465,-619.140625,-1000.0,0.48828125,-528.3203125,0.0,0,0
1772204006.051797,1772204005.982478,767.578125,53.22265625,993.1640625,181.15234375,0.0,0,0
1772204006.051852,1772204005.9863734,-848.6328125,-770.01953125,920.8984375,639.6484375,0.0,0,0
1772204006.051869,1772204005.9902687,178.7109375,310.05859375,128.90625,174.31640625,0.0,0,0
1772204006.0518851,1772204005.9941642,-1000.0,-960.9375,-1000.0,-516.6015625,0.0,0,0
1772204006.051899,1772204005.9980595,-870.60546875,-1000.0,-215.8203125,-586.9140625,0.0,0,0
1772204006.051914,1772204006.001955,467.7734375,-122.0703125,983.88671875,94.7265625,0.0,0,0
1772204006.051929,1772204006.0058503,-795.41015625,-816.40625,835.9375,613.28125,0.0,0,0
1772204006.0519428,1772204006.0097458,145.99609375,496.58203125,-16.6015625,270.5078125,0.0,0,0
1772204006.051958,1772204006.013641,-1000.0,-866.69921875,-1000.0,-448.73046875,0.0,0,0
1772204006.051971,1772204006.0175366,-1000.0,-1000.0,-385.7421875,-646.484375,0.0,0,0
1772204006.0519848,1772204006.0214322,122.0703125,-225.09765625,896.97265625,-1.953125,0.0,0,0
1772204006.0520132,1772204006.0253274,-764.6484375,-907.71484375,870.60546875,568.359375,0.0,0,0
1772204006.096833,1772204006.0293472,253.41796875,752.9296875,-15.13671875,371.09375,0.0,0,0
1772204006.0968661,1772204006.0332427,-986.328125,-618.1640625,-1000.0,-367.1875,0.0,0,0
1772204006.096877,1772204006.0371382,-1000.0,-1000.0,-458.984375,-680.6640625,0.0,0,0
1772204006.096888,1772204006.0410335,-67.87109375,-185.05859375,829.1015625,-90.33203125,0.0,0,0
1772204006.096899,1772204006.044929,-800.78125,-983.3984375,932.6171875,507.8125,0.0,0,0
1772204006.096909,1772204006.0488243,454.58984375,997.55859375,180.17578125,447.265625,0.0,0,0
1772204006.096919,1772204006.0527198,-885.25390625,-220.21484375,-1000.0,-270.99609375,0.0,0,0
1772204006.096951,1772204006.0566154,-1000.0,-1000.0,-576.66015625,-681.640625,0.0,0,0
1772204006.096978,1772204006.0605106,-226.5625,-238.76953125,715.8203125,-175.29296875,0.0,0,0
1772204006.096991,1772204006.0644062,-889.16015625,977.05078125,989.2578125,447.265625,0.0,0,0
1772204006.097002,1772204006.0683017,689.94140625,-940.91796875,426.7578125,500.48828125,0.0,0,0
1772204006.097013,1772204006.072197,-698.2421875,-24.90234375,-849.609375,-217.7734375,0.0,0,0
1772204006.171634,1772204006.0763748,-1000.0,-1000.0,-688.96484375,-716.796875,0.0,0,0
1772204006.1716769,1772204006.0802703,-197.75390625,-405.76171875,628.41796875,-272.94921875,0.0,0,0
1772204006.171693,1772204006.0841658,-958.49609375,895.01953125,991.2109375,387.6953125,0.0,0,0
1772204006.1717062,1772204006.0880613,924.31640625,-890.13671875,748.046875,553.22265625,0.0,0,0
1772204006.1717188,1772204006.0919569,-367.67578125,163.0859375,-541.9921875,-126.46484375,0.0,0,0
1772204006.171734,1772204006.0958521,-1000.0,-1000.0,-820.3125,-693.84765625,0.0,0,0
1772204006.171746,1772204006.0997477,-174.31640625,-618.1640625,572.75390625,-365.234375,0.0,0,0
1772204006.1717591,1772204006.1036432,-998.53515625,770.5078125,979.4921875,329.58984375,0.0,0,0
1772204006.171772,1772204006.1075387,-963.37890625,-847.65625,923.828125,599.12109375,0.0,0,0
1772204006.171784,1772204006.1114342,-83.0078125,175.29296875,-236.81640625,-25.87890625,0.0,0,0
1772204006.171797,1772204006.1153295,-1000.0,-1000.0,-1000.0,-637.6953125,0.0,0,0
1772204006.171835,1772204006.119225,-355.95703125,-904.296875,374.0234375,-438.4765625,0.0,0,0
1772204006.186676,1772204006.1232297,919.43359375,416.50390625,996.58203125,272.94921875,0.0,0,0
1772204006.1867,1772204006.1271253,-904.296875,-788.57421875,940.4296875,637.6953125,0.0,0,0
1772204006.186715,1772204006.1310208,108.88671875,146.484375,-29.78515625,84.9609375,0.0,0,0
1772204006.186732,1772204006.1349163,-1000.0,-1000.0,-1000.0,-568.359375,0.0,0,0
1772204006.1867452,1772204006.1388118,-550.78125,-1000.0,175.29296875,-510.7421875,0.0,0,0
1772204006.186759,1772204006.1427073,823.2421875,124.51171875,-970.21484375,185.05859375,0.0,0,0
1772204006.186774,1772204006.1466026,-861.328125,-763.18359375,803.7109375,626.953125,0.0,0,0
1772204006.186805,1772204006.1504982,187.01171875,235.83984375,15.13671875,172.8515625,0.0,0,0
1772204006.186829,1772204006.1543937,-1000.0,-990.234375,-1000.0,-508.7890625,0.0,0,0
1772204006.1868448,1772204006.1582892,-826.171875,-1000.0,-104.00390625,-583.984375,0.0,0,0
1772204006.186859,1772204006.1621847,532.2265625,-97.16796875,-994.140625,107.421875,0.0,0,0
1772204006.18689,1772204006.1660802,-804.6875,-801.7578125,854.98046875,619.140625,0.0,0,0
1772204006.232085,1772204006.1700666,150.87890625,437.5,39.55078125,247.55859375,0.0,0,0
1772204006.232125,1772204006.173962,-1000.0,-899.90234375,-1000.0,-463.8671875,0.0,0,0
1772204006.2321439,1772204006.1778576,-1000.0,-1000.0,-285.64453125,-647.4609375,0.0,0,0
1772204006.232161,1772204006.181753,183.59375,-231.4453125,982.421875,3.90625,0.0,0,0
1772204006.232178,1772204006.1856484,-765.625,-899.90234375,797.8515625,573.73046875,0.0,0,0
1772204006.2321951,1772204006.189544,221.19140625,728.515625,-99.609375,334.9609375,0.0,0,0
1772204006.232212,1772204006.1934395,-1000.0,-650.390625,-1000.0,-398.92578125,0.0,0,0
1772204006.232228,1772204006.197335,-1000.0,-1000.0,-457.51953125,-679.19921875,0.0,0,0
1772204006.232243,1772204006.2012305,-35.15625,-196.2890625,849.12109375,-90.8203125,0.0,0,0
1772204006.23226,1772204006.205126,-790.0390625,-957.03125,851.07421875,488.28125,0.0,0,0
1772204006.232276,1772204006.2090216,410.15625,924.31640625,-65.4296875,379.8828125,0.0,0,0
1772204006.2322938,1772204006.212917,-908.69140625,-366.69921875,-1000.0,-358.88671875,0.0,0,0
1772204006.277704,1772204006.2168932,-1000.0,-1000.0,-488.76953125,-723.6328125,0.0,0,0
1772204006.277746,1772204006.2207887,-213.37890625,-184.08203125,791.50390625,-183.10546875,0.0,0,0
1772204006.27777,1772204006.2246842,-875.0,997.0703125,947.265625,437.5,0.0,0,0
1772204006.2777941,1772204006.2285798,652.83203125,-958.984375,263.18359375,484.375,0.0,0,0
1772204006.277817,1772204006.2324753,-735.3515625,-73.73046875,-944.3359375,-234.375,0.0,0,0
1772204006.2778702,1772204006.2363708,-1000.0,-1000.0,-532.71484375,-716.30859375,0.0,0,0
1772204006.277913,1772204006.2402663,-202.63671875,-368.1640625,807.6171875,-261.71875,0.0,0,0
1772204006.277938,1772204006.2441618,-949.21875,915.52734375,972.65625,386.71875,0.0,0,0
1772204006.277961,1772204006.2480574,892.578125,-901.85546875,632.8125,544.43359375,0.0,0,0
1772204006.277985,1772204006.251953,-416.015625,107.91015625,-636.23046875,-146.97265625,0.0,0,0
1772204006.278008,1772204006.2558484,-1000.0,-1000.0,-717.28515625,-705.078125,0.0,0,0
1772204006.278031,1772204006.259744,-175.78125,-564.453125,669.921875,-335.44921875,0.0,0,0
1772204006.336875,1772204006.263711,-996.09375,814.94140625,973.6328125,344.23828125,0.0,0,0
1772204006.336985,1772204006.2676065,-969.23828125,-857.421875,868.1640625,584.9609375,0.0,0,0
1772204006.337031,1772204006.271502,-108.88671875,184.08203125,-341.30859375,-46.875,0.0,0,0
1772204006.337069,1772204006.2753975,-1000.0,-1000.0,-899.90234375,-644.04296875,0.0,0,0
1772204006.337111,1772204006.279293,-337.890625,-845.21484375,547.36328125,-418.45703125,0.0,0,0
1772204006.337149,1772204006.2831886,928.7109375,507.8125,-991.2109375,287.59765625,0.0,0,0
1772204006.337186,1772204006.287084,-910.15625,-799.8046875,860.83984375,640.13671875,0.0,0,0
1772204006.3372228,1772204006.2909796,81.54296875,147.94921875,-163.57421875,63.96484375,0.0,0,0
1772204006.33726,1772204006.2948751,-1000.0,-1000.0,-1000.0,-583.984375,0.0,0,0
1772204006.337295,1772204006.2987707,-528.80859375,-1000.0,315.4296875,-489.74609375,0.0,0,0
1772204006.337333,1772204006.3026662,833.0078125,146.97265625,-958.984375,216.796875,0.0,0,0
1772204006.3373692,1772204006.3065617,-865.234375,-762.20703125,769.04296875,641.6015625,0.0,0,0
1772204006.382169,1772204006.3106012,191.40625,221.6796875,-64.94140625,142.578125,0.0,0,0
1772204006.3822222,1772204006.3144968,-1000.0,-999.51171875,-1000.0,-538.0859375,0.0,0,0
1772204006.3823,1772204006.3183923,-789.55078125,-1000.0,2.9296875,-572.75390625,0.0,0,0
1772204006.3823712,1772204006.3222878,580.078125,-51.26953125,-929.6875,109.375,0.0,0,0
1772204006.382401,1772204006.3261836,-812.98828125,-791.9921875,655.2734375,602.5390625,0.0,0,0
1772204006.382484,1772204006.330079,155.2734375,424.31640625,-210.9375,220.703125,0.0,0,0
1772204006.3825102,1772204006.3339746,-1000.0,-901.85546875,-1000.0,-481.4453125,0.0,0,0
1772204006.3825338,1772204006.3378701,-1000.0,-1000.0,-166.015625,-635.7421875,0.0,0,0
1772204006.3826828,1772204006.3417656,229.98046875,-224.609375,-916.50390625,20.5078125,0.0,0,0
1772204006.3827279,1772204006.3456612,-770.01953125,-878.90625,592.28515625,568.84765625,0.0,0,0
1772204006.382755,1772204006.3495567,189.94140625,660.15625,-403.3203125,314.94140625,0.0,0,0
1772204006.3827798,1772204006.3534524,-1000.0,-730.46875,-1000.0,-402.83203125,0.0,0,0
1772204006.426729,1772204006.3574812,-1000.0,-1000.0,-218.26171875,-658.203125,0.0,0,0
1772204006.426761,1772204006.3613768,-15.625,-201.171875,-914.55078125,-36.62109375,0.0,0,0
1772204006.426775,1772204006.3652723,-784.1796875,-951.66015625,702.1484375,546.38671875,0.0,0,0
1772204006.426788,1772204006.369168,379.8828125,903.3203125,-286.1328125,426.7578125,0.0,0,0
1772204006.426801,1772204006.3730636,-924.31640625,-400.390625,-1000.0,-292.96875,0.0,0,0
1772204006.426869,1772204006.376959,-1000.0,-1000.0,-324.21875,-650.390625,0.0,0,0
1772204006.4269161,1772204006.3808546,-197.265625,-176.26953125,-988.76953125,-99.12109375,0.0,0,0
1772204006.426934,1772204006.3847504,-854.98046875,-992.67578125,817.87109375,495.60546875,0.0,0,0
1772204006.426948,1772204006.388646,591.30859375,-973.14453125,-168.9453125,490.72265625,0.0,0,0
1772204006.426961,1772204006.3925414,-796.875,-123.53515625,-1000.0,-224.609375,0.0,0,0
1772204006.426974,1772204006.396437,-1000.0,-1000.0,-388.18359375,-670.41015625,0.0,0,0
1772204006.426986,1772204006.4003325,-209.9609375,-352.5390625,920.41015625,-193.359375,0.0,0,0
1772204006.471612,1772204006.4043503,-937.98828125,928.7109375,926.7578125,429.19921875,0.0,0,0
1772204006.471701,1772204006.408246,854.00390625,-914.55078125,226.5625,544.43359375,0.0,0,0
1772204006.471721,1772204006.4121416,-475.09765625,25.390625,-915.0390625,-125.0,0.0,0,0
1772204006.471732,1772204006.416037,-1000.0,-1000.0,-378.90625,-655.2734375,0.0,0,0
1772204006.471741,1772204006.4199328,-178.7109375,-523.4375,-988.76953125,-291.015625,0.0,0,0
1772204006.471749,1772204006.4238284,-992.67578125,828.61328125,956.54296875,374.0234375,0.0,0,0
1772204006.4717581,1772204006.427724,-978.02734375,-862.79296875,409.1796875,606.93359375,0.0,0,0
1772204006.471766,1772204006.4316196,-147.4609375,191.89453125,-752.9296875,-19.04296875,0.0,0,0
1772204006.471775,1772204006.4355152,-1000.0,-1000.0,-551.26953125,-612.3046875,0.0,0,0
1772204006.471783,1772204006.4394107,-313.4765625,-791.015625,911.62109375,-393.5546875,0.0,0,0
1772204006.471791,1772204006.4433064,940.4296875,578.61328125,980.46875,272.94921875,0.0,0,0
1772204006.4718,1772204006.447202,-918.45703125,-812.5,654.296875,592.28515625,0.0,0,0
1772204006.516742,1772204006.4512095,47.8515625,157.71484375,-456.54296875,27.34375,0.0,0,0
1772204006.516774,1772204006.455105,-1000.0,-1000.0,-608.3984375,-608.3984375,0.0,0,0
1772204006.5167842,1772204006.4590008,-503.41796875,-994.62890625,878.90625,-506.8359375,0.0,0,0
1772204006.516793,1772204006.4628963,843.75,258.7890625,-966.30859375,174.8046875,0.0,0,0
1772204006.516804,1772204006.466792,-869.140625,-771.484375,533.69140625,578.125,0.0,0,0
1772204006.516812,1772204006.4706876,195.80078125,177.24609375,-476.5625,87.40234375,0.0,0,0
1772204006.516821,1772204006.4745831,-1000.0,-1000.0,-750.0,-564.94140625,0.0,0,0
1772204006.516829,1772204006.478479,-760.7421875,-1000.0,670.8984375,-564.453125,0.0,0,0
1772204006.5168378,1772204006.4823744,617.67578125,9.765625,-911.62109375,109.375,0.0,0,0
1772204006.5168462,1772204006.48627,-819.3359375,-776.3671875,465.33203125,571.2890625,0.0,0,0
1772204006.516854,1772204006.4901657,159.1796875,337.40234375,-403.3203125,183.10546875,0.0,0,0
1772204006.5168629,1772204006.4940612,-1000.0,-947.75390625,-895.01953125,-503.90625,0.0,0,0
1772204006.562541,1772204006.4980588,-988.76953125,-1000.0,396.484375,-627.9296875,0.0,0,0
1772204006.5625758,1772204006.5019543,275.87890625,-170.8984375,-821.77734375,39.55078125,0.0,0,0
1772204006.562588,1772204006.50585,-774.4140625,-831.54296875,318.359375,567.87109375,0.0,0,0
1772204006.562598,1772204006.5097456,139.6484375,526.85546875,-604.4921875,285.15625,0.0,0,0
1772204006.5626082,1772204006.5136414,-1000.0,-855.46875,-999.0234375,-414.0625,0.0,0,0
1772204006.562619,1772204006.5175369,-1000.0,-1000.0,149.90234375,-642.08984375,0.0,0,0
1772204006.5626292,1772204006.5214326,16.11328125,-219.7265625,-784.66796875,-47.8515625,0.0,0,0
1772204006.562638,1772204006.5253282,-775.390625,-917.48046875,334.9609375,511.71875,0.0,0,0
1772204006.562648,1772204006.529224,335.9375,787.109375,-630.859375,377.9296875,0.0,0,0
1772204006.562657,1772204006.5331194,-947.265625,-573.73046875,-1000.0,-337.890625,0.0,0,0
1772204006.562667,1772204006.537015,-1000.0,-1000.0,-69.3359375,-672.8515625,0.0,0,0
1772204006.562676,1772204006.5409107,-168.9453125,-182.12890625,-806.640625,-122.55859375,0.0,0,0
1772204006.606696,1772204006.544898,-833.0078125,-986.328125,495.60546875,479.98046875,0.0,0,0
1772204006.606722,1772204006.5487936,535.64453125,-992.67578125,-478.515625,477.5390625,0.0,0,0
1772204006.606736,1772204006.5526893,-849.609375,-196.2890625,-1000.0,-236.81640625,0.0,0,0
1772204006.6067479,1772204006.5565848,-1000.0,-1000.0,-219.7265625,-663.0859375,0.0,0,0
1772204006.60676,1772204006.5604806,-218.26171875,-270.01953125,-856.93359375,-189.94140625,0.0,0,0
1772204006.606772,1772204006.564376,-922.36328125,962.40234375,655.2734375,397.4609375,0.0,0,0
1772204006.606783,1772204006.5682719,800.29296875,-931.15234375,-236.328125,488.28125,0.0,0,0
1772204006.606795,1772204006.5721674,-555.6640625,7.32421875,-934.08203125,-164.55078125,0.0,0,0
1772204006.606807,1772204006.5760632,-1000.0,-1000.0,-221.6796875,-660.64453125,0.0,0,0
1772204006.606818,1772204006.5799587,-180.17578125,-456.54296875,-948.73046875,-316.40625,0.0,0,0
1772204006.6068292,1772204006.5838544,-991.69921875,870.1171875,902.83203125,313.96484375,0.0,0,0
1772204006.606854,1772204006.58775,-980.95703125,-879.39453125,-888.671875,528.80859375,0.0,0,0
1772204006.651797,1772204006.5917268,-170.41015625,176.7578125,58.10546875,-115.234375,0.0,0,0
1772204006.6518312,1772204006.5956223,-1000.0,-1000.0,-20.5078125,-682.6171875,0.0,0,0
1772204006.6518452,1772204006.599518,-261.71875,-687.5,-882.32421875,-426.26953125,0.0,0,0
1772204006.651857,1772204006.6034136,963.37890625,700.1953125,878.90625,228.02734375,0.0,0,0
1772204006.6518679,1772204006.6073093,-930.17578125,-833.984375,-848.14453125,527.83203125,0.0,0,0
1772204006.651881,1772204006.6112049,25.390625,170.41015625,89.84375,-47.8515625,0.0,0,0
1772204006.651892,1772204006.6151006,-1000.0,-1000.0,-229.4921875,-637.20703125,0.0,0,0
1772204006.651903,1772204006.6189964,-456.0546875,-921.875,-936.03515625,-493.1640625,0.0,0,0
1772204006.651915,1772204006.622892,869.62890625,389.16015625,909.66796875,177.24609375,0.0,0,0
1772204006.651926,1772204006.6267877,-879.39453125,-785.15625,-861.328125,567.87109375,0.0,0,0
1772204006.651938,1772204006.6306832,196.2890625,145.01953125,81.0546875,70.3125,0.0,0,0
1772204006.6519492,1772204006.634579,-1000.0,-1000.0,-284.1796875,-569.82421875,0.0,0,0
1772204006.711745,1772204006.6386278,-695.80078125,-1000.0,-944.82421875,-568.84765625,0.0,0,0
1772204006.7117891,1772204006.6425235,695.3125,108.3984375,905.76171875,104.4921875,0.0,0,0
1772204006.711806,1772204006.6464193,-837.890625,-770.5078125,-857.421875,573.73046875,0.0,0,0
1772204006.711821,1772204006.6503148,182.6171875,314.94140625,132.32421875,172.8515625,0.0,0,0
1772204006.7118359,1772204006.6542106,-1000.0,-1000.0,-446.2890625,-510.25390625,0.0,0,0
1772204006.711852,1772204006.6581063,-831.0546875,-1000.0,975.5859375,-547.36328125,0.0,0,0
1772204006.7118669,1772204006.6620018,548.33984375,127.9296875,932.6171875,137.20703125,0.0,0,0
1772204006.711881,1772204006.6658976,-800.78125,-817.3828125,-885.7421875,568.359375,0.0,0,0
1772204006.7118962,1772204006.6697934,139.6484375,455.078125,281.73828125,271.484375,0.0,0,0
1772204006.7119098,1772204006.673689,-1000.0,-875.9765625,-751.953125,-419.43359375,0.0,0,0
1772204006.711925,1772204006.6775846,-1000.0,-1000.0,657.71484375,-631.8359375,0.0,0,0
1772204006.711939,1772204006.6814802,61.5234375,-229.00390625,-966.796875,-26.85546875,0.0,0,0
1772204006.785604,1772204006.6856036,-770.01953125,-902.34375,928.22265625,552.24609375,0.0,0,0
1772204006.785645,1772204006.6894994,316.40625,735.83984375,363.28125,404.78515625,0.0,0,0
1772204006.7856698,1772204006.6933951,-956.0546875,-641.11328125,-910.15625,-295.8984375,0.0,0,0
1772204006.785694,1772204006.6972907,-1000.0,-1000.0,210.44921875,-595.703125,0.0,0,0
1772204006.785716,1772204006.7011864,-128.41796875,-193.359375,-874.0234375,-37.109375,0.0,0,0
1772204006.785743,1772204006.7050822,-820.3125,-963.8671875,774.90234375,549.8046875,0.0,0,0
1772204006.785768,1772204006.708978,510.7421875,943.359375,359.86328125,500.0,0.0,0,0
1772204006.785824,1772204006.7128737,-858.88671875,-330.078125,-843.26171875,-224.609375,0.0,0,0
1772204006.785857,1772204006.7167692,-1000.0,-1000.0,-100.5859375,-617.67578125,0.0,0,0
1772204006.7859929,1772204006.720665,-222.16796875,-185.546875,-858.3984375,-112.79296875,0.0,0,0
1772204006.786019,1772204006.7245607,-914.55078125,996.09375,762.20703125,486.81640625,0.0,0,0
1772204006.786044,1772204006.7284565,774.4140625,-955.56640625,434.08203125,567.87109375,0.0,0,0
1772204006.8021362,1772204006.7324889,-589.35546875,-60.05859375,-681.15234375,-114.2578125,0.0,0,0
1772204006.802193,1772204006.7363846,-1000.0,-1000.0,-282.2265625,-607.421875,0.0,0,0
1772204006.802221,1772204006.7402804,-186.03515625,-367.67578125,-902.34375,-189.453125,0.0,0,0
1772204006.8022459,1772204006.7441761,-979.98046875,914.0625,800.29296875,458.0078125,0.0,0,0
1772204006.802274,1772204006.748072,987.3046875,-898.92578125,328.125,625.9765625,0.0,0,0
1772204006.8022988,1772204006.7519677,-239.2578125,138.671875,-640.625,-53.22265625,0.0,0,0
1772204006.8023229,1772204006.7558634,-1000.0,-1000.0,-488.28125,-630.37109375,0.0,0,0
1772204006.802346,1772204006.7597592,-229.00390625,-568.84765625,829.58984375,-327.1484375,0.0,0,0
1772204006.802369,1772204006.7636547,977.05078125,816.89453125,911.1328125,360.83984375,0.0,0,0
1772204006.802416,1772204006.7675505,-941.40625,-857.91015625,400.390625,637.20703125,0.0,0,0
1772204006.802453,1772204006.7714462,-12.6953125,184.5703125,-576.66015625,26.3671875,0.0,0,0
1772204006.802476,1772204006.775342,-1000.0,-1000.0,-651.85546875,-587.890625,0.0,0,0
1772204006.84686,1772204006.7793603,-415.0390625,-840.8203125,516.11328125,-416.015625,0.0,0,0
1772204006.8469079,1772204006.783256,889.6484375,513.671875,959.47265625,281.25,0.0,0,0
1772204006.8469398,1772204006.7871518,-885.25390625,-800.78125,512.6953125,644.04296875,0.0,0,0
1772204006.84697,1772204006.7910476,156.25,149.4140625,-549.8046875,113.28125,0.0,0,0
1772204006.8470001,1772204006.7949433,-1000.0,-1000.0,-626.46484375,-513.18359375,0.0,0,0
1772204006.84706,1772204006.798839,-598.6328125,-1000.0,601.5625,-487.3046875,0.0,0,0
1772204006.8471029,1772204006.8027349,738.76953125,163.0859375,980.95703125,176.7578125,0.0,0,0
1772204006.8471339,1772204006.8066304,-843.75,-763.18359375,643.5546875,634.27734375,0.0,0,0
1772204006.847164,1772204006.8105261,176.26953125,236.328125,-387.6953125,203.61328125,0.0,0,0
1772204006.847188,1772204006.814422,-1000.0,-994.140625,-742.1875,-458.984375,0.0,0,0
1772204006.8472111,1772204006.8183177,-894.04296875,-1000.0,484.375,-541.015625,0.0,0,0
1772204006.847233,1772204006.8222134,432.12890625,-47.8515625,-983.3984375,124.0234375,0.0,0,0
1772204006.907197,1772204006.826222,-791.015625,-792.48046875,592.28515625,649.4140625,0.0,0,0
1772204006.9073439,1772204006.8301177,145.01953125,423.33984375,-419.921875,331.0546875,0.0,0,0
1772204006.907394,1772204006.8340135,-1000.0,-902.83203125,-905.2734375,-357.421875,0.0,0,0
1772204006.907441,1772204006.8379092,-1000.0,-1000.0,88.37890625,-538.0859375,0.0,0,0
1772204006.907478,1772204006.841805,110.83984375,-218.26171875,944.82421875,84.47265625,0.0,0,0
1772204006.9075148,1772204006.8457007,-766.11328125,-883.7890625,545.8984375,625.0,0.0,0,0
1772204006.9076009,1772204006.8495965,275.390625,684.5703125,-469.23828125,409.1796875,0.0,0,0
1772204006.9076731,1772204006.8534923,-975.5859375,-702.63671875,-982.91015625,-305.6640625,0.0,0,0
1772204006.907722,1772204006.857388,-1000.0,-1000.0,-171.38671875,-604.00390625,0.0,0,0
1772204006.9077601,1772204006.8612838,-83.984375,-199.70703125,880.37109375,-50.78125,0.0,0,0
1772204006.907797,1772204006.8651795,-805.17578125,-953.125,591.30859375,527.83203125,0.0,0,0
1772204006.9078348,1772204006.8690753,460.9375,908.203125,-363.28125,468.26171875,0.0,0,0
1772204006.9374819,1772204006.8730726,-883.30078125,-392.578125,-1000.0,-245.60546875,0.0,0,0
1772204006.937561,1772204006.8769686,-1000.0,-1000.0,-306.640625,-654.78515625,0.0,0,0
1772204006.937593,1772204006.8808644,-230.95703125,-173.33984375,851.07421875,-146.97265625,0.0,0,0
1772204006.937619,1772204006.8847601,-897.94921875,-998.046875,695.3125,473.14453125,0.0,0,0
1772204006.937643,1772204006.888656,715.8203125,-962.890625,-120.60546875,536.1328125,0.0,0,0
1772204006.9376671,1772204006.8925517,-665.52734375,-84.47265625,-911.62109375,-153.80859375,0.0,0,0
1772204006.937691,1772204006.8964474,-1000.0,-1000.0,-475.09765625,-644.53125,0.0,0,0
1772204006.9377139,1772204006.9003432,-194.3359375,-358.88671875,765.13671875,-233.88671875,0.0,0,0
1772204006.937738,1772204006.904239,-964.84375,920.41015625,786.62109375,401.3671875,0.0,0,0
1772204006.9377651,1772204006.9081347,942.3828125,-904.78515625,74.21875,574.70703125,0.0,0,0
1772204006.937789,1772204006.9120307,-331.54296875,93.26171875,-772.4609375,-86.9140625,0.0,0,0
1772204006.9378119,1772204006.9159265,-1000.0,-1000.0,-569.82421875,-650.87890625,0.0,0,0
1772204006.983021,1772204006.9199145,-185.546875,-550.78125,673.828125,-341.30859375,0.0,0,0
1772204006.9831092,1772204006.9238105,995.60546875,821.2890625,893.06640625,338.37890625,0.0,0,0
1772204006.983147,1772204006.9277062,-957.03125,-860.3515625,201.171875,604.98046875,0.0,0,0
1772204006.983179,1772204006.931602,-62.98828125,191.89453125,-717.7734375,-4.39453125,0.0,0,0
1772204006.983209,1772204006.9354978,-1000.0,-1000.0,-644.53125,-603.02734375,0.0,0,0
1772204006.98324,1772204006.9393935,-365.234375,-772.4609375,496.09375,-419.43359375,0.0,0,0
1772204006.983271,1772204006.9432893,915.52734375,602.5390625,968.26171875,272.4609375,0.0,0,0
1772204006.9833028,1772204006.9471853,-901.3671875,-814.453125,313.96484375,635.25390625,0.0,0,0
1772204006.983333,1772204006.951081,122.55859375,152.83203125,-624.0234375,88.8671875,0.0,0,0
1772204006.983362,1772204006.9549768,-1000.0,-1000.0,-595.703125,-545.8984375,0.0,0,0
1772204006.983451,1772204006.9588726,-561.03515625,-1000.0,334.47265625,-469.7265625,0.0,0,0
1772204006.983486,1772204006.9627683,818.84765625,192.87109375,975.5859375,216.796875,0.0,0,0
1772204007.071004,1772204006.966746,-859.86328125,-766.11328125,389.6484375,638.671875,0.0,0,0
1772204007.071143,1772204006.9706419,185.05859375,201.66015625,-698.2421875,176.26953125,0.0,0,0
1772204007.071203,1772204006.9745376,-1000.0,-1000.0,-802.734375,-471.6796875,0.0,0,0
1772204007.0712588,1772204006.9784336,-835.44921875,-1000.0,13.671875,-534.66796875,0.0,0,0
1772204007.07139,1772204006.9823294,520.01953125,-22.4609375,865.234375,133.30078125,0.0,0,0
1772204007.0714529,1772204006.9862251,-802.734375,-785.64453125,428.7109375,640.13671875,0.0,0,0
1772204007.071659,1772204006.990121,149.4140625,391.6015625,-733.3984375,296.38671875,0.0,0,0
1772204007.0718138,1772204006.9940166,-1000.0,-916.9921875,-894.53125,-395.5078125,0.0,0,0
1772204007.071965,1772204006.9979126,-1000.0,-1000.0,-258.30078125,-587.890625,0.0,0,0
1772204007.072096,1772204007.0018084,166.50390625,-218.26171875,726.07421875,39.55078125,0.0,0,0
1772204007.072278,1772204007.0057042,-764.16015625,-870.1171875,458.0078125,592.7734375,0.0,0,0
1772204007.072418,1772204007.0096,230.95703125,635.7421875,-722.16796875,371.58203125,0.0,0,0
1772204007.087585,1772204007.013577,-996.58203125,-754.8828125,-967.28515625,-342.28515625,0.0,0,0
1772204007.087716,1772204007.017473,-1000.0,-1000.0,-395.5078125,-619.140625,0.0,0,0
1772204007.0877671,1772204007.0213687,-42.48046875,-205.56640625,671.875,-34.1796875,0.0,0,0
1772204007.087807,1772204007.0252645,-791.9921875,-943.359375,492.67578125,541.9921875,0.0,0,0
1772204007.087845,1772204007.0291603,417.96875,875.9765625,-659.1796875,440.4296875,0.0,0,0
1772204007.087882,1772204007.0330563,-904.296875,-442.87109375,-1000.0,-282.71484375,0.0,0,0
1772204007.087918,1772204007.036952,-1000.0,-1000.0,-529.296875,-665.0390625,0.0,0,0
1772204007.0879529,1772204007.0408478,-223.6328125,-177.24609375,598.14453125,-149.4140625,0.0,0,0
1772204007.08799,1772204007.0447438,-882.32421875,-992.67578125,586.42578125,462.890625,0.0,0,0
1772204007.0880268,1772204007.0486395,670.41015625,-974.609375,-518.5546875,502.9296875,0.0,0,0
1772204007.088063,1772204007.0525353,-718.75,-134.27734375,-998.53515625,-203.125,0.0,0,0
1772204007.088099,1772204007.056431,-1000.0,-1000.0,-580.078125,-669.921875,0.0,0,0
1772204007.132871,1772204007.060472,-208.49609375,-332.03125,568.359375,-226.07421875,0.0,0,0
1772204007.1331341,1772204007.0643678,-933.10546875,953.61328125,746.58203125,433.10546875,0.0,0,0
1772204007.133185,1772204007.0682635,843.75,-970.21484375,-259.765625,553.7109375,0.0,0,0
1772204007.133225,1772204007.0721595,-492.67578125,-24.90234375,-950.1953125,-135.7421875,0.0,0,0
1772204007.1332638,1772204007.0760553,-1000.0,-1000.0,-626.953125,-641.11328125,0.0,0,0
1772204007.1332989,1772204007.0799513,-174.8046875,-516.11328125,534.1796875,-317.87109375,0.0,0,0
1772204007.133336,1772204007.083847,-1000.0,835.9375,870.1171875,344.23828125,0.0,0,0
1772204007.1333718,1772204007.0877428,-965.8203125,-865.72265625,34.66796875,611.81640625,0.0,0,0
1772204007.133409,1772204007.0916388,-96.19140625,191.89453125,-820.3125,1.46484375,0.0,0,0
1772204007.133444,1772204007.0955346,-1000.0,-1000.0,-631.8359375,-600.09765625,0.0,0,0
1772204007.1334789,1772204007.0994303,-342.28515625,-798.33984375,482.91015625,-383.30078125,0.0,0,0
1772204007.133516,1772204007.1033263,925.78125,568.84765625,950.68359375,312.5,0.0,0,0
1772204007.178289,1772204007.107361,-907.71484375,-810.546875,341.30859375,656.73828125,0.0,0,0
1772204007.178402,1772204007.111257,96.19140625,156.25,-672.8515625,98.14453125,0.0,0,0
1772204007.178439,1772204007.1151528,-1000.0,-1000.0,-698.2421875,-544.921875,0.0,0,0
1772204007.178478,1772204007.1190488,-538.57421875,-1000.0,347.16796875,-483.3984375,0.0,0,0
1772204007.178516,1772204007.1229446,829.1015625,242.1875,965.8203125,197.75390625,0.0,0,0
1772204007.1785522,1772204007.1268404,-863.76953125,-770.01953125,445.80078125,623.046875,0.0,0,0
1772204007.178593,1772204007.1307364,189.453125,170.41015625,-622.55859375,152.83203125,0.0,0,0
1772204007.1786299,1772204007.134632,-1000.0,-1000.0,-773.4375,-507.8125,0.0,0,0
1772204007.178684,1772204007.138528,-802.24609375,-1000.0,115.72265625,-555.17578125,0.0,0,0
1772204007.178719,1772204007.1424239,562.98828125,-15.13671875,844.7265625,118.1640625,0.0,0,0
1772204007.178755,1772204007.1463199,-810.05859375,-780.2734375,619.140625,617.67578125,0.0,0,0
1772204007.1787908,1772204007.1502156,153.80859375,349.12109375,-460.44921875,245.1171875,0.0,0,0
1772204007.222985,1772204007.1542344,-1000.0,-941.40625,-847.65625,-440.91796875,0.0,0,0
1772204007.223091,1772204007.1581302,-1000.0,-1000.0,265.13671875,-600.09765625,0.0,0,0
1772204007.223142,1772204007.1620262,213.8671875,-192.87109375,990.234375,41.015625,0.0,0,0
1772204007.2231958,1772204007.165922,-768.5546875,-842.28515625,595.21484375,592.7734375,0.0,0,0
1772204007.223246,1772204007.169818,203.61328125,553.22265625,-390.13671875,346.19140625,0.0,0,0
1772204007.223297,1772204007.1737137,-1000.0,-836.9140625,-955.56640625,-358.88671875,0.0,0,0
1772204007.223346,1772204007.1776097,-1000.0,-1000.0,-53.7109375,-619.140625,0.0,0,0
1772204007.2233841,1772204007.1815054,-15.13671875,-213.37890625,924.8046875,-40.0390625,0.0,0,0
1772204007.22342,1772204007.1854014,-786.1328125,-932.12890625,556.640625,530.76171875,0.0,0,0
1772204007.2234602,1772204007.1892974,397.4609375,836.9140625,-420.8984375,426.7578125,0.0,0,0
1772204007.223497,1772204007.1931932,-914.55078125,-502.9296875,-994.140625,-285.64453125,0.0,0,0
1772204007.2235332,1772204007.1970892,-1000.0,-1000.0,-346.6796875,-654.296875,0.0,0,0
1772204007.2692459,1772204007.2011032,-200.1953125,-179.6875,797.36328125,-131.34765625,0.0,0,0
1772204007.2693949,1772204007.2049992,-864.2578125,-989.2578125,609.375,482.91015625,0.0,0,0
1772204007.269453,1772204007.208895,623.046875,-980.95703125,-405.2734375,515.13671875,0.0,0,0
1772204007.269506,1772204007.212791,-763.671875,-169.921875,-982.91015625,-207.51953125,0.0,0,0
1772204007.2695591,1772204007.216687,-1000.0,-1000.0,-562.5,-681.640625,0.0,0,0
1772204007.269608,1772204007.2205827,-206.54296875,-270.01953125,635.7421875,-220.703125,0.0,0,0
1772204007.2696629,1772204007.2244787,-942.87109375,961.42578125,696.77734375,416.50390625,0.0,0,0
1772204007.2697148,1772204007.2283745,872.0703125,-928.7109375,-556.640625,543.45703125,0.0,0,0
1772204007.2697651,1772204007.2322705,-448.2421875,23.4375,-993.65234375,-119.140625,0.0,0,0
1772204007.2698162,1772204007.2361665,-1000.0,-1000.0,-899.4140625,-662.109375,0.0,0,0
1772204007.269871,1772204007.2400622,-175.78125,-473.6328125,60.05859375,-319.3359375,0.0,0,0
1772204007.269923,1772204007.2439582,-997.0703125,858.88671875,825.68359375,363.28125,0.0,0,0
1772204007.3128,1772204007.247961,-968.26171875,-874.0234375,-515.625,604.00390625,0.0,0,0
1772204007.31291,1772204007.2518568,-110.83984375,202.1484375,-1000.0,-26.85546875,0.0,0,0
1772204007.312955,1772204007.2557528,-1000.0,-1000.0,-925.78125,-610.3515625,0.0,0,0
1772204007.312993,1772204007.2596488,-317.87109375,-719.7265625,-274.90234375,-361.81640625,0.0,0,0
1772204007.3130329,1772204007.2635446,937.5,671.875,843.75,333.984375,0.0,0,0
1772204007.313071,1772204007.2674406,-914.0625,-827.63671875,-375.0,643.06640625,0.0,0,0
1772204007.31311,1772204007.2713366,81.54296875,163.57421875,-1000.0,71.2890625,0.0,0,0
1772204007.313146,1772204007.2752326,-1000.0,-1000.0,-1000.0,-547.36328125,0.0,0,0
1772204007.31318,1772204007.2791283,-517.578125,-969.23828125,-772.94921875,-448.2421875,0.0,0,0
1772204007.313216,1772204007.2830243,839.84375,312.98828125,656.73828125,242.1875,0.0,0,0
1772204007.3132522,1772204007.2869203,-867.67578125,-776.3671875,-246.09375,660.64453125,0.0,0,0
1772204007.313289,1772204007.290816,193.84765625,140.625,-1000.0,176.7578125,0.0,0,0
1772204007.373896,1772204007.2948897,-1000.0,-1000.0,-938.96484375,-484.375,0.0,0,0
1772204007.374038,1772204007.2987857,-774.4140625,-1000.0,-929.19921875,-525.390625,0.0,0,0
1772204007.374093,1772204007.3026817,599.609375,40.52734375,541.015625,156.25,0.0,0,0
1772204007.374145,1772204007.3065777,-816.40625,-771.484375,113.28125,648.92578125,0.0,0,0
1772204007.3741949,1772204007.3104737,157.2265625,334.9609375,-1000.0,262.20703125,0.0,0,0
1772204007.3742452,1772204007.3143694,-1000.0,-947.265625,-876.953125,-427.24609375,0.0,0,0
1772204007.374295,1772204007.3182654,-997.55859375,-1000.0,-999.51171875,-582.51953125,0.0,0,0
1772204007.374346,1772204007.3221614,251.953125,-150.390625,239.74609375,67.3828125,0.0,0,0
1772204007.374395,1772204007.3260574,-771.484375,-826.171875,254.8828125,589.84375,0.0,0,0
1772204007.374444,1772204007.3299534,183.10546875,527.34375,-1000.0,318.359375,0.0,0,0
1772204007.374493,1772204007.3338492,-1000.0,-852.05078125,-930.17578125,-363.28125,0.0,0,0
1772204007.374542,1772204007.3377452,-1000.0,-1000.0,-1000.0,-615.72265625,0.0,0,0
1772204007.402776,1772204007.341728,0.9765625,-219.23828125,33.203125,-21.484375,0.0,0,0
1772204007.402873,1772204007.345624,-781.25,-918.9453125,287.59765625,543.45703125,0.0,0,0
1772204007.402931,1772204007.34952,374.0234375,792.48046875,-1000.0,391.11328125,0.0,0,0
1772204007.4029849,1772204007.3534157,-929.19921875,-566.89453125,-937.5,-321.77734375,0.0,0,0
1772204007.403038,1772204007.3573117,-1000.0,-1000.0,-1000.0,-681.640625,0.0,0,0
1772204007.4030871,1772204007.3612077,-165.52734375,-183.10546875,-65.91796875,-143.06640625,0.0,0,0
1772204007.403144,1772204007.3651037,-846.6796875,-983.88671875,328.61328125,462.40234375,0.0,0,0
1772204007.403195,1772204007.3689997,587.890625,-998.53515625,-1000.0,451.66015625,0.0,0,0
1772204007.403244,1772204007.3728957,-792.96875,-208.49609375,-950.1953125,-250.9765625,0.0,0,0
1772204007.4032938,1772204007.3767917,-1000.0,-1000.0,-1000.0,-698.2421875,0.0,0,0
1772204007.403348,1772204007.3806875,-210.44921875,-265.13671875,-47.8515625,-233.88671875,0.0,0,0
1772204007.4034061,1772204007.3845835,-936.5234375,962.890625,505.37109375,386.23046875,0.0,0,0
1772204007.464122,1772204007.3885558,849.609375,-930.6640625,-952.1484375,500.48828125,0.0,0,0
1772204007.464245,1772204007.3924518,-482.91015625,11.71875,-1000.0,-157.2265625,0.0,0,0
1772204007.464287,1772204007.3963475,-1000.0,-1000.0,-732.421875,-676.7578125,0.0,0,0
1772204007.464323,1772204007.4002435,-179.19921875,-451.171875,266.6015625,-298.828125,0.0,0,0
1772204007.464361,1772204007.4041395,-991.2109375,871.09375,704.58984375,359.86328125,0.0,0,0
1772204007.464401,1772204007.4080355,-978.515625,-878.41796875,-686.5234375,576.171875,0.0,0,0
1772204007.4646242,1772204007.4119315,-157.2265625,198.2421875,-1000.0,-45.41015625,0.0,0,0
1772204007.464664,1772204007.4158275,-1000.0,-1000.0,-506.34765625,-630.37109375,0.0,0,0
1772204007.4646988,1772204007.4197235,-277.34375,-717.28515625,500.0,-384.765625,0.0,0,0
1772204007.464758,1772204007.4236195,956.0546875,672.8515625,920.41015625,308.59375,0.0,0,0
1772204007.4647942,1772204007.4275155,-924.8046875,-828.61328125,-298.33984375,612.3046875,0.0,0,0
1772204007.464832,1772204007.4314115,41.015625,167.96875,-1000.0,38.0859375,0.0,0,0
1772204007.509282,1772204007.4354486,-1000.0,-1000.0,-461.42578125,-572.75390625,0.0,0,0
1772204007.5093818,1772204007.4393446,-457.51953125,-935.05859375,639.6484375,-449.21875,0.0,0,0
1772204007.5094368,1772204007.4432406,870.60546875,369.62890625,-970.21484375,235.83984375,0.0,0,0
1772204007.509491,1772204007.4471366,-878.90625,-781.73828125,-30.2734375,625.48828125,0.0,0,0
1772204007.509542,1772204007.4510326,203.125,141.6015625,-1000.0,135.25390625,0.0,0,0
1772204007.509592,1772204007.4549286,-1000.0,-1000.0,-585.44921875,-510.7421875,0.0,0,0
1772204007.50964,1772204007.4588246,-707.03125,-1000.0,543.9453125,-517.08984375,0.0,0,0
1772204007.5096881,1772204007.4627206,685.05859375,58.10546875,-955.078125,175.78125,0.0,0,0
1772204007.509738,1772204007.4666166,-831.54296875,-769.04296875,146.97265625,642.578125,0.0,0,0
1772204007.5097868,1772204007.4705126,166.9921875,304.19921875,-1000.0,223.6328125,0.0,0,0
1772204007.509836,1772204007.4744086,-1000.0,-961.9140625,-803.7109375,-447.75390625,0.0,0,0
1772204007.5098932,1772204007.4783046,-944.3359375,-1000.0,323.2421875,-562.98828125,0.0,0,0
1772204007.554024,1772204007.4823358,354.00390625,-129.39453125,-946.77734375,88.8671875,0.0,0,0
1772204007.5541382,1772204007.4862318,-781.25,-817.87109375,188.96484375,599.12109375,0.0,0,0
1772204007.554197,1772204007.4901278,141.11328125,497.0703125,-1000.0,295.8984375,0.0,0,0
1772204007.55425,1772204007.4940238,-1000.0,-867.67578125,-976.5625,-397.94921875,0.0,0,0
1772204007.554301,1772204007.4979198,-1000.0,-1000.0,107.421875,-621.09375,0.0,0,0
1772204007.554349,1772204007.5018158,56.640625,-225.5859375,-906.25,-12.6953125,0.0,0,0
1772204007.554399,1772204007.5057118,-770.5078125,-905.2734375,191.89453125,548.828125,0.0,0,0
1772204007.554451,1772204007.5096078,321.2890625,744.140625,-1000.0,386.71875,0.0,0,0
1772204007.5545,1772204007.5135038,-954.1015625,-629.8828125,-1000.0,-319.3359375,0.0,0,0
1772204007.55455,1772204007.5173998,-1000.0,-1000.0,-71.77734375,-650.390625,0.0,0,0
1772204007.5545979,1772204007.521296,-132.8125,-187.98828125,-883.7890625,-109.86328125,0.0,0,0
1772204007.554649,1772204007.525192,-822.265625,-976.5625,326.66015625,474.609375,0.0,0,0
1772204007.598788,1772204007.5292175,518.5546875,978.515625,-917.96875,439.94140625,0.0,0,0
1772204007.598899,1772204007.5331137,-854.4921875,-258.7890625,-1000.0,-260.7421875,0.0,0,0
1772204007.598942,1772204007.5370097,-1000.0,-1000.0,-182.6171875,-675.78125,0.0,0,0
1772204007.5989802,1772204007.5409057,-220.703125,-220.703125,-875.9765625,-198.2421875,0.0,0,0
1772204007.599019,1772204007.5448017,-917.48046875,980.95703125,513.18359375,418.9453125,0.0,0,0
1772204007.599057,1772204007.5486977,784.1796875,-943.84765625,-741.69921875,519.53125,0.0,0,0
1772204007.599095,1772204007.5525937,-577.1484375,-20.01953125,-1000.0,-149.90234375,0.0,0,0
1772204007.5991418,1772204007.55649,-1000.0,-1000.0,-226.5625,-658.203125,0.0,0,0
1772204007.599178,1772204007.560386,-185.546875,-420.8984375,-913.0859375,-277.34375,0.0,0,0
1772204007.599227,1772204007.564282,-980.46875,889.6484375,754.8828125,366.69921875,0.0,0,0
1772204007.599273,1772204007.568178,988.76953125,-888.18359375,-386.23046875,562.01171875,0.0,0,0
1772204007.599326,1772204007.572074,-234.375,145.5078125,-1000.0,-82.51953125,0.0,0,0
1772204007.672944,1772204007.5762408,-1000.0,-1000.0,-239.74609375,-650.87890625,0.0,0,0
1772204007.673056,1772204007.5801368,-248.53515625,-636.23046875,-962.890625,-379.39453125,0.0,0,0
1772204007.6731,1772204007.5840328,968.75,747.0703125,938.4765625,293.45703125,0.0,0,0
1772204007.673138,1772204007.587929,-936.5234375,-843.75,-40.0390625,591.796875,0.0,0,0
1772204007.673179,1772204007.591825,-2.44140625,178.7109375,-1000.0,12.20703125,0.0,0,0
1772204007.673215,1772204007.595721,-1000.0,-1000.0,-329.58984375,-593.75,0.0,0,0
1772204007.67325,1772204007.5996172,-437.5,-870.60546875,970.21484375,-446.2890625,0.0,0,0
1772204007.67329,1772204007.6035132,878.41796875,468.75,-969.23828125,236.81640625,0.0,0,0
1772204007.673332,1772204007.6074092,-883.7890625,-793.9453125,135.25390625,616.2109375,0.0,0,0
1772204007.6733701,1772204007.6113055,178.22265625,145.01953125,-1000.0,115.72265625,0.0,0,0
1772204007.673406,1772204007.6152015,-1000.0,-1000.0,-498.046875,-515.13671875,0.0,0,0
1772204007.673483,1772204007.6190975,-670.8984375,-1000.0,850.09765625,-501.46484375,0.0,0,0
1772204007.6877089,1772204007.623098,717.7734375,105.46875,-907.2265625,163.57421875,0.0,0,0
1772204007.687768,1772204007.626994,-837.890625,-765.13671875,240.72265625,611.81640625,0.0,0,0
1772204007.687806,1772204007.63089,170.41015625,258.30078125,-927.734375,188.4765625,0.0,0,0
1772204007.687843,1772204007.6347861,-1000.0,-985.83984375,-716.796875,-473.14453125,0.0,0,0
1772204007.6878788,1772204007.6386821,-926.26953125,-1000.0,628.41796875,-564.453125,0.0,0,0
1772204007.687915,1772204007.6425784,382.32421875,-71.2890625,-845.703125,76.171875,0.0,0,0
1772204007.687954,1772204007.6464744,-784.66796875,-798.828125,217.28515625,578.61328125,0.0,0,0
1772204007.687993,1772204007.6503704,142.578125,441.89453125,-912.59765625,279.296875,0.0,0,0
1772204007.68803,1772204007.6542666,-1000.0,-893.5546875,-918.45703125,-396.484375,0.0,0,0
1772204007.688066,1772204007.6581626,-1000.0,-1000.0,336.9140625,-610.83984375,0.0,0,0
1772204007.688101,1772204007.6620588,76.66015625,-234.375,-786.1328125,-13.18359375,0.0,0,0
1772204007.688141,1772204007.6659548,-768.5546875,-888.671875,187.01171875,532.71484375,0.0,0,0
1772204007.732865,1772204007.6699414,292.48046875,687.5,-935.546875,352.5390625,0.0,0,0
1772204007.733014,1772204007.6738377,-966.796875,-704.1015625,-1000.0,-349.609375,0.0,0,0
1772204007.733058,1772204007.6777337,-1000.0,-1000.0,59.08203125,-656.73828125,0.0,0,0
1772204007.733098,1772204007.68163,-115.234375,-193.359375,-781.25,-100.5859375,0.0,0,0
1772204007.733135,1772204007.685526,-814.94140625,-968.26171875,304.19921875,479.00390625,0.0,0,0
1772204007.733173,1772204007.6894221,490.234375,951.66015625,-840.33203125,443.359375,0.0,0,0
1772204007.7332108,1772204007.6933181,-869.62890625,-312.5,-1000.0,-241.2109375,0.0,0,0
1772204007.7332458,1772204007.6972144,-1000.0,-1000.0,-149.4140625,-642.08984375,0.0,0,0
1772204007.7332811,1772204007.7011104,-225.5859375,-201.66015625,-830.56640625,-164.55078125,0.0,0,0
1772204007.7333188,1772204007.7050066,-908.69140625,993.1640625,500.9765625,434.08203125,0.0,0,0
1772204007.733356,1772204007.7089026,754.8828125,-956.0546875,-721.19140625,510.7421875,0.0,0,0
1772204007.733398,1772204007.7127986,-615.72265625,-75.1953125,-1000.0,-158.203125,0.0,0,0
1772204007.778102,1772204007.7167764,-1000.0,-1000.0,-224.12109375,-637.20703125,0.0,0,0
1772204007.77825,1772204007.7206726,-188.96484375,-367.1875,-891.6015625,-231.93359375,0.0,0,0
1772204007.778305,1772204007.7245686,-974.609375,914.55078125,724.12109375,397.4609375,0.0,0,0
1772204007.778356,1772204007.7284648,970.21484375,-900.390625,-456.0546875,559.5703125,0.0,0,0
1772204007.778408,1772204007.732361,-272.4609375,117.1875,-1000.0,-80.078125,0.0,0,0
1772204007.778469,1772204007.736257,-1000.0,-1000.0,-226.5625,-615.72265625,0.0,0,0
1772204007.778517,1772204007.7401533,-227.5390625,-582.03125,-945.80078125,-340.8203125,0.0,0,0
1772204007.778568,1772204007.7440493,979.00390625,797.8515625,895.5078125,293.45703125,0.0,0,0
1772204007.7786298,1772204007.7479455,-945.3125,-854.00390625,-83.0078125,556.640625,0.0,0,0
1772204007.778699,1772204007.7518415,-33.203125,182.6171875,-1000.0,-27.83203125,0.0,0,0
1772204007.7787478,1772204007.7557378,-1000.0,-1000.0,-303.22265625,-625.48828125,0.0,0,0
1772204007.77901,1772204007.7596338,-416.9921875,-853.515625,984.375,-482.421875,0.0,0,0
1772204007.837762,1772204007.7636,889.16015625,494.62890625,-987.79296875,178.7109375,0.0,0,0
1772204007.837918,1772204007.7674963,-889.16015625,-797.8515625,146.97265625,512.20703125,0.0,0,0
1772204007.8379781,1772204007.7713923,150.390625,147.94921875,-980.95703125,-31.25,0.0,0,0
1772204007.83803,1772204007.7752886,-1000.0,-1000.0,-458.49609375,-663.0859375,0.0,0,0
1772204007.838079,1772204007.7791846,-634.765625,-1000.0,875.9765625,-635.25390625,0.0,0,0
1772204007.8381288,1772204007.7830808,749.51171875,146.484375,-930.17578125,19.04296875,0.0,0,0
1772204007.838179,1772204007.7869768,-844.7265625,-762.20703125,221.19140625,442.3828125,0.0,0,0
1772204007.8382301,1772204007.790873,175.78125,227.05078125,-941.89453125,14.16015625,0.0,0,0
1772204007.838292,1772204007.794769,-1000.0,-996.58203125,-656.25,-620.1171875,0.0,0,0
1772204007.838359,1772204007.7986653,-890.13671875,-1000.0,677.24609375,-686.5234375,0.0,0,0
1772204007.8384068,1772204007.8025615,437.98828125,-56.640625,-861.81640625,-55.6640625,0.0,0,0
1772204007.83847,1772204007.8064575,-791.50390625,-792.96875,205.078125,438.96484375,0.0,0,0
1772204007.8824809,1772204007.8104944,144.53125,421.38671875,-974.12109375,112.3046875,0.0,0,0
1772204007.8825998,1772204007.8143907,-1000.0,-903.80859375,-873.046875,-549.31640625,0.0,0,0
1772204007.882645,1772204007.8182867,-1000.0,-1000.0,391.6015625,-707.51953125,0.0,0,0
1772204007.8826828,1772204007.822183,104.4921875,-227.05078125,-824.70703125,-105.95703125,0.0,0,0
1772204007.8827221,1772204007.8260791,-766.11328125,-885.7421875,173.828125,430.17578125,0.0,0,0
1772204007.8827589,1772204007.8299751,262.6953125,686.03515625,-955.56640625,240.234375,0.0,0,0
1772204007.882808,1772204007.8338714,-980.95703125,-703.61328125,-1000.0,-411.1328125,0.0,0,0
1772204007.882844,1772204007.8377676,-1000.0,-1000.0,102.05078125,-665.0390625,0.0,0,0
1772204007.88288,1772204007.8416636,-90.33203125,-199.70703125,-800.29296875,-122.0703125,0.0,0,0
1772204007.882935,1772204007.8455598,-805.6640625,-952.1484375,252.9296875,428.22265625,0.0,0,0
1772204007.8829901,1772204007.8494558,460.44921875,905.76171875,-908.69140625,372.55859375,0.0,0,0
1772204007.8830478,1772204007.853352,-884.27734375,-396.484375,-1000.0,-293.9453125,0.0,0,0
1772204007.928888,1772204007.8573859,-1000.0,-1000.0,-88.8671875,-654.78515625,0.0,0,0
1772204007.928989,1772204007.861282,-230.95703125,-173.828125,-816.89453125,-156.25,0.0,0,0
1772204007.92903,1772204007.8651783,-896.97265625,-997.55859375,434.5703125,419.43359375,0.0,0,0
1772204007.929067,1772204007.8690743,713.8671875,-963.37890625,-794.43359375,476.07421875,0.0,0,0
1772204007.929106,1772204007.8729706,-668.9453125,-90.33203125,-1000.0,-158.203125,0.0,0,0
1772204007.929142,1772204007.8768668,-1000.0,-1000.0,-197.265625,-589.35546875,0.0,0,0
1772204007.929177,1772204007.880763,-194.82421875,-340.33203125,-870.60546875,-179.6875,0.0,0,0
1772204007.929215,1772204007.884659,-963.37890625,929.6875,655.76171875,426.26953125,0.0,0,0
1772204007.92927,1772204007.8885553,938.96484375,-909.66796875,-519.53125,591.796875,0.0,0,0
1772204007.9293299,1772204007.8924515,-336.9140625,82.51953125,-1000.0,0.0,0.0,0,0
1772204007.9293709,1772204007.8963475,-1000.0,-1000.0,-229.00390625,-493.1640625,0.0,0,0
1772204007.929415,1772204007.9002438,-193.359375,-546.38671875,-935.05859375,-198.2421875,0.0,0,0
1772204007.97261,1772204007.9042585,993.1640625,822.265625,866.2109375,416.50390625,0.0,0,0
1772204007.9727008,1772204007.9081545,-957.03125,-860.3515625,-119.140625,650.87890625,0.0,0,0
1772204007.972755,1772204007.9120507,-67.3828125,188.96484375,-1000.0,108.3984375,0.0,0,0
1772204007.972806,1772204007.915947,-1000.0,-1000.0,-270.99609375,-423.828125,0.0,0,0
1772204007.9728682,1772204007.9198432,-383.30078125,-810.05859375,-983.3984375,-253.90625,0.0,0,0
1772204007.97293,1772204007.9237394,907.71484375,553.7109375,986.328125,370.1171875,0.0,0,0
1772204007.972981,1772204007.9276354,-899.4140625,-807.6171875,62.5,675.29296875,0.0,0,0
1772204007.97304,1772204007.9315317,107.91015625,153.3203125,-1000.0,172.36328125,0.0,0,0
1772204007.9731011,1772204007.935428,-1000.0,-1000.0,-384.27734375,-400.390625,0.0,0,0
1772204007.9731479,1772204007.9393241,-586.9140625,-1000.0,935.05859375,-339.35546875,0.0,0,0
1772204007.973196,1772204007.9432204,790.52734375,204.1015625,-945.80078125,287.59765625,0.0,0,0
1772204007.973245,1772204007.9471164,-853.515625,-766.6015625,231.93359375,662.109375,0.0,0,0
1772204008.017508,1772204007.9511223,182.6171875,219.7265625,-910.15625,236.81640625,0.0,0,0
1772204008.017636,1772204007.9550185,-1000.0,-1000.0,-585.44921875,-344.23828125,0.0,0,0
1772204008.017696,1772204007.9589148,-846.19140625,-1000.0,773.92578125,-385.7421875,0.0,0,0
1772204008.017749,1772204007.962811,504.39453125,-21.97265625,-871.09375,215.8203125,0.0,0,0
1772204008.017802,1772204007.9667072,-799.8046875,-786.62109375,233.88671875,648.4375,0.0,0,0
1772204008.017854,1772204007.9706035,146.97265625,400.87890625,-919.43359375,321.77734375,0.0,0,0
1772204008.017906,1772204007.9744997,-1000.0,-912.109375,-806.15234375,-283.69140625,0.0,0,0
1772204008.0179572,1772204007.978396,-1000.0,-1000.0,580.078125,-432.12890625,0.0,0,0
1772204008.018005,1772204007.982292,139.16015625,-216.30859375,-955.078125,125.48828125,0.0,0,0
1772204008.018049,1772204007.9861882,-763.671875,-862.3046875,799.31640625,612.3046875,0.0,0,0
1772204008.018094,1772204007.9900844,244.62890625,604.4921875,609.375,399.90234375,0.0,0,0
1772204008.018131,1772204007.9939806,-991.69921875,-788.0859375,198.2421875,-249.0234375,0.0,0,0
1772204008.062937,1772204007.997976,-1000.0,-1000.0,852.5390625,-496.58203125,0.0,0,0
1772204008.063044,1772204008.0018723,-47.8515625,-207.03125,-982.421875,18.5546875,0.0,0,0
1772204008.0630882,1772204008.0057685,-794.43359375,-943.359375,952.1484375,520.01953125,0.0,0,0
1772204008.063127,1772204008.0096648,434.5703125,875.0,967.7734375,434.5703125,0.0,0,0
1772204008.063165,1772204008.013561,-895.01953125,-444.3359375,390.13671875,-195.80078125,0.0,0,0
1772204008.063203,1772204008.0174572,-1000.0,-1000.0,737.3046875,-522.4609375,0.0,0,0
1772204008.063238,1772204008.0213535,-227.05078125,-177.734375,-964.35546875,-63.4765625,0.0,0,0
1772204008.063275,1772204008.0252497,-887.20703125,-992.1875,931.15234375,446.2890625,0.0,0,0
1772204008.0633118,1772204008.0291457,685.05859375,-975.09765625,-942.3828125,461.9140625,0.0,0,0
1772204008.063348,1772204008.033042,-704.1015625,-138.671875,9.27734375,-164.55078125,0.0,0,0
1772204008.063385,1772204008.0369382,-1000.0,-1000.0,287.109375,-561.5234375,0.0,0,0
1772204008.0634189,1772204008.0408344,-197.75390625,-311.5234375,-881.8359375,-154.296875,0.0,0,0
1772204008.107475,1772204008.0448213,-958.984375,940.91796875,883.30078125,409.66796875,0.0,0,0
1772204008.107585,1772204008.0487175,923.828125,-916.50390625,-872.0703125,546.38671875,0.0,0,0
1772204008.107627,1772204008.0526137,-367.67578125,60.05859375,-83.0078125,-57.12890625,0.0,0,0
1772204008.107666,1772204008.05651,-1000.0,-1000.0,-77.1484375,-536.1328125,0.0,0,0
1772204008.107714,1772204008.0604062,-173.828125,-500.9765625,-880.37109375,-233.88671875,0.0,0,0
1772204008.1077518,1772204008.0643024,-998.53515625,847.65625,883.30078125,336.42578125,0.0,0,0
1772204008.10779,1772204008.0681987,-963.37890625,-869.140625,-855.95703125,534.66796875,0.0,0,0
1772204008.107837,1772204008.072095,-83.49609375,194.3359375,-35.64453125,-30.2734375,0.0,0,0
1772204008.1078851,1772204008.0759912,-1000.0,-1000.0,-280.76171875,-551.7578125,0.0,0,0
1772204008.1079218,1772204008.0798874,-352.5390625,-786.1328125,-925.78125,-362.3046875,0.0,0,0
1772204008.107958,1772204008.0837836,921.38671875,584.9609375,904.296875,220.703125,0.0,0,0
1772204008.10801,1772204008.0876799,-905.2734375,-813.96484375,-864.74609375,494.140625,0.0,0,0
1772204008.153045,1772204008.091657,105.95703125,160.64453125,25.87890625,-21.484375,0.0,0,0
1772204008.153196,1772204008.0955532,-1000.0,-1000.0,-341.796875,-593.75,0.0,0,0
1772204008.1532512,1772204008.0994494,-547.8515625,-976.5625,-955.078125,-541.50390625,0.0,0,0
1772204008.15352,1772204008.1033456,824.70703125,292.96875,911.62109375,19.04296875,0.0,0,0
1772204008.1535842,1772204008.1072419,-861.81640625,-773.4375,-878.41796875,349.609375,0.0,0,0
1772204008.153636,1772204008.111138,187.5,175.29296875,60.05859375,-61.5234375,0.0,0,0
1772204008.1537158,1772204008.1150343,-1000.0,-1000.0,-495.1171875,-626.46484375,0.0,0,0
1772204008.1537652,1772204008.1189306,-820.3125,-1000.0,940.4296875,-661.62109375,0.0,0,0
1772204008.153813,1772204008.1228268,540.0390625,0.9765625,-983.88671875,-82.51953125,0.0,0,0
1772204008.1538718,1772204008.126723,-806.640625,-777.83203125,690.4296875,358.88671875,0.0,0,0
1772204008.153922,1772204008.1306193,153.3203125,337.40234375,-317.3828125,34.1796875,0.0,0,0
1772204008.153971,1772204008.1345155,-1000.0,-947.265625,-819.3359375,-555.6640625,0.0,0,0
1772204008.212437,1772204008.1384804,-1000.0,-1000.0,254.39453125,-670.41015625,0.0,0,0
1772204008.2125719,1772204008.1423767,212.890625,-181.640625,950.68359375,-103.02734375,0.0,0,0
1772204008.212628,1772204008.146273,-768.06640625,-835.44921875,491.69921875,368.65234375,0.0,0,0
1772204008.2126799,1772204008.1501691,210.44921875,538.0859375,-606.93359375,147.94921875,0.0,0,0
1772204008.2127318,1772204008.1540654,-1000.0,-850.5859375,-947.75390625,-460.9375,0.0,0,0
1772204008.212781,1772204008.1579616,-1000.0,-1000.0,146.97265625,-664.0625,0.0,0,0
1772204008.21283,1772204008.1618578,-21.97265625,-218.75,-996.09375,-131.8359375,0.0,0,0
1772204008.2128792,1772204008.165754,-787.109375,-918.45703125,634.27734375,377.9296875,0.0,0,0
1772204008.212928,1772204008.1696503,400.87890625,790.52734375,-214.35546875,284.66796875,0.0,0,0
1772204008.212964,1772204008.1735468,-913.0859375,-569.3359375,-944.82421875,-317.3828125,0.0,0,0
1772204008.213001,1772204008.177443,-1000.0,-1000.0,-31.73828125,-602.5390625,0.0,0,0
1772204008.213045,1772204008.1813393,-203.61328125,-182.12890625,997.55859375,-124.51171875,0.0,0,0
1772204008.273568,1772204008.1853807,-867.1875,-986.328125,616.69921875,406.73828125,0.0,0,0
1772204008.27372,1772204008.189277,629.8828125,-993.1640625,-314.94140625,434.08203125,0.0,0,0
1772204008.273779,1772204008.1931732,-757.32421875,-197.265625,-971.6796875,-149.90234375,0.0,0,0
1772204008.273831,1772204008.1970694,-1000.0,-1000.0,-605.95703125,-504.39453125,0.0,0,0
1772204008.2738829,1772204008.2009656,-205.078125,-269.53125,577.63671875,-95.21484375,0.0,0,0
1772204008.273935,1772204008.2048619,-946.2890625,961.42578125,653.80859375,421.38671875,0.0,0,0
1772204008.273986,1772204008.2087584,882.32421875,-930.17578125,-426.7578125,504.39453125,0.0,0,0
1772204008.274037,1772204008.2126546,-432.6171875,14.16015625,-967.7734375,-55.6640625,0.0,0,0
1772204008.274087,1772204008.2165508,-1000.0,-1000.0,-563.4765625,-476.5625,0.0,0,0
1772204008.274137,1772204008.220447,-176.7578125,-464.84375,596.6796875,-165.0390625,0.0,0,0
1772204008.274187,1772204008.2243433,-994.140625,864.74609375,848.14453125,383.7890625,0.0,0,0
1772204008.274236,1772204008.2282395,-972.65625,-876.46484375,-94.23828125,565.91796875,0.0,0,0
1772204008.3038678,1772204008.232273,-126.953125,188.96484375,-857.91015625,35.15625,0.0,0,0
1772204008.303947,1772204008.2361696,-1000.0,-1000.0,-763.671875,-438.96484375,0.0,0,0
1772204008.303997,1772204008.2400658,-317.3828125,-717.7734375,233.88671875,-224.12109375,0.0,0,0
1772204008.304048,1772204008.243962,936.5234375,670.8984375,884.765625,354.00390625,0.0,0,0
1772204008.3040981,1772204008.2478583,-914.0625,-827.63671875,-276.85546875,608.3984375,0.0,0,0
1772204008.30416,1772204008.2517548,75.1953125,165.0390625,-1000.0,114.74609375,0.0,0,0
1772204008.304209,1772204008.255651,-1000.0,-1000.0,-831.54296875,-386.71875,0.0,0,0
1772204008.304272,1772204008.2595472,-507.8125,-957.51953125,-277.34375,-273.4375,0.0,0,0
1772204008.304327,1772204008.2634435,844.7265625,334.9609375,815.4296875,313.4765625,0.0,0,0
1772204008.304377,1772204008.26734,-869.62890625,-777.83203125,53.22265625,646.97265625,0.0,0,0
1772204008.304427,1772204008.2712362,195.80078125,141.6015625,-1000.0,212.40234375,0.0,0,0
1772204008.3044941,1772204008.2751324,-1000.0,-1000.0,-806.640625,-336.42578125,0.0,0,0
1772204008.348182,1772204008.2791514,-761.71875,-1000.0,-568.84765625,-343.75,0.0,0,0
1772204008.348286,1772204008.2830477,616.69921875,57.12890625,541.9921875,209.9609375,0.0,0,0
1772204008.348326,1772204008.2869442,-819.3359375,-770.01953125,193.84765625,583.984375,0.0,0,0
1772204008.348364,1772204008.2908404,158.69140625,317.87109375,-1000.0,234.375,0.0,0,0
1772204008.3484008,1772204008.2947366,-1000.0,-957.51953125,-867.67578125,-336.9140625,0.0,0,0
1772204008.348437,1772204008.298633,-989.2578125,-1000.0,-602.5390625,-431.15234375,0.0,0,0
1772204008.348473,1772204008.3025293,270.5078125,-118.65234375,492.67578125,122.0703125,0.0,0,0
1772204008.34851,1772204008.3064256,-773.4375,-816.89453125,336.9140625,548.828125,0.0,0,0
1772204008.348566,1772204008.310322,163.0859375,499.51171875,-978.515625,308.59375,0.0,0,0
1772204008.348601,1772204008.3142183,-1000.0,-864.74609375,-927.734375,-282.71484375,0.0,0,0
1772204008.348639,1772204008.3181145,-1000.0,-1000.0,-585.9375,-463.8671875,0.0,0,0
1772204008.348683,1772204008.322011,13.18359375,-222.16796875,458.984375,56.640625,0.0,0,0
1772204008.395072,1772204008.3260233,-778.3203125,-914.55078125,433.10546875,519.04296875,0.0,0,0
1772204008.395193,1772204008.3299196,364.2578125,777.34375,-812.01171875,395.01953125,0.0,0,0
1772204008.395251,1772204008.3338158,-932.12890625,-586.42578125,-971.6796875,-186.03515625,0.0,0,0
1772204008.395305,1772204008.3377123,-1000.0,-1000.0,-705.56640625,-448.73046875,0.0,0,0
1772204008.395355,1772204008.3416085,-171.38671875,-186.03515625,360.3515625,1.953125,0.0,0,0
1772204008.395405,1772204008.3455048,-840.8203125,-978.515625,507.8125,472.16796875,0.0,0,0
1772204008.395455,1772204008.3494012,561.5234375,988.28125,-717.28515625,437.98828125,0.0,0,0
1772204008.3955042,1772204008.3532975,-822.75390625,-245.1171875,-1000.0,-149.90234375,0.0,0,0
1772204008.395554,1772204008.357194,-1000.0,-1000.0,-732.421875,-513.18359375,0.0,0,0
1772204008.3956008,1772204008.3610902,-213.8671875,-192.87109375,365.234375,-104.4921875,0.0,0,0
1772204008.395651,1772204008.3649864,-931.15234375,992.1875,622.55859375,395.5078125,0.0,0,0
1772204008.395701,1772204008.368883,831.0546875,-949.21875,-585.44921875,464.84375,0.0,0,0
1772204008.4373949,1772204008.3728771,-511.23046875,-25.87890625,-984.86328125,-56.15234375,0.0,0,0
1772204008.437504,1772204008.3767734,-1000.0,-1000.0,-792.96875,-475.5859375,0.0,0,0
1772204008.4375548,1772204008.3806698,-180.17578125,-403.3203125,244.140625,-156.25,0.0,0,0
1772204008.4376059,1772204008.384566,-989.74609375,895.01953125,771.97265625,383.30078125,0.0,0,0
1772204008.437657,1772204008.3884625,-982.421875,-889.6484375,-334.9609375,531.73828125,0.0,0,0
1772204008.437707,1772204008.3923588,-172.8515625,169.921875,-959.9609375,1.953125,0.0,0,0
1772204008.4377558,1772204008.3962553,-1000.0,-1000.0,-747.55859375,-467.7734375,0.0,0,0
1772204008.437804,1772204008.4001515,-270.01953125,-627.9296875,211.42578125,-251.46484375,0.0,0,0
1772204008.437859,1772204008.404048,960.44921875,761.71875,868.1640625,320.80078125,0.0,0,0
1772204008.4379148,1772204008.4079442,-928.7109375,-847.65625,45.8984375,550.78125,0.0,0,0
1772204008.437964,1772204008.4118404,22.94921875,181.640625,-826.66015625,34.66796875,0.0,0,0
1772204008.438011,1772204008.415737,-1000.0,-1000.0,-734.86328125,-483.88671875,0.0,0,0
1772204008.483129,1772204008.4197266,-458.49609375,-846.19140625,134.27734375,-375.0,0.0,0,0
1772204008.483278,1772204008.4236228,867.1875,506.34765625,895.01953125,188.96484375,0.0,0,0
1772204008.4833379,1772204008.4275193,-877.9296875,-799.31640625,262.20703125,492.1875,0.0,0,0
1772204008.483391,1772204008.4314156,203.125,147.94921875,-783.69140625,41.9921875,0.0,0,0
1772204008.4834418,1772204008.435312,-1000.0,-1000.0,-768.5546875,-544.43359375,0.0,0,0
1772204008.483493,1772204008.4392083,-709.47265625,-1000.0,-18.06640625,-553.7109375,0.0,0,0
1772204008.4835432,1772204008.4431047,682.6171875,145.99609375,836.42578125,17.08984375,0.0,0,0
1772204008.483768,1772204008.447001,-831.0546875,-761.71875,361.81640625,404.296875,0.0,0,0
1772204008.483824,1772204008.4508975,166.50390625,234.86328125,-791.9921875,32.2265625,0.0,0,0
1772204008.483875,1772204008.4547937,-1000.0,-990.234375,-814.94140625,-563.96484375,0.0,0,0
1772204008.483965,1772204008.4586902,-946.77734375,-1000.0,-154.296875,-629.8828125,0.0,0,0
1772204008.484017,1772204008.4625864,350.5859375,-84.47265625,708.984375,-86.42578125,0.0,0,0
1772204008.572593,1772204008.4667222,-780.2734375,-804.19921875,547.36328125,328.61328125,0.0,0,0
1772204008.572711,1772204008.4706187,140.625,473.6328125,-617.67578125,91.796875,0.0,0,0
1772204008.572763,1772204008.474515,-1000.0,-875.0,-909.1796875,-429.19921875,0.0,0,0
1772204008.572892,1772204008.4784114,-1000.0,-1000.0,-235.3515625,-573.73046875,0.0,0,0
1772204008.572979,1772204008.482308,50.78125,-232.421875,709.47265625,-141.11328125,0.0,0,0
1772204008.57308,1772204008.4862041,-770.99609375,-889.6484375,523.92578125,272.4609375,0.0,0,0
1772204008.573173,1772204008.4901006,323.73046875,687.5,-630.859375,110.3515625,0.0,0,0
1772204008.5732312,1772204008.493997,-952.63671875,-704.1015625,-989.74609375,-421.875,0.0,0,0
1772204008.573356,1772204008.4978933,-1000.0,-1000.0,-180.6640625,-623.53515625,0.0,0,0
1772204008.573411,1772204008.5017898,-138.671875,-195.80078125,817.87109375,-138.671875,0.0,0,0
1772204008.573463,1772204008.5056863,-824.21875,-961.9140625,624.0234375,390.625,0.0,0,0
1772204008.573513,1772204008.5095825,522.4609375,935.546875,-223.14453125,314.94140625,0.0,0,0
1772204008.588258,1772204008.513564,-852.5390625,-346.6796875,-868.65234375,-291.015625,0.0,0,0
1772204008.58834,1772204008.5174606,-1000.0,-1000.0,-799.8046875,-603.02734375,0.0,0,0
1772204008.588396,1772204008.5213568,-218.75,-173.33984375,363.76953125,-173.828125,0.0,0,0
1772204008.588449,1772204008.5252533,-921.875,-998.53515625,611.328125,319.82421875,0.0,0,0
1772204008.5885,1772204008.5291498,800.29296875,-955.56640625,-450.1953125,415.0390625,0.0,0,0
1772204008.5885508,1772204008.5330462,-556.15234375,-77.63671875,-955.078125,-57.6171875,0.0,0,0
1772204008.588601,1772204008.5369425,-1000.0,-1000.0,-565.91796875,-460.44921875,0.0,0,0
1772204008.588649,1772204008.540839,-182.6171875,-259.765625,581.0546875,-131.8359375,0.0,0,0
1772204008.588705,1772204008.5447354,-986.81640625,962.890625,765.625,384.765625,0.0,0,0
1772204008.588755,1772204008.5486317,-993.1640625,-919.43359375,-375.48828125,484.86328125,0.0,0,0
1772204008.588806,1772204008.5525281,-199.21875,103.515625,-985.83984375,-15.13671875,0.0,0,0
1772204008.588855,1772204008.5564246,-1000.0,-1000.0,-812.5,-450.1953125,0.0,0,0
1772204008.6329641,1772204008.560456,-251.46484375,-440.4296875,54.6875,-258.30078125,0.0,0,0
1772204008.633075,1772204008.5643525,967.28515625,888.18359375,851.07421875,260.25390625,0.0,0,0
1772204008.63313,1772204008.568249,-933.59375,-882.8125,547.36328125,479.4921875,0.0,0,0
1772204008.633182,1772204008.5721455,12.6953125,214.84375,-432.6171875,-34.1796875,0.0,0,0
1772204008.633235,1772204008.5760417,-1000.0,-1000.0,-752.44140625,-542.96875,0.0,0,0
1772204008.6332831,1772204008.5799382,-443.359375,-517.578125,165.0390625,-380.37109375,0.0,0,0
1772204008.6333451,1772204008.5838346,875.48828125,863.76953125,841.30859375,178.22265625,0.0,0,0
1772204008.633395,1772204008.5877311,-881.8359375,-875.0,770.01953125,402.83203125,0.0,0,0
1772204008.633444,1772204008.5916276,191.40625,201.66015625,-294.43359375,-80.56640625,0.0,0,0
1772204008.633492,1772204008.5955238,-1000.0,-1000.0,-637.20703125,-583.49609375,0.0,0,0
1772204008.633558,1772204008.5994203,-679.6875,-704.58984375,574.70703125,-527.83203125,0.0,0,0
1772204008.633616,1772204008.6033168,711.42578125,687.98828125,940.91796875,43.9453125,0.0,0,0
1772204008.6790762,1772204008.6073434,-837.40234375,-833.984375,-933.59375,367.67578125,0.0,0,0
1772204008.679208,1772204008.6112397,171.38671875,180.17578125,533.69140625,-36.62109375,0.0,0,0
1772204008.6792672,1772204008.6151361,-1000.0,-1000.0,-265.13671875,-569.3359375,0.0,0,0
1772204008.679323,1772204008.6190326,-910.15625,-828.61328125,665.52734375,-645.99609375,0.0,0,0
1772204008.679378,1772204008.622929,406.73828125,522.4609375,-985.3515625,-145.01953125,0.0,0,0
1772204008.6794848,1772204008.6268256,-788.0859375,-803.22265625,999.51171875,246.58203125,0.0,0,0
1772204008.6795578,1772204008.630722,144.04296875,208.984375,759.27734375,-18.5546875,0.0,0,0
1772204008.6796181,1772204008.6346185,-1000.0,-1000.0,23.4375,-562.01171875,0.0,0,0
1772204008.679669,1772204008.638515,-1000.0,-997.0703125,643.5546875,-722.16796875,0.0,0,0
1772204008.679719,1772204008.6424112,97.65625,249.0234375,-981.93359375,-210.44921875,0.0,0,0
1772204008.67977,1772204008.6463077,-768.06640625,-788.0859375,974.609375,234.86328125,0.0,0,0
1772204008.67982,1772204008.6502042,317.3828125,401.3671875,854.98046875,55.6640625,0.0,0,0
1772204008.724128,1772204008.6542253,-955.078125,-1000.0,-351.07421875,-561.03515625,0.0,0,0
1772204008.724243,1772204008.6581218,-1000.0,-704.1015625,-136.23046875,-827.1484375,0.0,0,0
1772204008.724282,1772204008.662018,-105.95703125,710.44921875,877.44140625,-338.37890625,0.0,0,0
1772204008.72432,1772204008.6659145,-814.94140625,-843.26171875,866.69921875,151.3671875,0.0,0,0
1772204008.7243578,1772204008.669811,496.09375,497.0703125,436.03515625,28.80859375,0.0,0,0
1772204008.724395,1772204008.6737075,-864.74609375,-1000.0,-629.39453125,-603.02734375,0.0,0,0
1772204008.724442,1772204008.677604,-1000.0,-274.4140625,-1000.0,-877.9296875,0.0,0,0
1772204008.724481,1772204008.6815004,-223.14453125,-918.45703125,-87.890625,-434.08203125,0.0,0,0
1772204008.7245178,1772204008.685397,-913.57421875,922.36328125,567.3828125,43.9453125,0.0,0,0
1772204008.724555,1772204008.6892934,771.97265625,356.93359375,-218.26171875,80.078125,0.0,0,0
1772204008.7245922,1772204008.6931899,-592.7734375,-867.67578125,-908.203125,-468.26171875,0.0,0,0
1772204008.7246468,1772204008.6970863,-1000.0,-285.64453125,-711.9140625,-849.609375,0.0,0,0
1772204008.768098,1772204008.7010896,-187.01171875,-916.50390625,303.7109375,-548.33984375,0.0,0,0
1772204008.768254,1772204008.704986,-977.5390625,888.18359375,872.0703125,-54.19921875,0.0,0,0
1772204008.7683132,1772204008.7088826,980.95703125,560.546875,684.08203125,112.3046875,0.0,0,0
1772204008.768366,1772204008.712779,-251.953125,-588.37890625,-310.546875,-400.390625,0.0,0,0
1772204008.768427,1772204008.7166755,-1000.0,-323.73046875,-596.19140625,-860.83984375,0.0,0,0
1772204008.768478,1772204008.720572,-227.05078125,-905.2734375,576.171875,-601.07421875,0.0,0,0
1772204008.768529,1772204008.7244685,977.5390625,892.08984375,937.01171875,-47.8515625,0.0,0,0
1772204008.768579,1772204008.728365,-942.87109375,564.453125,802.734375,165.0390625,0.0,0,0
1772204008.768631,1772204008.7322614,-16.6015625,-419.921875,-191.40625,-348.6328125,0.0,0,0
1772204008.7686841,1772204008.736158,-1000.0,-401.3671875,-710.9375,-850.5859375,0.0,0,0
1772204008.7687511,1772204008.7400544,-421.38671875,993.65234375,320.3125,-655.76171875,0.0,0,0
1772204008.768812,1772204008.7439508,887.20703125,-992.67578125,898.4375,-61.5234375,0.0,0,0
1772204008.8124108,1772204008.7479439,-887.6953125,449.21875,776.3671875,193.84765625,0.0,0,0
1772204008.812501,1772204008.7518404,162.109375,-538.0859375,-235.3515625,-286.62109375,0.0,0,0
1772204008.812543,1772204008.7557368,-1000.0,-505.37109375,-800.78125,-808.10546875,0.0,0,0
1772204008.8125818,1772204008.7596333,-647.94921875,854.4921875,-90.33203125,-744.62890625,0.0,0,0
1772204008.81262,1772204008.7635298,737.79296875,-900.87890625,692.87109375,-157.71484375,0.0,0,0
1772204008.8126578,1772204008.7674263,-842.7734375,301.26953125,713.37890625,209.9609375,0.0,0,0
1772204008.812704,1772204008.7713227,174.31640625,-653.3203125,-345.703125,-180.6640625,0.0,0,0
1772204008.812744,1772204008.7752192,-1000.0,-745.1171875,-877.44140625,-733.88671875,0.0,0,0
1772204008.812785,1772204008.7791157,-897.4609375,525.390625,-419.43359375,-768.5546875,0.0,0,0
1772204008.812822,1772204008.7830122,426.7578125,-787.109375,484.375,-186.03515625,0.0,0,0
1772204008.81302,1772204008.7869086,-790.0390625,154.296875,650.87890625,234.86328125,0.0,0,0
1772204008.813059,1772204008.7908053,144.04296875,-973.14453125,-450.68359375,-59.5703125,0.0,0,0
1772204008.871841,1772204008.7947915,-1000.0,-1000.0,-945.3125,-604.98046875,0.0,0,0
1772204008.871945,1772204008.798688,-1000.0,183.10546875,-760.7421875,-736.328125,0.0,0,0
1772204008.871985,1772204008.8025844,97.65625,-762.20703125,212.40234375,-215.33203125,0.0,0,0
1772204008.872023,1772204008.806481,-767.08984375,229.4921875,563.4765625,235.3515625,0.0,0,0
1772204008.872062,1772204008.8103774,276.85546875,-1000.0,-580.56640625,54.6875,0.0,0,0
1772204008.872098,1772204008.8142738,-975.5859375,-1000.0,-978.515625,-510.7421875,0.0,0,0
1772204008.872134,1772204008.8181705,-1000.0,20.01953125,-949.70703125,-720.703125,0.0,0,0
1772204008.872169,1772204008.822067,-90.8203125,-802.24609375,-98.6328125,-208.0078125,0.0,0,0
1772204008.872205,1772204008.8259635,-806.640625,450.68359375,463.8671875,283.203125,0.0,0,0
1772204008.872242,1772204008.82986,463.37890625,-588.37890625,-553.22265625,210.9375,0.0,0,0
1772204008.872285,1772204008.8337564,-882.8125,-1000.0,-976.07421875,-370.1171875,0.0,0,0
1772204008.8723211,1772204008.837653,-1000.0,-258.30078125,-1000.0,-649.90234375,0.0,0,0
1772204008.9029381,1772204008.8416262,-230.95703125,-934.5703125,-375.48828125,-161.1328125,0.0,0,0
1772204008.9030578,1772204008.8455226,-897.4609375,895.99609375,295.41015625,352.05078125,0.0,0,0
1772204008.903117,1772204008.849419,714.35546875,-343.26171875,-585.9375,363.28125,0.0,0,0
1772204008.903174,1772204008.8533156,-667.96875,-1000.0,-990.72265625,-215.8203125,0.0,0,0
1772204008.9032261,1772204008.8572123,-1000.0,-552.24609375,-1000.0,-585.9375,0.0,0,0
1772204008.903274,1772204008.8611088,-197.265625,755.37109375,-660.15625,-190.91796875,0.0,0,0
1772204008.9033248,1772204008.8650053,-958.0078125,-926.26953125,83.49609375,350.09765625,0.0,0,0
1772204008.9033759,1772204008.8689017,923.828125,791.50390625,-649.4140625,463.8671875,0.0,0,0
1772204008.903429,1772204008.8727982,-367.67578125,-463.8671875,-1000.0,-90.33203125,0.0,0,0
1772204008.903479,1772204008.8766947,-1000.0,-1000.0,-1000.0,-536.62109375,0.0,0,0
1772204008.9035351,1772204008.8805914,-172.8515625,-176.26953125,-842.7734375,-247.55859375,0.0,0,0
1772204008.903587,1772204008.8844879,-999.51171875,-996.09375,33.69140625,319.3359375,0.0,0,0
1772204008.962563,1772204008.888452,-960.9375,-968.26171875,-441.89453125,502.44140625,0.0,0,0
1772204008.96267,1772204008.8923485,-73.73046875,-120.60546875,-1000.0,-22.4609375,0.0,0,0
1772204008.962712,1772204008.8962452,-1000.0,-1000.0,-997.55859375,-504.8828125,0.0,0,0
1772204008.962749,1772204008.9001417,-357.421875,-283.69140625,-960.44921875,-317.3828125,0.0,0,0
1772204008.962786,1772204008.9040382,918.45703125,950.1953125,-74.70703125,267.578125,0.0,0,0
1772204008.962823,1772204008.9079347,-902.83203125,-917.96875,-369.140625,543.9453125,0.0,0,0
1772204008.9628649,1772204008.9118311,118.1640625,92.28515625,-1000.0,75.68359375,0.0,0,0
1772204008.962902,1772204008.9157279,-1000.0,-1000.0,-962.40234375,-442.3828125,0.0,0,0
1772204008.962937,1772204008.9196243,-558.59375,-522.94921875,-1000.0,-368.1640625,0.0,0,0
1772204008.962983,1772204008.9235208,819.82421875,838.37890625,-178.22265625,225.09765625,0.0,0,0
1772204008.963027,1772204008.9274173,-859.86328125,-865.72265625,-239.2578125,574.70703125,0.0,0,0
1772204008.963083,1772204008.9313138,185.546875,193.84765625,-1000.0,169.43359375,0.0,0,0
1772204009.0079172,1772204008.9353433,-1000.0,-1000.0,-950.1953125,-357.421875,0.0,0,0
1772204009.0080168,1772204008.93924,-833.984375,-776.85546875,-1000.0,-372.55859375,0.0,0,0
1772204009.00807,1772204008.9431365,521.97265625,596.6796875,-399.90234375,207.51953125,0.0,0,0
1772204009.008126,1772204008.947033,-802.734375,-813.96484375,-291.015625,594.23828125,0.0,0,0
1772204009.0081768,1772204008.9509296,148.92578125,153.80859375,-1000.0,253.90625,0.0,0,0
1772204009.008228,1772204008.954826,-1000.0,-1000.0,-955.56640625,-298.828125,0.0,0,0
1772204009.00828,1772204008.9587226,-1000.0,-1000.0,-1000.0,-424.8046875,0.0,0,0
1772204009.008331,1772204008.962619,161.62109375,202.63671875,-501.46484375,118.65234375,0.0,0,0
1772204009.008395,1772204008.9665158,-764.16015625,-766.11328125,-294.921875,579.1015625,0.0,0,0
1772204009.008445,1772204008.9704123,230.95703125,210.44921875,-1000.0,357.421875,0.0,0,0
1772204009.008512,1772204008.9743087,-996.09375,-1000.0,-975.09765625,-214.84375,0.0,0,0
1772204009.008579,1772204008.9782054,-1000.0,-1000.0,-1000.0,-425.78125,0.0,0,0
1772204009.0529861,1772204008.9822266,-46.875,-46.38671875,-676.26953125,57.12890625,0.0,0,0
1772204009.053117,1772204008.986123,-792.96875,-791.9921875,-460.44921875,538.0859375,0.0,0,0
1772204009.0531719,1772204008.9900196,425.29296875,431.640625,-1000.0,430.6640625,0.0,0,0
1772204009.0532281,1772204008.9939163,-900.390625,-895.99609375,-943.84765625,-161.62109375,0.0,0,0
1772204009.05328,1772204008.9978127,-1000.0,-1000.0,-1000.0,-457.51953125,0.0,0,0
1772204009.0533278,1772204009.0017092,-225.5859375,-226.07421875,-378.41796875,9.27734375,0.0,0,0
1772204009.053379,1772204009.005606,-881.8359375,-915.52734375,173.828125,514.16015625,0.0,0,0
1772204009.053429,1772204009.0095024,666.50390625,787.109375,-1000.0,518.06640625,0.0,0,0
1772204009.053479,1772204009.0133991,-723.14453125,-573.73046875,-971.6796875,-73.2421875,0.0,0,0
1772204009.053532,1772204009.0172956,-1000.0,-1000.0,-1000.0,-465.33203125,0.0,0,0
1772204009.05358,1772204009.021192,-199.70703125,-177.734375,-285.64453125,-60.05859375,0.0,0,0
1772204009.0536299,1772204009.0250888,-955.56640625,-996.09375,335.44921875,465.8203125,0.0,0,0
1772204009.097547,1772204009.0291007,913.0859375,-975.5859375,-981.4453125,547.8515625,0.0,0,0
1772204009.097694,1772204009.0329974,-384.27734375,-132.32421875,-982.91015625,2.44140625,0.0,0,0
1772204009.097752,1772204009.0368938,-1000.0,-1000.0,-1000.0,-424.8046875,0.0,0,0
1772204009.097803,1772204009.0407906,-174.31640625,-353.515625,-525.87890625,-109.86328125,0.0,0,0
1772204009.097856,1772204009.044687,-998.046875,913.57421875,311.03515625,451.171875,0.0,0,0
1772204009.0979068,1772204009.0485837,-964.35546875,-899.90234375,-838.37890625,616.69921875,0.0,0,0
1772204009.0979578,1772204009.0524802,-89.35546875,127.9296875,-1000.0,91.796875,0.0,0,0
1772204009.098006,1772204009.056377,-1000.0,-1000.0,-1000.0,-387.6953125,0.0,0,0
1772204009.0980532,1772204009.0602734,-347.16796875,-632.32421875,-629.8828125,-186.5234375,0.0,0,0
1772204009.0980911,1772204009.06417,923.33984375,746.58203125,412.109375,400.390625,0.0,0,0
1772204009.09812,1772204009.0680666,-905.76171875,-842.28515625,-657.2265625,637.6953125,0.0,0,0
1772204009.098149,1772204009.071963,104.00390625,172.36328125,-1000.0,155.2734375,0.0,0,0
1772204009.1709938,1772204009.076048,-1000.0,-1000.0,-595.703125,-336.9140625,0.0,0,0
1772204009.171147,1772204009.0799444,-535.64453125,-924.8046875,186.5234375,-232.421875,0.0,0,0
1772204009.1712189,1772204009.083841,832.03125,385.25390625,891.6015625,352.05078125,0.0,0,0
1772204009.1712818,1772204009.0877376,-864.2578125,-784.66796875,83.49609375,682.6171875,0.0,0,0
1772204009.1713338,1772204009.0916343,189.94140625,145.01953125,-979.4921875,279.296875,0.0,0,0
1772204009.171384,1772204009.0955307,-1000.0,-1000.0,-695.3125,-238.76953125,0.0,0,0
1772204009.1714392,1772204009.0994275,-805.6640625,-1000.0,-56.640625,-245.1171875,0.0,0,0
1772204009.171489,1772204009.103324,559.08203125,104.98046875,797.36328125,305.6640625,0.0,0,0
1772204009.1715388,1772204009.1072206,-809.5703125,-764.16015625,43.45703125,670.41015625,0.0,0,0
1772204009.171607,1772204009.1111174,154.296875,238.28125,-1000.0,333.984375,0.0,0,0
1772204009.1716712,1772204009.1150138,-1000.0,-990.234375,-802.24609375,-211.9140625,0.0,0,0
1772204009.1717381,1772204009.1189106,-1000.0,-1000.0,-706.0546875,-301.7578125,0.0,0,0
1772204009.187715,1772204009.1229064,223.14453125,-105.95703125,346.6796875,239.2578125,0.0,0,0
1772204009.187813,1772204009.126803,-769.04296875,-808.10546875,270.99609375,645.5078125,0.0,0,0
1772204009.188055,1772204009.1306996,203.61328125,477.05078125,-1000.0,409.1796875,0.0,0,0
1772204009.188115,1772204009.1345963,-1000.0,-876.46484375,-867.1875,-162.59765625,0.0,0,0
1772204009.1881669,1772204009.1384928,-1000.0,-1000.0,-572.265625,-361.81640625,0.0,0,0
1772204009.1882188,1772204009.1423895,-16.6015625,-229.4921875,406.25,166.9921875,0.0,0,0
1772204009.1882691,1772204009.146286,-786.62109375,-897.94921875,257.8125,620.60546875,0.0,0,0
1772204009.188319,1772204009.1501827,404.78515625,718.26171875,-1000.0,463.37890625,0.0,0,0
1772204009.1883678,1772204009.1540794,-911.1328125,-663.57421875,-937.98828125,-123.046875,0.0,0,0
1772204009.188437,1772204009.157976,-1000.0,-1000.0,-755.37109375,-406.73828125,0.0,0,0
1772204009.1884851,1772204009.1618726,-199.70703125,-191.40625,215.8203125,54.19921875,0.0,0,0
1772204009.188535,1772204009.165769,-865.72265625,-970.703125,263.671875,525.390625,0.0,0,0
1772204009.232349,1772204009.169751,629.39453125,959.47265625,-1000.0,497.0703125,0.0,0,0
1772204009.232436,1772204009.1736474,-757.32421875,-293.45703125,-942.3828125,-63.4765625,0.0,0,0
1772204009.232542,1772204009.177544,-1000.0,-1000.0,-1000.0,-411.1328125,0.0,0,0
1772204009.232615,1772204009.1814408,-206.54296875,-225.09765625,-93.75,-10.25390625,0.0,0,0
1772204009.23267,1772204009.1853373,-942.3828125,976.07421875,551.7578125,486.81640625,0.0,0,0
1772204009.2327218,1772204009.189234,869.62890625,-941.40625,-753.90625,543.45703125,0.0,0,0
1772204009.232773,1772204009.1931307,-451.171875,-7.8125,-1000.0,-25.390625,0.0,0,0
1772204009.232822,1772204009.1970272,-1000.0,-1000.0,-196.77734375,-437.98828125,0.0,0,0
1772204009.2328699,1772204009.200924,-177.24609375,-454.1015625,-950.68359375,-100.09765625,0.0,0,0
1772204009.2329211,1772204009.2048206,-994.140625,872.0703125,767.578125,411.62109375,0.0,0,0
1772204009.23297,1772204009.208717,-972.16796875,-881.34765625,-511.71875,562.01171875,0.0,0,0
1772204009.2330198,1772204009.2126138,-129.8828125,155.2734375,-1000.0,36.62109375,0.0,0,0
1772204009.27811,1772204009.216588,-1000.0,-1000.0,-585.9375,-439.94140625,0.0,0,0
1772204009.278251,1772204009.2204847,-299.8046875,-666.9921875,329.1015625,-188.96484375,0.0,0,0
1772204009.278307,1772204009.2243812,944.3359375,716.796875,701.66015625,346.6796875,0.0,0,0
1772204009.278361,1772204009.228278,-917.48046875,-836.9140625,-590.8203125,605.95703125,0.0,0,0
1772204009.278413,1772204009.2321746,75.1953125,171.38671875,-1000.0,131.8359375,0.0,0,0
1772204009.278464,1772204009.236071,-1000.0,-1000.0,-586.42578125,-402.83203125,0.0,0,0
1772204009.2785122,1772204009.2399678,-503.41796875,-919.921875,133.7890625,-273.4375,0.0,0,0
1772204009.278562,1772204009.2438645,847.65625,392.578125,834.9609375,312.01171875,0.0,0,0
1772204009.278612,1772204009.2477612,-870.60546875,-785.15625,-130.859375,610.3515625,0.0,0,0
1772204009.278662,1772204009.2516577,198.2421875,143.5546875,-1000.0,159.66796875,0.0,0,0
1772204009.2787101,1772204009.2555544,-1000.0,-1000.0,-487.79296875,-367.1875,0.0,0,0
1772204009.278759,1772204009.2594512,-741.2109375,-1000.0,563.96484375,-351.5625,0.0,0,0
1772204009.338858,1772204009.2634187,643.5546875,83.49609375,973.6328125,215.33203125,0.0,0,0
1772204009.3389828,1772204009.2673151,-823.73046875,-767.578125,152.34375,562.98828125,0.0,0,0
1772204009.339036,1772204009.2712119,162.109375,285.64453125,-1000.0,190.4296875,0.0,0,0
1772204009.339087,1772204009.2751086,-1000.0,-974.12109375,-665.0390625,-370.60546875,0.0,0,0
1772204009.3391502,1772204009.2790053,-972.16796875,-1000.0,498.046875,-418.9453125,0.0,0,0
1772204009.3392,1772204009.2829018,302.734375,-83.49609375,-967.28515625,166.015625,0.0,0,0
1772204009.3392498,1772204009.2867985,-775.390625,-804.6875,215.33203125,540.0390625,0.0,0,0
1772204009.3393102,1772204009.2906952,162.59765625,463.8671875,-1000.0,271.484375,0.0,0,0
1772204009.339359,1772204009.294592,-1000.0,-881.34765625,-850.09765625,-256.34765625,0.0,0,0
1772204009.339408,1772204009.2984884,-1000.0,-1000.0,315.91796875,-479.4921875,0.0,0,0
1772204009.339457,1772204009.302385,24.90234375,-230.95703125,-917.96875,-3.41796875,0.0,0,0
1772204009.339502,1772204009.3062818,-775.87890625,-895.01953125,193.359375,500.0,0.0,0,0
1772204009.384919,1772204009.3103168,350.5859375,708.49609375,-970.703125,393.5546875,0.0,0,0
1772204009.385057,1772204009.3142133,-939.94140625,-676.26953125,-994.62890625,-242.1875,0.0,0,0
1772204009.38511,1772204009.31811,-1000.0,-1000.0,87.40234375,-579.1015625,0.0,0,0
1772204009.385161,1772204009.3220067,-157.2265625,-191.89453125,-875.48828125,-56.640625,0.0,0,0
1772204009.385212,1772204009.3259034,-832.51953125,-969.7265625,258.30078125,424.8046875,0.0,0,0
1772204009.3852632,1772204009.3298001,542.96875,957.03125,-902.34375,410.15625,0.0,0,0
1772204009.385313,1772204009.3336968,-838.8671875,-297.36328125,-1000.0,-187.98828125,0.0,0,0
1772204009.385365,1772204009.3375933,-1000.0,-1000.0,-123.046875,-560.546875,0.0,0,0
1772204009.385412,1772204009.34149,-215.33203125,-233.3984375,-864.2578125,-152.34375,0.0,0,0
1772204009.38546,1772204009.3453867,-928.7109375,981.93359375,448.73046875,305.6640625,0.0,0,0
1772204009.38551,1772204009.3492835,823.2421875,-951.171875,-758.30078125,432.6171875,0.0,0,0
1772204009.385559,1772204009.3531802,-523.4375,-68.359375,-1000.0,-91.30859375,0.0,0,0
1772204009.4723,1772204009.357355,-1000.0,-1000.0,-212.890625,-545.8984375,0.0,0,0
1772204009.4724438,1772204009.3612518,-182.12890625,-419.921875,-912.109375,-259.27734375,0.0,0,0
1772204009.472505,1772204009.3651485,-985.83984375,888.18359375,694.82421875,120.60546875,0.0,0,0
1772204009.472558,1772204009.3690453,-994.140625,-890.13671875,-343.26171875,190.4296875,0.0,0,0
1772204009.4726112,1772204009.372942,-197.75390625,111.328125,-993.65234375,-404.78515625,0.0,0,0
1772204009.4727302,1772204009.3768387,-1000.0,-1000.0,-244.140625,-884.765625,0.0,0,0
1772204009.472849,1772204009.3807354,-276.85546875,-603.02734375,-942.3828125,-665.52734375,0.0,0,0
1772204009.472918,1772204009.384632,957.51953125,775.390625,906.25,-102.05078125,0.0,0,0
1772204009.472969,1772204009.3885288,-929.19921875,-848.6328125,-124.51171875,191.89453125,0.0,0,0
1772204009.473137,1772204009.3924255,13.18359375,177.734375,-1000.0,-308.10546875,0.0,0,0
1772204009.473236,1772204009.3963223,-1000.0,-1000.0,-296.38671875,-814.94140625,0.0,0,0
1772204009.4733,1772204009.400219,-455.078125,-886.71875,987.3046875,-675.29296875,0.0,0,0
1772204009.474533,1772204009.4042423,869.140625,443.359375,-996.09375,-101.07421875,0.0,0,0
1772204009.474595,1772204009.408139,-879.39453125,-791.9921875,132.8125,195.80078125,0.0,0,0
1772204009.474638,1772204009.4120357,190.4296875,146.484375,-951.66015625,-204.1015625,0.0,0,0
1772204009.474677,1772204009.4159324,-1000.0,-1000.0,-444.82421875,-680.17578125,0.0,0,0
1772204009.474714,1772204009.4198294,-702.63671875,-1000.0,876.953125,-666.9921875,0.0,0,0
1772204009.47475,1772204009.423726,686.5234375,129.39453125,-930.6640625,-84.47265625,0.0,0,0
1772204009.4747882,1772204009.4276228,-832.03125,-763.18359375,236.328125,311.5234375,0.0,0,0
1772204009.474831,1772204009.4315195,167.48046875,247.0703125,-914.55078125,-65.91796875,0.0,0,0
1772204009.474869,1772204009.4354162,-1000.0,-988.28125,-631.8359375,-602.05078125,0.0,0,0
1772204009.474905,1772204009.439313,-937.98828125,-1000.0,722.16796875,-638.671875,0.0,0,0
1772204009.474941,1772204009.4432096,364.2578125,-73.2421875,-864.74609375,-119.62890625,0.0,0,0
1772204009.474978,1772204009.4471064,-782.2265625,-800.29296875,239.74609375,292.96875,0.0,0,0
1772204009.519283,1772204009.4511116,141.11328125,453.125,-880.859375,41.015625,0.0,0,0
1772204009.519437,1772204009.4550083,-1000.0,-886.23046875,-846.19140625,-547.8515625,0.0,0,0
1772204009.519495,1772204009.458905,-1000.0,-1000.0,430.17578125,-655.76171875,0.0,0,0
1772204009.519545,1772204009.4628017,56.640625,-231.4453125,-817.3828125,-112.3046875,0.0,0,0
1772204009.519596,1772204009.4666986,-770.5078125,-895.5078125,202.1484375,315.91796875,0.0,0,0
1772204009.519647,1772204009.4705954,314.94140625,710.9375,-886.23046875,125.0,0.0,0,0
1772204009.519815,1772204009.474492,-956.54296875,-673.33984375,-990.72265625,-449.21875,0.0,0,0
1772204009.51987,1772204009.4783888,-1000.0,-1000.0,152.34375,-667.96875,0.0,0,0
1772204009.519918,1772204009.4822855,-134.765625,-196.2890625,-784.66796875,-155.76171875,0.0,0,0
1772204009.519969,1772204009.4861822,-821.2890625,-959.47265625,286.1328125,332.03125,0.0,0,0
1772204009.5200179,1772204009.490079,506.34765625,931.15234375,-822.75390625,270.5078125,0.0,0,0
1772204009.5200691,1772204009.4939759,-862.3046875,-355.46875,-1000.0,-289.55078125,0.0,0,0
1772204009.56317,1772204009.4979713,-1000.0,-1000.0,-85.9375,-562.5,0.0,0,0
1772204009.563263,1772204009.501868,-221.6796875,-171.875,-808.59375,-172.8515625,0.0,0,0
1772204009.563304,1772204009.5057647,-916.50390625,999.51171875,475.5859375,315.4296875,0.0,0,0
1772204009.563343,1772204009.5096614,782.2265625,-958.0078125,-654.78515625,395.01953125,0.0,0,0
1772204009.563381,1772204009.5135584,-579.58984375,-60.05859375,-1000.0,-186.03515625,0.0,0,0
1772204009.5634172,1772204009.517455,-1000.0,-1000.0,-203.125,-615.234375,0.0,0,0
1772204009.563452,1772204009.5213518,-185.546875,-368.65234375,-867.1875,-248.046875,0.0,0,0
1772204009.5635,1772204009.5252485,-980.46875,915.52734375,669.43359375,296.875,0.0,0,0
1772204009.563536,1772204009.5291452,988.28125,-900.390625,-364.74609375,437.01171875,0.0,0,0
1772204009.563572,1772204009.5330422,-236.81640625,117.67578125,-978.515625,-118.65234375,0.0,0,0
1772204009.5636091,1772204009.536939,-1000.0,-1000.0,-247.0703125,-570.3125,0.0,0,0
1772204009.563655,1772204009.5408356,-237.79296875,-565.91796875,-929.19921875,-249.0234375,0.0,0,0
1772204009.6084878,1772204009.544824,973.6328125,815.4296875,864.74609375,273.4375,0.0,0,0
1772204009.608599,1772204009.5487208,-939.94140625,-857.421875,-34.1796875,478.515625,0.0,0,0
1772204009.6086578,1772204009.5526175,-10.25390625,184.08203125,-916.50390625,28.80859375,0.0,0,0
1772204009.608713,1772204009.5565143,-1000.0,-1000.0,-284.66796875,-477.05078125,0.0,0,0
1772204009.608764,1772204009.560411,-435.05859375,-845.21484375,-983.88671875,-366.69921875,0.0,0,0
1772204009.6088152,1772204009.564308,879.39453125,507.8125,982.91015625,225.5859375,0.0,0,0
1772204009.608865,1772204009.5682046,-884.765625,-799.31640625,149.90234375,548.33984375,0.0,0,0
1772204009.6089091,1772204009.5721014,169.921875,147.94921875,-901.3671875,69.3359375,0.0,0,0
1772204009.6089458,1772204009.575998,-1000.0,-1000.0,-395.5078125,-455.078125,0.0,0,0
1772204009.608981,1772204009.579895,-667.48046875,-1000.0,932.12890625,-404.78515625,0.0,0,0
1772204009.6090171,1772204009.5837917,719.23828125,145.99609375,-947.265625,159.66796875,0.0,0,0
1772204009.609053,1772204009.5876884,-838.37890625,-762.20703125,264.16015625,500.48828125,0.0,0,0
1772204009.653904,1772204009.591667,172.36328125,237.3046875,-847.16796875,97.65625,0.0,0,0
1772204009.6539829,1772204009.5955637,-1000.0,-994.62890625,-579.58984375,-447.265625,0.0,0,0
1772204009.65402,1772204009.5994604,-911.62109375,-1000.0,777.34375,-509.27734375,0.0,0,0
1772204009.654058,1772204009.6033573,404.78515625,-46.875,-881.34765625,6.8359375,0.0,0,0
1772204009.654094,1772204009.607254,-787.109375,-792.96875,267.578125,377.9296875,0.0,0,0
1772204009.6541288,1772204009.6111507,143.06640625,431.640625,-831.0546875,79.58984375,0.0,0,0
1772204009.654169,1772204009.6150475,-1000.0,-896.484375,-799.8046875,-513.671875,0.0,0,0
1772204009.654204,1772204009.6189444,-1000.0,-1000.0,504.8828125,-669.921875,0.0,0,0
1772204009.654239,1772204009.6228411,82.03125,-236.328125,-810.05859375,-131.8359375,0.0,0,0
1772204009.654277,1772204009.6267378,-767.578125,-885.25390625,200.68359375,286.1328125,0.0,0,0
1772204009.6543128,1772204009.6306348,278.80859375,673.828125,-894.04296875,82.03125,0.0,0,0
1772204009.654377,1772204009.6345315,-973.14453125,-719.23828125,-985.3515625,-523.4375,0.0,0,0
1772204009.7143412,1772204009.6384983,-1000.0,-1000.0,242.67578125,-744.62890625,0.0,0,0
1772204009.714494,1772204009.642395,-110.83984375,-200.1953125,-885.25390625,-232.421875,0.0,0,0
1772204009.7145548,1772204009.646292,-811.03515625,-953.125,89.35546875,221.19140625,0.0,0,0
1772204009.7146082,1772204009.6501887,470.703125,907.2265625,-820.3125,147.4609375,0.0,0,0
1772204009.7146611,1772204009.6540854,-880.859375,-394.04296875,-1000.0,-390.13671875,0.0,0,0
1772204009.7147121,1772204009.6579823,-1000.0,-1000.0,-35.64453125,-669.43359375,0.0,0,0
1772204009.714765,1772204009.661879,-229.00390625,-174.8046875,-796.875,-247.0703125,0.0,0,0
1772204009.714828,1772204009.6657758,-901.85546875,-996.09375,434.5703125,231.93359375,0.0,0,0
1772204009.7148778,1772204009.6696727,730.46875,-966.796875,-692.87109375,261.71875,0.0,0,0
1772204009.7149282,1772204009.6735694,-646.97265625,-100.5859375,-1000.0,-303.22265625,0.0,0,0
1772204009.714977,1772204009.6774662,-1000.0,-1000.0,-195.3125,-653.80859375,0.0,0,0
1772204009.715038,1772204009.681363,-192.3828125,-350.09765625,-861.81640625,-246.09375,0.0,0,0
1772204009.773362,1772204009.6853914,-968.75,922.36328125,652.83203125,286.1328125,0.0,0,0
1772204009.773511,1772204009.6892881,953.125,-905.76171875,-411.1328125,416.015625,0.0,0,0
1772204009.773571,1772204009.693185,-307.6171875,95.21484375,-1000.0,-114.2578125,0.0,0,0
1772204009.7736828,1772204009.6970818,-1000.0,-1000.0,-242.67578125,-570.80078125,0.0,0,0
1772204009.7737339,1772204009.7009788,-206.0546875,-543.45703125,-918.9453125,-267.08984375,0.0,0,0
1772204009.773786,1772204009.7048755,988.76953125,826.171875,832.03125,305.6640625,0.0,0,0
1772204009.7738361,1772204009.7087722,-953.125,-861.328125,-76.66015625,524.90234375,0.0,0,0
1772204009.773887,1772204009.7126691,-55.17578125,188.4765625,-909.66796875,30.2734375,0.0,0,0
1772204009.773928,1772204009.7165658,-1000.0,-1000.0,-263.18359375,-461.42578125,0.0,0,0
1772204009.773964,1772204009.7204628,-404.296875,-815.91796875,-969.23828125,-266.6015625,0.0,0,0
1772204009.7740002,1772204009.7243595,894.53125,545.8984375,961.9140625,314.453125,0.0,0,0
1772204009.77404,1772204009.7282562,-892.578125,-806.640625,228.515625,581.0546875,0.0,0,0
1772204009.803803,1772204009.7322826,133.30078125,155.2734375,-803.7109375,104.4921875,0.0,0,0
1772204009.803888,1772204009.7361794,-1000.0,-1000.0,-354.98046875,-398.92578125,0.0,0,0
1772204009.80394,1772204009.7400763,-608.3984375,-1000.0,967.7734375,-306.640625,0.0,0,0
1772204009.8039901,1772204009.743973,773.92578125,231.4453125,-977.05078125,248.046875,0.0,0,0
1772204009.80404,1772204009.74787,-849.609375,-768.5546875,332.51953125,576.66015625,0.0,0,0
1772204009.80409,1772204009.7517667,178.22265625,205.078125,-736.328125,218.26171875,0.0,0,0
1772204009.804139,1772204009.7556636,-1000.0,-1000.0,-517.578125,-318.359375,0.0,0,0
1772204009.804189,1772204009.7595603,-879.39453125,-1000.0,832.51953125,-371.09375,0.0,0,0
1772204009.8042371,1772204009.7634573,455.078125,-32.71484375,-897.94921875,181.15234375,0.0,0,0
1772204009.804287,1772204009.767354,-793.9453125,-785.15625,296.38671875,562.98828125,0.0,0,0
1772204009.8043368,1772204009.771251,145.99609375,367.67578125,-814.94140625,251.953125,0.0,0,0
1772204009.8043919,1772204009.7751477,-1000.0,-932.6171875,-729.4921875,-284.1796875,0.0,0,0
1772204009.8491032,1772204009.7791653,-1000.0,-1000.0,606.4453125,-404.296875,0.0,0,0
1772204009.8492239,1772204009.783062,125.48828125,-203.125,-833.0078125,104.4921875,0.0,0,0
1772204009.8492658,1772204009.786959,-764.16015625,-855.46875,229.4921875,551.7578125,0.0,0,0
1772204009.8493052,1772204009.7908556,236.81640625,594.7265625,-854.98046875,359.375,0.0,0,0
1772204009.8493419,1772204009.7947526,-992.67578125,-795.41015625,-913.0859375,-225.5859375,0.0,0,0
1772204009.84938,1772204009.7986493,-1000.0,-1000.0,312.01171875,-440.4296875,0.0,0,0
1772204009.849416,1772204009.8025463,-76.66015625,-211.42578125,-785.64453125,50.29296875,0.0,0,0
1772204009.849453,1772204009.806443,-798.33984375,-932.6171875,253.90625,500.0,0.0,0,0
1772204009.84949,1772204009.81034,434.5703125,839.84375,-818.84765625,405.76171875,0.0,0,0
1772204009.849526,1772204009.8142369,-898.4375,-498.046875,-1000.0,-174.31640625,0.0,0,0
1772204009.849705,1772204009.8181336,-1000.0,-1000.0,32.71484375,-456.0546875,0.0,0,0
1772204009.8497438,1772204009.8220305,-235.83984375,-179.19921875,-785.15625,-18.5546875,0.0,0,0
1772204009.892427,1772204009.8260298,-888.671875,-990.234375,393.06640625,449.21875,0.0,0,0
1772204009.892533,1772204009.8299265,683.59375,-979.98046875,-702.1484375,464.84375,0.0,0,0
1772204009.892565,1772204009.8338234,-708.0078125,-161.62109375,-1000.0,-127.9296875,0.0,0,0
1772204009.892595,1772204009.8377202,-1000.0,-1000.0,-157.71484375,-507.8125,0.0,0,0
1772204009.892624,1772204009.841617,-199.21875,-295.8984375,-837.890625,-127.9296875,0.0,0,0
1772204009.8926542,1772204009.845514,-956.0546875,947.75390625,583.0078125,371.58203125,0.0,0,0
1772204009.892684,1772204009.8494108,914.55078125,-920.8984375,-419.921875,460.9375,0.0,0,0
1772204009.892713,1772204009.8533077,-382.32421875,46.38671875,-951.66015625,-85.9375,0.0,0,0
1772204009.8927429,1772204009.8572047,-1000.0,-1000.0,-242.67578125,-511.71875,0.0,0,0
1772204009.892771,1772204009.8611014,-173.828125,-490.234375,-906.73828125,-217.28515625,0.0,0,0
1772204009.892799,1772204009.8649983,999.51171875,852.05078125,802.734375,333.49609375,0.0,0,0
1772204009.892833,1772204009.868895,-956.54296875,-871.58203125,-132.32421875,521.484375,0.0,0,0
1772204009.9374561,1772204009.8728857,-102.05078125,201.171875,-938.4765625,-0.9765625,0.0,0,0
1772204009.937592,1772204009.8767824,-1000.0,-1000.0,-279.78515625,-446.2890625,0.0,0,0
1772204009.9376519,1772204009.8806794,-267.578125,-719.7265625,-970.703125,-250.9765625,0.0,0,0
1772204009.9377081,1772204009.8845763,908.69140625,671.875,934.5703125,312.98828125,0.0,0,0
1772204009.937763,1772204009.888473,-903.80859375,-827.1484375,-36.62109375,701.171875,0.0,0,0
1772204009.937833,1772204009.89237,109.86328125,163.57421875,-1000.0,351.07421875,0.0,0,0
1772204009.937883,1772204009.896267,-1000.0,-1000.0,-348.6328125,-104.98046875,0.0,0,0
1772204009.9379368,1772204009.9001637,-551.26953125,-967.28515625,923.828125,0.9765625,0.0,0,0
1772204009.9379892,1772204009.9040606,822.75390625,314.94140625,-987.3046875,576.171875,0.0,0,0
1772204009.9380522,1772204009.9079576,-861.328125,-776.3671875,203.125,909.66796875,0.0,0,0
1772204009.938105,1772204009.9118543,187.01171875,146.484375,-877.44140625,503.90625,0.0,0,0
1772204009.9381812,1772204009.9157512,-1000.0,-1000.0,-515.13671875,-44.43359375,0.0,0,0
1772204009.982954,1772204009.9197311,-824.70703125,-1000.0,687.01171875,-90.8203125,0.0,0,0
1772204009.983068,1772204009.923628,533.69140625,34.1796875,-963.8671875,444.3359375,0.0,0,0
1772204009.983125,1772204009.927525,-805.17578125,-772.4609375,230.46875,807.12890625,0.0,0,0
1772204009.983177,1772204009.9314218,150.390625,336.42578125,-1000.0,465.33203125,0.0,0,0
1772204009.9832268,1772204009.9353187,-1000.0,-948.2421875,-185.546875,-89.84375,0.0,0,0
1772204009.983277,1772204009.9392157,-1000.0,-1000.0,-951.66015625,-216.796875,0.0,0,0
1772204009.983325,1772204009.9431124,174.8046875,-143.06640625,954.58984375,276.85546875,0.0,0,0
1772204009.983379,1772204009.9470093,-765.13671875,-825.68359375,942.87109375,691.40625,0.0,0,0
1772204009.9834292,1772204009.9509063,227.05078125,532.71484375,972.16796875,482.91015625,0.0,0,0
1772204009.983479,1772204009.9548032,-998.046875,-847.65625,919.43359375,-87.40234375,0.0,0,0
1772204009.9835389,1772204009.9587,-1000.0,-1000.0,958.0078125,-306.15234375,0.0,0,0
1772204009.9835992,1772204009.962597,-39.0625,-216.796875,943.359375,155.76171875,0.0,0,0
1772204010.071935,1772204009.966717,-791.50390625,-924.31640625,-1000.0,602.5390625,0.0,0,0
1772204010.0720398,1772204009.970614,421.875,812.5,955.078125,500.9765625,0.0,0,0
1772204010.07208,1772204009.974511,-902.34375,-540.52734375,229.4921875,-93.26171875,0.0,0,0
1772204010.07212,1772204009.9784076,-1000.0,-1000.0,631.8359375,-391.6015625,0.0,0,0
1772204010.072156,1772204009.9823046,-215.8203125,-180.17578125,-945.3125,36.62109375,0.0,0,0
1772204010.072193,1772204009.9862015,-878.41796875,-989.2578125,931.640625,513.18359375,0.0,0,0
1772204010.0722308,1772204009.9900985,662.59765625,-983.3984375,-964.35546875,510.7421875,0.0,0,0
1772204010.072268,1772204009.9939954,-725.5859375,-178.7109375,-72.265625,-66.40625,0.0,0,0
1772204010.072305,1772204009.9978924,-1000.0,-1000.0,236.81640625,-427.24609375,0.0,0,0
1772204010.0723891,1772204010.0017893,-200.68359375,-269.04296875,-887.6953125,-62.01171875,0.0,0,0
1772204010.0724428,1772204010.005686,-953.61328125,960.9375,886.23046875,434.08203125,0.0,0,0
