timestamp,lsl_timestamp,TP9,AF7,AF8,TP10,Right AUX,keypress_A,keypress_B
1771942313.111497,1771942313.0152326,-17.08984375,868.1640625,401.3671875,584.9609375,0.0,0,0
1771942313.111628,1771942313.0191329,-2.9296875,805.17578125,533.203125,986.328125,0.0,0,0
1771942313.111666,1771942313.023033,-36.62109375,-355.46875,-184.5703125,-85.9375,0.0,0,0
1771942313.111697,1771942313.0269332,-59.5703125,-985.83984375,-672.8515625,-1000.0,0.0,0,0
1771942313.111725,1771942313.0308335,-46.875,-325.68359375,-346.19140625,-726.07421875,0.0,0,0
1771942313.1117592,1771942313.0347335,-19.53125,742.67578125,354.4921875,430.6640625,0.0,0,0
1771942313.111787,1771942313.0386338,-9.27734375,925.29296875,575.68359375,-964.35546875,0.0,0,0
1771942313.111816,1771942313.042534,-28.80859375,-192.3828125,-82.51953125,52.24609375,0.0,0,0
1771942313.111844,1771942313.0464344,-44.921875,-1000.0,-619.62890625,-1000.0,0.0,0,0
1771942313.111872,1771942313.0503345,-40.0390625,-689.453125,-450.68359375,-844.23828125,0.0,0,0
1771942313.1118999,1771942313.0542347,-9.27734375,431.640625,277.34375,250.9765625,0.0,0,0
1771942313.111928,1771942313.058135,1.46484375,979.4921875,661.62109375,-931.640625,0.0,0,0
1771942313.1260219,1771942313.0621486,-38.57421875,-80.56640625,23.4375,261.71875,0.0,0,0
1771942313.126103,1771942313.0660486,-56.15234375,-1000.0,-632.8125,-909.1796875,0.0,0,0
1771942313.126146,1771942313.069949,-36.1328125,-653.80859375,-523.92578125,-926.26953125,0.0,0,0
1771942313.126185,1771942313.0738492,-5.37109375,378.41796875,192.3828125,155.76171875,0.0,0,0
1771942313.1262238,1771942313.0777495,4.39453125,995.1171875,585.44921875,-943.359375,0.0,0,0
1771942313.126261,1771942313.0816498,-10.7421875,224.609375,144.04296875,437.01171875,0.0,0,0
1771942313.126299,1771942313.0855498,-28.80859375,-941.40625,-543.9453125,-765.13671875,0.0,0,0
1771942313.126335,1771942313.0894501,-30.76171875,-805.6640625,-601.07421875,-1000.0,0.0,0,0
1771942313.126372,1771942313.0933504,-15.13671875,286.1328125,119.140625,63.4765625,0.0,0,0
1771942313.1264079,1771942313.0972507,-1.953125,995.60546875,583.984375,-964.84375,0.0,0,0
1771942313.126445,1771942313.101151,-5.859375,373.53515625,244.140625,605.95703125,0.0,0,0
1771942313.1264808,1771942313.105051,-30.76171875,-802.24609375,-473.14453125,-576.66015625,0.0,0,0
1771942313.171264,1771942313.1090486,-42.96875,-890.13671875,-661.62109375,-1000.0,0.0,0,0
1771942313.171365,1771942313.112949,-30.76171875,241.2109375,32.71484375,-47.36328125,0.0,0,0
1771942313.1714041,1771942313.1168492,-7.8125,-978.515625,552.734375,-997.0703125,0.0,0,0
1771942313.1714392,1771942313.1207492,-17.578125,547.36328125,337.890625,758.7890625,0.0,0,0
1771942313.171474,1771942313.1246495,-60.05859375,-610.83984375,-404.296875,-391.11328125,0.0,0,0
1771942313.17151,1771942313.1285498,-78.125,-956.0546875,-692.87109375,-1000.0,0.0,0,0
1771942313.171545,1771942313.13245,-46.38671875,94.23828125,-32.71484375,-177.24609375,0.0,0,0
1771942313.171581,1771942313.1363504,-14.16015625,-974.609375,558.59375,947.265625,0.0,0,0
1771942313.171648,1771942313.1402507,-20.5078125,650.87890625,426.7578125,852.05078125,0.0,0,0
1771942313.171684,1771942313.144151,-55.6640625,-525.87890625,-366.2109375,-269.04296875,0.0,0,0
1771942313.1717288,1771942313.148051,-64.453125,-854.00390625,-713.8671875,-1000.0,0.0,0,0
1771942313.1717608,1771942313.1519513,-31.25,107.91015625,-114.74609375,-318.359375,0.0,0,0
1771942313.2166028,1771942313.155939,-5.37109375,947.265625,465.8203125,819.3359375,0.0,0,0
1771942313.216682,1771942313.1598394,0.0,816.40625,492.1875,927.24609375,0.0,0,0
1771942313.2167199,1771942313.1637397,-31.73828125,-274.4140625,-225.09765625,-168.45703125,0.0,0,0
1771942313.216762,1771942313.16764,-54.19921875,-1000.0,-731.4453125,-1000.0,0.0,0,0
1771942313.21681,1771942313.1715403,-32.71484375,-238.28125,-286.62109375,-583.984375,0.0,0,0
1771942313.216848,1771942313.1754405,-3.90625,887.20703125,427.24609375,636.23046875,0.0,0,0
1771942313.216885,1771942313.1793408,4.8828125,791.9921875,523.92578125,961.9140625,0.0,0,0
1771942313.216925,1771942313.183241,-20.99609375,-336.42578125,-216.796875,-131.34765625,0.0,0,0
1771942313.216962,1771942313.1871412,-46.38671875,-973.14453125,-691.89453125,-1000.0,0.0,0,0
1771942313.2169979,1771942313.1910415,-51.7578125,-367.67578125,-360.3515625,-740.72265625,0.0,0,0
1771942313.217036,1771942313.1949418,-20.99609375,687.98828125,347.16796875,425.78125,0.0,0,0
1771942313.2170749,1771942313.198842,-8.30078125,925.29296875,597.16796875,-986.328125,0.0,0,0
1771942313.2614558,1771942313.2028189,-50.78125,-211.9140625,-114.74609375,-24.4140625,0.0,0,0
1771942313.26161,1771942313.2067192,-76.171875,-1000.0,-676.7578125,-1000.0,0.0,0,0
1771942313.261678,1771942313.2106194,-75.68359375,-511.71875,-441.40625,-827.1484375,0.0,0,0
1771942313.261742,1771942313.2145197,-52.734375,554.19921875,282.2265625,279.78515625,0.0,0,0
1771942313.261805,1771942313.21842,-26.3671875,966.30859375,617.67578125,-939.453125,0.0,0,0
1771942313.2618518,1771942313.2223203,-47.36328125,-48.828125,-3.41796875,198.2421875,0.0,0,0
1771942313.261895,1771942313.2262206,-76.171875,-1000.0,-640.625,-946.77734375,0.0,0,0
1771942313.2619362,1771942313.230121,-67.3828125,-750.9765625,-547.8515625,-907.2265625,0.0,0,0
1771942313.261981,1771942313.2340212,-38.0859375,399.4140625,200.68359375,187.01171875,0.0,0,0
1771942313.262026,1771942313.2379215,-25.390625,984.375,625.9765625,-936.03515625,0.0,0,0
1771942313.2620878,1771942313.2418218,-52.734375,118.65234375,127.9296875,400.390625,0.0,0,0
1771942313.262132,1771942313.245722,-83.49609375,-963.8671875,-570.3125,-804.19921875,0.0,0,0
1771942313.306666,1771942313.249686,-75.1953125,-830.078125,-608.88671875,-988.28125,0.0,0,0
1771942313.306794,1771942313.2535863,-23.92578125,218.75,122.55859375,81.0546875,0.0,0,0
1771942313.3068612,1771942313.2574866,10.25390625,-899.4140625,642.578125,-932.6171875,0.0,0,0
1771942313.306923,1771942313.2613869,-12.6953125,396.97265625,255.859375,632.8125,0.0,0,0
1771942313.306983,1771942313.2652872,-44.921875,-883.30078125,-517.08984375,-613.28125,0.0,0,0
1771942313.3070421,1771942313.2691875,-53.22265625,-794.921875,-631.8359375,-1000.0,0.0,0,0
1771942313.3070998,1771942313.2730877,-21.484375,204.1015625,55.17578125,26.3671875,0.0,0,0
1771942313.307162,1771942313.276988,4.8828125,-944.3359375,560.546875,-976.5625,0.0,0,0
1771942313.30722,1771942313.2808883,-7.32421875,613.28125,336.42578125,759.27734375,0.0,0,0
1771942313.307283,1771942313.2847886,-46.38671875,-703.125,-439.94140625,-427.24609375,0.0,0,0
1771942313.307331,1771942313.288689,-62.98828125,-919.43359375,-683.10546875,-1000.0,0.0,0,0
1771942313.3073752,1771942313.2925892,-34.66796875,201.66015625,1.46484375,-129.8828125,0.0,0,0
1771942313.366855,1771942313.2965434,-12.20703125,-980.46875,533.203125,953.125,0.0,0,0
1771942313.3670132,1771942313.3004436,-21.97265625,629.39453125,387.6953125,822.265625,0.0,0,0
1771942313.367092,1771942313.304344,-57.12890625,-514.16015625,-349.609375,-300.29296875,0.0,0,0
1771942313.367158,1771942313.3082442,-79.1015625,-983.3984375,-726.5625,-1000.0,0.0,0,0
1771942313.3672209,1771942313.3121445,-52.734375,27.34375,-115.72265625,-302.24609375,0.0,0,0
1771942313.367282,1771942313.3160448,-18.5546875,-984.86328125,563.96484375,857.421875,0.0,0,0
1771942313.367342,1771942313.319945,-17.08984375,706.54296875,524.4140625,911.62109375,0.0,0,0
1771942313.367403,1771942313.3238454,-47.8515625,-456.54296875,-290.0390625,-184.5703125,0.0,0,0
1771942313.367462,1771942313.3277457,-70.3125,-1000.0,-753.90625,-1000.0,0.0,0,0
1771942313.367518,1771942313.331646,-44.921875,-89.84375,-185.05859375,-468.75,0.0,0,0
1771942313.367574,1771942313.3355463,-18.06640625,941.40625,508.30078125,761.23046875,0.0,0,0
1771942313.367635,1771942313.3394465,-16.6015625,827.1484375,533.203125,980.95703125,0.0,0,0
1771942313.4115698,1771942313.343477,-49.8046875,-255.37109375,-215.33203125,-90.8203125,0.0,0,0
1771942313.4116921,1771942313.3473773,-70.3125,-1000.0,-732.91015625,-1000.0,0.0,0,0
1771942313.411741,1771942313.3512776,-51.26953125,-302.734375,-318.359375,-686.5234375,0.0,0,0
1771942313.412134,1771942313.3551779,-12.6953125,824.70703125,392.578125,494.62890625,0.0,0,0
1771942313.412183,1771942313.3590782,7.8125,915.52734375,567.3828125,-958.0078125,0.0,0,0
1771942313.412228,1771942313.3629785,-20.99609375,-165.52734375,-106.4453125,37.59765625,0.0,0,0
1771942313.412271,1771942313.3668787,-42.48046875,-1000.0,-663.0859375,-1000.0,0.0,0,0
1771942313.412311,1771942313.370779,-28.80859375,-549.31640625,-432.12890625,-782.2265625,0.0,0,0
1771942313.412354,1771942313.3746796,7.32421875,593.75,293.45703125,342.28515625,0.0,0,0
1771942313.412396,1771942313.3785799,20.99609375,953.125,592.7734375,-931.15234375,0.0,0,0
1771942313.412437,1771942313.3824801,6.34765625,-152.34375,-42.48046875,189.94140625,0.0,0,0
1771942313.41248,1771942313.3863804,-13.671875,-999.51171875,-621.09375,-957.51953125,0.0,0,0
1771942313.4563541,1771942313.3903992,-14.16015625,-551.26953125,-465.8203125,-871.09375,0.0,0,0
1771942313.4564621,1771942313.3942995,17.578125,458.0078125,220.21484375,212.40234375,0.0,0,0
1771942313.4565089,1771942313.3982,38.0859375,995.60546875,619.62890625,-920.8984375,0.0,0,0
1771942313.456556,1771942313.4021003,3.90625,-4.8828125,58.59375,386.71875,0.0,0,0
1771942313.456599,1771942313.4060006,-43.45703125,-1000.0,-616.2109375,-833.984375,0.0,0,0
1771942313.456643,1771942313.409901,-35.64453125,-571.77734375,-496.09375,-934.08203125,0.0,0,0
1771942313.4566872,1771942313.4138012,-12.20703125,403.80859375,195.3125,130.37109375,0.0,0,0
1771942313.4567308,1771942313.4177017,-7.32421875,-990.234375,574.70703125,-934.5703125,0.0,0,0
1771942313.4568021,1771942313.421602,-31.73828125,294.43359375,191.40625,597.16796875,0.0,0,0
1771942313.456852,1771942313.4255023,-61.03515625,-925.29296875,-530.2734375,-654.296875,0.0,0,0
1771942313.456904,1771942313.4294026,-60.05859375,-709.9609375,-583.0078125,-1000.0,0.0,0,0
1771942313.4569652,1771942313.433303,-35.64453125,342.28515625,136.23046875,39.55078125,0.0,0,0
1771942313.502367,1771942313.4373121,-18.5546875,-995.1171875,592.28515625,-973.14453125,0.0,0,0
1771942313.502513,1771942313.4412124,-27.83203125,445.3125,303.7109375,727.5390625,0.0,0,0
1771942313.5025752,1771942313.4451127,-58.10546875,-773.92578125,-437.98828125,-463.8671875,0.0,0,0
1771942313.502635,1771942313.449013,-73.73046875,-884.27734375,-670.41015625,-1000.0,0.0,0,0
1771942313.502752,1771942313.4529135,-41.50390625,262.20703125,54.6875,-65.4296875,0.0,0,0
1771942313.5028281,1771942313.4568138,-13.671875,959.47265625,587.40234375,988.76953125,0.0,0,0
1771942313.5028758,1771942313.460714,-21.484375,561.03515625,388.18359375,849.12109375,0.0,0,0
1771942313.502923,1771942313.4646146,-56.640625,-522.4609375,-351.5625,-281.25,0.0,0,0
1771942313.502968,1771942313.468515,-74.21875,-980.46875,-699.21875,-1000.0,0.0,0,0
1771942313.503009,1771942313.4724152,-50.29296875,107.421875,-69.82421875,-248.53515625,0.0,0,0
1771942313.503052,1771942313.4763155,-24.90234375,996.58203125,513.18359375,875.0,0.0,0,0
1771942313.503094,1771942313.480216,-17.578125,812.01171875,485.3515625,958.49609375,0.0,0,0
1771942313.546454,1771942313.4842122,-37.59765625,-309.08203125,-264.6484375,-139.16015625,0.0,0,0
1771942313.546685,1771942313.4881124,-65.91796875,-999.51171875,-708.984375,-1000.0,0.0,0,0
1771942313.546795,1771942313.492013,-53.22265625,-18.06640625,-158.69140625,-432.12890625,0.0,0,0
1771942313.546869,1771942313.4959133,-16.11328125,949.21875,473.14453125,731.4453125,0.0,0,0
1771942313.546941,1771942313.4998136,-12.20703125,843.75,529.296875,991.69921875,0.0,0,0
1771942313.5469902,1771942313.503714,-38.57421875,-188.96484375,-177.734375,-71.77734375,0.0,0,0
1771942313.547035,1771942313.5076144,-52.24609375,-1000.0,-694.3359375,-1000.0,0.0,0,0
1771942313.547078,1771942313.511515,-40.0390625,-235.3515625,-261.71875,-620.1171875,0.0,0,0
1771942313.547122,1771942313.5154152,-13.671875,916.015625,446.77734375,588.37890625,0.0,0,0
1771942313.5471659,1771942313.5193155,-0.48828125,809.08203125,542.96875,991.2109375,0.0,0,0
1771942313.547209,1771942313.523216,-32.71484375,-292.48046875,-157.2265625,-62.01171875,0.0,0,0
1771942313.547252,1771942313.5271163,-62.5,-1000.0,-676.26953125,-1000.0,0.0,0,0
1771942313.591321,1771942313.5311012,-55.6640625,-470.703125,-393.06640625,-814.453125,0.0,0,0
1771942313.591415,1771942313.5350018,-29.296875,664.55078125,330.078125,336.9140625,0.0,0,0
1771942313.5914612,1771942313.538902,-18.06640625,-991.69921875,616.2109375,-932.6171875,0.0,0,0
1771942313.591506,1771942313.5428026,-48.828125,-133.30078125,-56.15234375,103.02734375,0.0,0,0
1771942313.591549,1771942313.5467029,-70.3125,-995.1171875,-633.30078125,-995.1171875,0.0,0,0
1771942313.591591,1771942313.5506032,-60.546875,-438.96484375,-403.80859375,-884.765625,0.0,0,0
1771942313.5916429,1771942313.5545037,-36.1328125,516.11328125,261.71875,198.73046875,0.0,0,0
1771942313.591685,1771942313.558404,-18.5546875,977.5390625,592.7734375,-939.94140625,0.0,0,0
1771942313.591729,1771942313.5623045,-45.41015625,21.97265625,58.59375,278.80859375,0.0,0,0
1771942313.5917811,1771942313.5662048,-68.84765625,-1000.0,-608.3984375,-887.6953125,0.0,0,0
1771942313.5918221,1771942313.570105,-57.6171875,-606.93359375,-531.73828125,-947.75390625,0.0,0,0
1771942313.591866,1771942313.5740056,-24.90234375,506.34765625,214.35546875,130.37109375,0.0,0,0
1771942313.637086,1771942313.5779793,1.46484375,-982.91015625,623.046875,-952.63671875,0.0,0,0
1771942313.6372108,1771942313.5818799,-14.16015625,180.17578125,166.015625,457.51953125,0.0,0,0
1771942313.637276,1771942313.5857801,-37.109375,-970.703125,-521.484375,-723.14453125,0.0,0,0
1771942313.637336,1771942313.5896804,-46.38671875,-841.796875,-597.65625,-1000.0,0.0,0,0
1771942313.637399,1771942313.593581,-27.34375,249.51171875,115.234375,-0.9765625,0.0,0,0
1771942313.637459,1771942313.5974813,-6.34765625,-961.42578125,647.94921875,-961.9140625,0.0,0,0
1771942313.637517,1771942313.6013818,-22.4609375,331.0546875,287.59765625,623.046875,0.0,0,0
1771942313.637577,1771942313.605282,-54.19921875,-856.4453125,-488.28125,-572.265625,0.0,0,0
1771942313.6376472,1771942313.6091826,-56.640625,-882.8125,-651.85546875,-1000.0,0.0,0,0
1771942313.637717,1771942313.613083,-29.78515625,191.40625,32.71484375,-87.40234375,0.0,0,0
1771942313.637793,1771942313.6169834,-4.39453125,-998.046875,591.796875,993.1640625,0.0,0,0
1771942313.63785,1771942313.6208837,-5.859375,522.4609375,391.6015625,786.62109375,0.0,0,0
1771942313.711321,1771942313.625017,-42.48046875,-641.6015625,-396.484375,-367.1875,0.0,0,0
1771942313.711442,1771942313.6289172,-54.6875,-867.67578125,-671.875,-1000.0,0.0,0,0
1771942313.711479,1771942313.6328177,-17.578125,216.30859375,-13.18359375,-184.08203125,0.0,0,0
1771942313.711514,1771942313.6367183,12.20703125,995.60546875,514.6484375,918.45703125,0.0,0,0
1771942313.7115479,1771942313.6406186,3.41796875,716.30859375,412.109375,888.671875,0.0,0,0
1771942313.711586,1771942313.644519,-24.90234375,-402.83203125,-293.9453125,-212.890625,0.0,0,0
1771942313.711627,1771942313.6484196,-37.109375,-997.0703125,-696.77734375,-1000.0,0.0,0,0
1771942313.711673,1771942313.65232,-16.6015625,-12.6953125,-150.390625,-397.4609375,0.0,0,0
1771942313.7117288,1771942313.6562204,0.48828125,979.4921875,466.796875,786.1328125,0.0,0,0
1771942313.711776,1771942313.6601207,2.9296875,797.36328125,482.91015625,961.42578125,0.0,0,0
1771942313.711814,1771942313.6640213,-28.3203125,-284.1796875,-220.703125,-121.58203125,0.0,0,0
1771942313.7118652,1771942313.6679218,-50.29296875,-991.69921875,-693.84765625,-1000.0,0.0,0,0
1771942313.740274,1771942313.671878,-23.92578125,-214.35546875,-249.51171875,-588.37890625,0.0,0,0
1771942313.7404008,1771942313.6757784,4.39453125,870.1171875,422.36328125,615.234375,0.0,0,0
1771942313.740468,1771942313.679679,1.46484375,928.22265625,560.05859375,-995.60546875,0.0,0,0
1771942313.740532,1771942313.6835794,-31.73828125,-270.99609375,-170.8984375,-74.21875,0.0,0,0
1771942313.740575,1771942313.6874797,-57.6171875,-884.27734375,-662.109375,-1000.0,0.0,0,0
1771942313.740618,1771942313.6913803,-32.71484375,-187.01171875,-296.875,-753.41796875,0.0,0,0
1771942313.740896,1771942313.6952808,11.71875,679.6875,327.63671875,380.37109375,0.0,0,0
1771942313.7409432,1771942313.699181,23.4375,928.22265625,542.96875,-963.37890625,0.0,0,0
1771942313.740986,1771942313.7030816,-7.32421875,-166.50390625,-87.40234375,40.52734375,0.0,0,0
1771942313.741052,1771942313.706982,-27.83203125,-1000.0,-646.484375,-1000.0,0.0,0,0
1771942313.7410922,1771942313.7108824,-12.6953125,-486.81640625,-404.78515625,-857.91015625,0.0,0,0
1771942313.7411368,1771942313.714783,3.41796875,625.9765625,314.94140625,253.90625,0.0,0,0
1771942313.7864351,1771942313.7187235,7.32421875,938.4765625,611.328125,-943.84765625,0.0,0,0
1771942313.786564,1771942313.722624,-3.90625,-87.890625,13.671875,223.14453125,0.0,0,0
1771942313.7866108,1771942313.7265244,-27.34375,-995.60546875,-567.87109375,-913.57421875,0.0,0,0
1771942313.786657,1771942313.730425,-24.4140625,-679.19921875,-484.375,-957.51953125,0.0,0,0
1771942313.7867022,1771942313.7343254,3.41796875,354.4921875,181.640625,114.74609375,0.0,0,0
1771942313.786746,1771942313.7382257,15.625,969.7265625,631.8359375,-951.171875,0.0,0,0
1771942313.7867908,1771942313.7421262,3.41796875,9.765625,124.0234375,359.375,0.0,0,0
1771942313.7868412,1771942313.7460268,-14.6484375,-986.81640625,-544.921875,-803.7109375,0.0,0,0
1771942313.7869031,1771942313.749927,-12.20703125,-780.2734375,-536.62109375,-1000.0,0.0,0,0
1771942313.786965,1771942313.7538276,20.99609375,223.6328125,130.859375,2.9296875,0.0,0,0
1771942313.787026,1771942313.757728,37.109375,-951.66015625,617.1875,-957.51953125,0.0,0,0
1771942313.7870688,1771942313.7616284,26.85546875,397.4609375,263.671875,604.4921875,0.0,0,0
1771942313.8315709,1771942313.765644,-8.30078125,-851.07421875,-481.93359375,-603.02734375,0.0,0,0
1771942313.831699,1771942313.7695446,-33.69140625,-902.83203125,-630.859375,-1000.0,0.0,0,0
1771942313.8317618,1771942313.7734451,0.0,208.984375,88.37890625,-39.0625,0.0,0,0
1771942313.8318222,1771942313.7773457,26.85546875,-982.421875,610.3515625,-989.2578125,0.0,0,0
1771942313.831881,1771942313.781246,30.2734375,595.21484375,372.0703125,768.06640625,0.0,0,0
1771942313.8319402,1771942313.7851465,0.9765625,-578.125,-381.8359375,-388.671875,0.0,0,0
1771942313.831999,1771942313.789047,-27.34375,-961.9140625,-681.15234375,-1000.0,0.0,0,0
1771942313.8320682,1771942313.7929475,-9.27734375,155.2734375,-6.8359375,-170.8984375,0.0,0,0
1771942313.832126,1771942313.796848,11.23046875,-982.421875,562.98828125,938.96484375,0.0,0,0
1771942313.8321831,1771942313.8007483,2.9296875,544.921875,412.59765625,863.76953125,0.0,0,0
1771942313.8322408,1771942313.8046489,-23.4375,-570.80078125,-318.84765625,-257.8125,0.0,0,0
1771942313.832292,1771942313.8085494,-29.296875,-964.84375,-664.55078125,-1000.0,0.0,0,0
1771942313.876482,1771942313.8125536,-23.92578125,-15.13671875,-104.00390625,-340.8203125,0.0,0,0
1771942313.87658,1771942313.816454,-24.90234375,970.703125,505.859375,824.21875,0.0,0,0
1771942313.8766232,1771942313.8203545,-35.15625,790.52734375,496.58203125,938.96484375,0.0,0,0
1771942313.8766668,1771942313.824255,-66.89453125,-325.68359375,-230.46875,-151.85546875,0.0,0,0
1771942313.876711,1771942313.8281555,-90.33203125,-1000.0,-684.5703125,-1000.0,0.0,0,0
1771942313.876752,1771942313.832056,-58.59375,-92.28515625,-187.01171875,-550.78125,0.0,0,0
1771942313.876802,1771942313.8359566,-23.4375,926.26953125,470.703125,656.73828125,0.0,0,0
1771942313.876854,1771942313.8398569,-22.94921875,816.40625,547.36328125,973.6328125,0.0,0,0
1771942313.876915,1771942313.8437574,-45.8984375,-267.578125,-183.10546875,-105.46875,0.0,0,0
1771942313.876961,1771942313.847658,-70.80078125,-991.69921875,-665.52734375,-1000.0,0.0,0,0
1771942313.877003,1771942313.8515584,-50.29296875,-295.8984375,-272.4609375,-727.5390625,0.0,0,0
1771942313.8770728,1771942313.855459,-4.39453125,772.4609375,398.4375,444.82421875,0.0,0,0
1771942313.922084,1771942313.859452,5.859375,916.015625,584.9609375,-972.16796875,0.0,0,0
1771942313.922217,1771942313.8633525,-26.3671875,-201.66015625,-96.19140625,1.46484375,0.0,0,0
1771942313.922286,1771942313.867253,-57.12890625,-1000.0,-632.8125,-1000.0,0.0,0,0
1771942313.922345,1771942313.8711536,-51.26953125,-511.23046875,-398.92578125,-812.01171875,0.0,0,0
1771942313.92241,1771942313.8750541,-29.296875,584.47265625,337.40234375,300.29296875,0.0,0,0
1771942313.9224699,1771942313.8789546,-25.87890625,913.57421875,658.69140625,-937.98828125,0.0,0,0
1771942313.92253,1771942313.8828552,-47.36328125,-223.6328125,-29.296875,172.36328125,0.0,0,0
1771942313.9225888,1771942313.8867555,-73.2421875,-1000.0,-613.28125,-959.47265625,0.0,0,0
1771942313.9226649,1771942313.890656,-72.75390625,-664.55078125,-461.42578125,-892.08984375,0.0,0,0
1771942313.9227378,1771942313.8945565,-39.55078125,370.60546875,250.48828125,187.01171875,0.0,0,0
1771942313.922815,1771942313.898457,-9.765625,-925.29296875,691.89453125,-905.2734375,0.0,0,0
1771942313.9228952,1771942313.9023576,-22.94921875,78.125,121.09375,404.296875,0.0,0,0
1771942313.966531,1771942313.9063401,-63.96484375,-1000.0,-564.453125,-833.0078125,0.0,0,0
1771942313.966672,1771942313.9102404,-61.03515625,-814.453125,-527.34375,-984.86328125,0.0,0,0
1771942313.966739,1771942313.914141,-22.94921875,219.23828125,183.10546875,83.49609375,0.0,0,0
1771942313.96687,1771942313.9180415,-10.25390625,-963.8671875,640.13671875,-944.82421875,0.0,0,0
1771942313.966938,1771942313.921942,-25.87890625,319.3359375,229.98046875,551.26953125,0.0,0,0
1771942313.966999,1771942313.9258425,-49.8046875,-871.58203125,-490.234375,-660.64453125,0.0,0,0
1771942313.967059,1771942313.929743,-55.17578125,-955.56640625,-632.32421875,-1000.0,0.0,0,0
1771942313.967117,1771942313.9336436,-26.3671875,136.23046875,80.078125,-7.8125,0.0,0,0
1771942313.9671738,1771942313.937544,0.0,-943.359375,617.1875,-969.23828125,0.0,0,0
1771942313.967236,1771942313.9414446,-12.6953125,424.31640625,323.2421875,707.03125,0.0,0,0
1771942313.967298,1771942313.9453452,-52.734375,-809.5703125,-436.5234375,-477.5390625,0.0,0,0
1771942313.967374,1771942313.9492457,-63.4765625,-870.60546875,-631.8359375,-1000.0,0.0,0,0
1771942314.0126,1771942313.9532244,-33.203125,264.16015625,73.73046875,-94.7265625,0.0,0,0
1771942314.01277,1771942313.957125,2.9296875,974.609375,571.2890625,975.09765625,0.0,0,0
1771942314.012846,1771942313.9610255,0.9765625,635.25390625,404.296875,850.09765625,0.0,0,0
1771942314.0129092,1771942313.964926,-41.015625,-482.421875,-316.40625,-278.3203125,0.0,0,0
1771942314.0129678,1771942313.9688265,-58.59375,-945.3125,-667.96875,-1000.0,0.0,0,0
1771942314.013026,1771942313.972727,-32.2265625,185.546875,-17.08984375,-259.27734375,0.0,0,0
1771942314.013092,1771942313.9766276,0.48828125,-981.93359375,524.4140625,873.53515625,0.0,0,0
1771942314.0131571,1771942313.980528,6.8359375,737.79296875,453.61328125,939.94140625,0.0,0,0
1771942314.013234,1771942313.9844286,-36.1328125,-373.046875,-257.32421875,-150.87890625,0.0,0,0
1771942314.013334,1771942313.9883292,-65.4296875,-1000.0,-731.4453125,-1000.0,0.0,0,0
1771942314.01339,1771942313.9922297,-50.78125,-97.16796875,-179.19921875,-484.375,0.0,0,0
1771942314.013452,1771942313.9961302,-24.4140625,984.86328125,474.12109375,717.28515625,0.0,0,0
1771942314.057077,1771942314.000092,-15.625,863.28125,517.08984375,977.5390625,0.0,0,0
1771942314.057227,1771942314.0039926,-54.6875,-193.84765625,-198.73046875,-93.26171875,0.0,0,0
1771942314.0572941,1771942314.007893,-79.1015625,-962.40234375,-688.4765625,-1000.0,0.0,0,0
1771942314.057354,1771942314.0117936,-59.08203125,-250.48828125,-276.85546875,-661.62109375,0.0,0,0
1771942314.057415,1771942314.0156941,-26.3671875,810.05859375,395.01953125,530.2734375,0.0,0,0
1771942314.0574799,1771942314.0195947,-11.23046875,953.125,593.26171875,-960.9375,0.0,0,0
1771942314.057523,1771942314.0234952,-38.0859375,-185.546875,-130.859375,-7.8125,0.0,0,0
1771942314.057564,1771942314.0273957,-59.5703125,-1000.0,-671.875,-1000.0,0.0,0,0
1771942314.057606,1771942314.0312965,-37.109375,-409.66796875,-358.88671875,-791.50390625,0.0,0,0
1771942314.057664,1771942314.035197,2.9296875,671.875,342.28515625,351.07421875,0.0,0,0
1771942314.057935,1771942314.0390975,3.90625,982.421875,628.41796875,-944.3359375,0.0,0,0
1771942314.057981,1771942314.042998,-22.4609375,-192.87109375,-61.5234375,99.12109375,0.0,0,0
1771942314.114641,1771942314.0469475,-36.62109375,-1000.0,-637.6953125,-991.69921875,0.0,0,0
1771942314.114707,1771942314.050848,-42.96875,-583.984375,-444.82421875,-887.20703125,0.0,0,0
1771942314.114732,1771942314.0547485,-13.671875,437.98828125,241.2109375,201.66015625,0.0,0,0
1771942314.114754,1771942314.058649,5.859375,-994.140625,612.79296875,-922.8515625,0.0,0,0
1771942314.1147761,1771942314.0625496,-10.25390625,-1.953125,68.84765625,342.28515625,0.0,0,0
1771942314.114796,1771942314.06645,-31.25,-1000.0,-548.828125,-846.19140625,0.0,0,0
1771942314.114816,1771942314.0703506,-38.57421875,-865.72265625,-548.33984375,-1000.0,0.0,0,0
1771942314.114836,1771942314.0742512,-20.99609375,228.02734375,149.90234375,67.3828125,0.0,0,0
1771942314.114856,1771942314.0781517,1.953125,-924.31640625,632.32421875,-930.17578125,0.0,0,0
1771942314.1148758,1771942314.0820522,-13.18359375,226.5625,179.6875,482.91015625,0.0,0,0
1771942314.114895,1771942314.0859528,-45.41015625,-958.984375,-500.0,-736.81640625,0.0,0,0
1771942314.114914,1771942314.0898533,-60.546875,-816.40625,-559.5703125,-1000.0,0.0,0,0
1771942314.161072,1771942314.0938752,-28.80859375,249.51171875,122.55859375,20.99609375,0.0,0,0
1771942314.161139,1771942314.0977757,5.859375,986.81640625,634.27734375,-962.40234375,0.0,0,0
1771942314.161155,1771942314.1016762,-20.5078125,294.921875,264.16015625,662.59765625,0.0,0,0
1771942314.16117,1771942314.1055768,-56.640625,-847.65625,-459.9609375,-533.69140625,0.0,0,0
1771942314.161185,1771942314.1094775,-50.78125,-818.359375,-566.89453125,-1000.0,0.0,0,0
1771942314.161199,1771942314.113378,-15.13671875,323.73046875,114.74609375,-50.29296875,0.0,0,0
1771942314.161213,1771942314.1172786,15.625,-976.5625,574.21875,996.09375,0.0,0,0
1771942314.161227,1771942314.121179,14.6484375,565.4296875,365.234375,797.36328125,0.0,0,0
1771942314.16124,1771942314.1250796,-11.71875,-598.14453125,-336.9140625,-346.19140625,0.0,0,0
1771942314.161254,1771942314.1289802,-19.04296875,-986.81640625,-648.4375,-1000.0,0.0,0,0
1771942314.161267,1771942314.1328807,4.8828125,126.46484375,-7.8125,-208.0078125,0.0,0,0
1771942314.161281,1771942314.1367815,30.2734375,-973.6328125,571.77734375,918.9453125,0.0,0,0
1771942314.206027,1771942314.140791,34.1796875,737.79296875,479.4921875,905.76171875,0.0,0,0
1771942314.206068,1771942314.1446915,-0.48828125,-407.71484375,-284.1796875,-197.265625,0.0,0,0
1771942314.206089,1771942314.1485922,-30.2734375,-978.02734375,-696.2890625,-1000.0,0.0,0,0
1771942314.206107,1771942314.1524928,-4.39453125,28.80859375,-92.7734375,-401.3671875,0.0,0,0
1771942314.206126,1771942314.1563933,29.78515625,-997.0703125,546.38671875,783.203125,0.0,0,0
1771942314.206144,1771942314.1602938,20.01953125,708.0078125,508.7890625,952.1484375,0.0,0,0
1771942314.206162,1771942314.1641943,-18.06640625,-410.64453125,-252.44140625,-136.71875,0.0,0,0
1771942314.20618,1771942314.168095,-49.8046875,-948.73046875,-685.05859375,-1000.0,0.0,0,0
1771942314.206198,1771942314.1719956,-43.45703125,-184.5703125,-236.328125,-574.21875,0.0,0,0
1771942314.206215,1771942314.1758962,-1.953125,868.65234375,461.9140625,614.2578125,0.0,0,0
1771942314.206233,1771942314.1797967,9.27734375,933.10546875,622.55859375,-994.140625,0.0,0,0
1771942314.2062972,1771942314.1836975,-30.2734375,-226.07421875,-113.28125,-59.08203125,0.0,0,0
1771942314.250933,1771942314.187697,-69.82421875,-1000.0,-637.6953125,-1000.0,0.0,0,0
1771942314.250962,1771942314.1915975,-56.640625,-456.0546875,-320.3125,-802.24609375,0.0,0,0
1771942314.250983,1771942314.195498,-8.7890625,691.89453125,387.6953125,378.41796875,0.0,0,0
1771942314.251004,1771942314.1993988,-16.11328125,927.734375,618.65234375,-950.1953125,0.0,0,0
1771942314.2510238,1771942314.2032993,-61.03515625,-207.03125,-67.87109375,44.43359375,0.0,0,0
1771942314.251044,1771942314.2071998,-81.54296875,-1000.0,-618.1640625,-1000.0,0.0,0,0
1771942314.251063,1771942314.2111006,-71.2890625,-642.08984375,-422.8515625,-888.18359375,0.0,0,0
1771942314.251083,1771942314.215001,-28.3203125,506.8359375,298.828125,220.21484375,0.0,0,0
1771942314.251105,1771942314.2189016,7.32421875,988.28125,652.83203125,-923.33984375,0.0,0,0
1771942314.251125,1771942314.2228022,-17.578125,-116.2109375,37.109375,230.46875,0.0,0,0
1771942314.251144,1771942314.226703,-55.6640625,-1000.0,-552.24609375,-924.31640625,0.0,0,0
1771942314.251164,1771942314.2306035,-63.96484375,-669.921875,-457.03125,-944.3359375,0.0,0,0
1771942314.31127,1771942314.2346811,-40.0390625,380.37109375,233.88671875,134.765625,0.0,0,0
1771942314.311321,1771942314.2385817,-18.06640625,950.68359375,633.7890625,-954.58984375,0.0,0,0
1771942314.311351,1771942314.2424824,-41.015625,9.765625,122.0703125,363.76953125,0.0,0,0
1771942314.311381,1771942314.246383,-59.08203125,-986.81640625,-530.2734375,-792.48046875,0.0,0,0
1771942314.311411,1771942314.2502835,-56.15234375,-768.06640625,-545.41015625,-1000.0,0.0,0,0
1771942314.311439,1771942314.2541842,-38.57421875,298.33984375,169.43359375,15.13671875,0.0,0,0
1771942314.311467,1771942314.2580848,-7.8125,-990.72265625,644.04296875,-954.1015625,0.0,0,0
1771942314.311496,1771942314.2619855,-19.04296875,286.62109375,240.72265625,580.56640625,0.0,0,0
1771942314.3115242,1771942314.265886,-59.5703125,-882.32421875,-495.1171875,-619.62890625,0.0,0,0
1771942314.311552,1771942314.2697868,-58.10546875,-867.67578125,-629.39453125,-1000.0,0.0,0,0
1771942314.31158,1771942314.2736874,-18.06640625,264.16015625,127.44140625,-42.48046875,0.0,0,0
1771942314.311608,1771942314.277588,-1.46484375,953.61328125,631.34765625,-986.81640625,0.0,0,0
1771942314.341433,1771942314.2815716,-16.6015625,488.28125,343.75,765.13671875,0.0,0,0
1771942314.341535,1771942314.2854722,-58.59375,-604.98046875,-397.94921875,-383.7890625,0.0,0,0
1771942314.341572,1771942314.289373,-75.1953125,-964.35546875,-681.640625,-1000.0,0.0,0,0
1771942314.341614,1771942314.2932734,-63.4765625,151.3671875,13.18359375,-197.75390625,0.0,0,0
1771942314.3416479,1771942314.2971742,-41.50390625,-982.421875,566.89453125,933.59375,0.0,0,0
1771942314.341682,1771942314.3010747,-29.78515625,784.66796875,469.7265625,887.20703125,0.0,0,0
1771942314.3417149,1771942314.3049753,-59.5703125,-406.25,-292.96875,-232.421875,0.0,0,0
1771942314.341748,1771942314.308876,-78.125,-988.76953125,-727.5390625,-1000.0,0.0,0,0
1771942314.34178,1771942314.3127766,-53.22265625,64.453125,-99.609375,-376.953125,0.0,0,0
1771942314.341815,1771942314.3166773,-27.83203125,983.3984375,518.5546875,809.08203125,0.0,0,0
1771942314.34185,1771942314.3205779,-24.4140625,812.01171875,499.0234375,941.89453125,0.0,0,0
1771942314.3418849,1771942314.3244786,-57.12890625,-308.59375,-222.16796875,-160.15625,0.0,0,0
1771942314.4001548,1771942314.3284497,-85.9375,-953.61328125,-662.59765625,-1000.0,0.0,0,0
1771942314.400311,1771942314.3323503,-71.2890625,-72.75390625,-188.96484375,-548.828125,0.0,0,0
1771942314.40038,1771942314.336251,-39.55078125,894.04296875,428.22265625,637.20703125,0.0,0,0
1771942314.4004438,1771942314.3401515,-31.73828125,852.05078125,515.13671875,-998.046875,0.0,0,0
1771942314.400504,1771942314.3440523,-54.6875,-238.28125,-184.5703125,-62.98828125,0.0,0,0
1771942314.400565,1771942314.3479528,-64.453125,-1000.0,-666.50390625,-1000.0,0.0,0,0
1771942314.400623,1771942314.3518536,-52.734375,-411.1328125,-332.03125,-684.08203125,0.0,0,0
1771942314.4006941,1771942314.3557541,-33.69140625,710.9375,362.3046875,482.421875,0.0,0,0
1771942314.400754,1771942314.359655,-23.92578125,979.00390625,615.234375,-937.01171875,0.0,0,0
1771942314.400815,1771942314.3635554,-46.875,-135.25390625,-85.9375,67.3828125,0.0,0,0
1771942314.400873,1771942314.3674562,-67.87109375,-1000.0,-657.71484375,-1000.0,0.0,0,0
1771942314.4009311,1771942314.3713567,-49.31640625,-601.5625,-422.8515625,-810.05859375,0.0,0,0
1771942314.432176,1771942314.3753161,-11.71875,533.69140625,285.15625,303.22265625,0.0,0,0
1771942314.432333,1771942314.3792167,5.37109375,976.07421875,621.09375,-933.59375,0.0,0,0
1771942314.432642,1771942314.3831174,-18.5546875,-127.9296875,-13.18359375,187.98828125,0.0,0,0
1771942314.432711,1771942314.387018,-47.36328125,-1000.0,-614.74609375,-953.61328125,0.0,0,0
1771942314.43277,1771942314.3909187,-46.875,-510.7421875,-465.8203125,-911.62109375,0.0,0,0
1771942314.432831,1771942314.3948193,-14.6484375,511.23046875,247.55859375,172.8515625,0.0,0,0
1771942314.4328902,1771942314.39872,7.8125,929.6875,610.3515625,-934.08203125,0.0,0,0
1771942314.43295,1771942314.4026206,-34.1796875,-0.9765625,71.2890625,389.16015625,0.0,0,0
1771942314.433007,1771942314.4065213,-85.44921875,-974.12109375,-555.17578125,-812.01171875,0.0,0,0
1771942314.433068,1771942314.410422,-86.9140625,-762.6953125,-543.9453125,-979.4921875,0.0,0,0
1771942314.433126,1771942314.4143226,-59.08203125,259.765625,164.55078125,91.30859375,0.0,0,0
1771942314.433186,1771942314.4182234,-39.55078125,-970.21484375,645.01953125,-939.94140625,0.0,0,0
1771942314.490873,1771942314.422172,-48.33984375,320.80078125,244.140625,600.5859375,0.0,0,0
1771942314.491015,1771942314.4260726,-74.70703125,-881.8359375,-482.421875,-624.0234375,0.0,0,0
1771942314.491082,1771942314.4299734,-84.9609375,-830.56640625,-604.98046875,-1000.0,0.0,0,0
1771942314.4911418,1771942314.4338741,-53.22265625,220.703125,111.81640625,-13.18359375,0.0,0,0
1771942314.491201,1771942314.4377747,-32.71484375,-958.0078125,615.234375,-968.75,0.0,0,0
1771942314.4912589,1771942314.4416754,-37.59765625,556.640625,339.84375,733.88671875,0.0,0,0
1771942314.491317,1771942314.445576,-55.6640625,-749.0234375,-441.89453125,-465.33203125,0.0,0,0
1771942314.4913762,1771942314.4494767,-62.5,-851.07421875,-642.578125,-1000.0,0.0,0,0
1771942314.491431,1771942314.4533772,-23.92578125,258.7890625,65.4296875,-123.53515625,0.0,0,0
1771942314.491501,1771942314.457278,17.08984375,-972.65625,560.05859375,963.8671875,0.0,0,0
1771942314.491561,1771942314.4611788,19.04296875,718.75,415.52734375,860.83984375,0.0,0,0
1771942314.4916182,1771942314.4650793,-9.765625,-516.6015625,-347.16796875,-279.78515625,0.0,0,0
1771942314.535968,1771942314.4690976,-28.3203125,-959.9609375,-704.58984375,-1000.0,0.0,0,0
1771942314.536026,1771942314.4729981,-1.46484375,86.9140625,-73.73046875,-277.34375,0.0,0,0
1771942314.536057,1771942314.476899,27.34375,-999.51171875,533.69140625,861.328125,0.0,0,0
1771942314.536087,1771942314.4807997,19.04296875,746.09375,479.4921875,947.265625,0.0,0,0
1771942314.536115,1771942314.4847002,-20.99609375,-406.25,-264.16015625,-150.390625,0.0,0,0
1771942314.5361438,1771942314.488601,-57.12890625,-953.61328125,-651.85546875,-1000.0,0.0,0,0
1771942314.536172,1771942314.4925017,-45.8984375,-99.12109375,-154.78515625,-477.5390625,0.0,0,0
1771942314.5362,1771942314.4964023,-21.97265625,909.1796875,455.078125,700.68359375,0.0,0,0
1771942314.5362282,1771942314.500303,-16.6015625,837.890625,533.203125,996.58203125,0.0,0,0
1771942314.536256,1771942314.5042038,-39.0625,-281.73828125,-209.9609375,-83.49609375,0.0,0,0
1771942314.536285,1771942314.5081043,-66.40625,-980.46875,-670.41015625,-1000.0,0.0,0,0
1771942314.536313,1771942314.512005,-54.19921875,-263.671875,-244.140625,-639.6484375,0.0,0,0
1771942314.610819,1771942314.5161762,-23.4375,810.546875,399.4140625,528.3203125,0.0,0,0
1771942314.610854,1771942314.5200768,-10.7421875,856.4453125,549.8046875,-980.95703125,0.0,0,0
1771942314.6108658,1771942314.5239775,-31.73828125,-244.140625,-115.234375,-10.7421875,0.0,0,0
1771942314.610877,1771942314.5278783,-54.19921875,-1000.0,-629.8828125,-1000.0,0.0,0,0
1771942314.610888,1771942314.531779,-39.0625,-419.43359375,-351.07421875,-749.0234375,0.0,0,0
1771942314.610899,1771942314.5356798,-13.18359375,706.0546875,353.02734375,378.90625,0.0,0,0
1771942314.61091,1771942314.5395806,4.39453125,974.12109375,611.328125,-919.921875,0.0,0,0
1771942314.610921,1771942314.543481,-19.04296875,-125.48828125,-48.828125,172.8515625,0.0,0,0
1771942314.6109319,1771942314.5473819,-57.6171875,-1000.0,-625.0,-976.5625,0.0,0,0
1771942314.610942,1771942314.5512826,-59.5703125,-656.25,-442.87109375,-879.8828125,0.0,0,0
1771942314.6109529,1771942314.5551834,-35.64453125,432.6171875,275.87890625,213.37890625,0.0,0,0
1771942314.610964,1771942314.5590842,-8.30078125,-985.3515625,655.2734375,-916.50390625,0.0,0,0
1771942314.62581,1771942314.563085,-11.71875,0.9765625,75.68359375,349.12109375,0.0,0,0
1771942314.625847,1771942314.5669858,-32.2265625,-1000.0,-587.40234375,-860.83984375,0.0,0,0
1771942314.6258602,1771942314.5708866,-32.71484375,-710.44921875,-524.4140625,-958.49609375,0.0,0,0
1771942314.6258712,1771942314.5747874,-16.6015625,372.55859375,217.28515625,129.8828125,0.0,0,0
1771942314.6258812,1771942314.5786881,-14.16015625,-993.1640625,626.953125,-956.54296875,0.0,0,0
1771942314.6258922,1771942314.582589,-19.04296875,235.83984375,202.63671875,501.953125,0.0,0,0
1771942314.6259022,1771942314.5864897,-41.9921875,-920.41015625,-480.95703125,-686.03515625,0.0,0,0
1771942314.625912,1771942314.5903904,-50.78125,-875.9765625,-604.98046875,-1000.0,0.0,0,0
1771942314.625922,1771942314.594291,-7.32421875,230.95703125,126.953125,37.109375,0.0,0,0
1771942314.625932,1771942314.5981917,21.484375,-995.1171875,617.1875,-962.890625,0.0,0,0
1771942314.625943,1771942314.6020925,9.27734375,408.203125,295.41015625,684.08203125,0.0,0,0
1771942314.625953,1771942314.6059933,-32.2265625,-786.1328125,-440.91796875,-504.39453125,0.0,0,0
1771942314.670902,1771942314.6099784,-58.10546875,-850.09765625,-626.953125,-1000.0,0.0,0,0
1771942314.670937,1771942314.6138792,-37.109375,286.62109375,80.56640625,-69.82421875,0.0,0,0
1771942314.670948,1771942314.61778,-8.7890625,-970.703125,584.47265625,993.65234375,0.0,0,0
1771942314.670959,1771942314.6216807,-6.8359375,698.2421875,416.015625,814.94140625,0.0,0,0
1771942314.670969,1771942314.6255815,-40.0390625,-505.37109375,-330.078125,-327.63671875,0.0,0,0
1771942314.6709802,1771942314.6294823,-59.08203125,-892.08984375,-626.953125,-1000.0,0.0,0,0
1771942314.67099,1771942314.6333828,-34.66796875,132.8125,-8.7890625,-240.234375,0.0,0,0
1771942314.671,1771942314.6372836,-6.34765625,-989.74609375,553.7109375,883.7890625,0.0,0,0
1771942314.671011,1771942314.6411843,-9.765625,742.67578125,503.90625,898.92578125,0.0,0,0
1771942314.671021,1771942314.645085,-45.8984375,-497.0703125,-308.59375,-230.46875,0.0,0,0
1771942314.671031,1771942314.6489859,-60.05859375,-905.2734375,-688.96484375,-1000.0,0.0,0,0
1771942314.671041,1771942314.6528866,-29.78515625,68.359375,-104.4921875,-369.62890625,0.0,0,0
1771942314.732904,1771942314.6568632,1.46484375,942.3828125,476.07421875,762.6953125,0.0,0,0
1771942314.732983,1771942314.660764,3.90625,824.70703125,506.8359375,995.60546875,0.0,0,0
1771942314.7330072,1771942314.6646647,-31.25,-269.53125,-213.37890625,-76.171875,0.0,0,0
1771942314.733047,1771942314.6685655,-55.17578125,-944.82421875,-680.6640625,-1000.0,0.0,0,0
1771942314.733092,1771942314.6724663,-29.296875,-144.04296875,-216.796875,-514.6484375,0.0,0,0
1771942314.733106,1771942314.676367,3.41796875,865.72265625,472.16796875,633.30078125,0.0,0,0
1771942314.7331169,1771942314.6802678,6.8359375,904.78515625,590.8203125,-961.9140625,0.0,0,0
1771942314.733129,1771942314.6841686,-20.5078125,-221.19140625,-165.0390625,-4.39453125,0.0,0,0
1771942314.733155,1771942314.6880693,-29.296875,-925.78125,-653.80859375,-1000.0,0.0,0,0
1771942314.7331681,1771942314.69197,-21.97265625,-375.9765625,-324.21875,-701.171875,0.0,0,0
1771942314.7331898,1771942314.6958709,1.46484375,620.60546875,354.00390625,402.83203125,0.0,0,0
1771942314.7332008,1771942314.6997716,14.6484375,922.8515625,607.421875,-935.05859375,0.0,0,0
1771942314.7609239,1771942314.703737,-24.90234375,-228.515625,-76.66015625,111.81640625,0.0,0,0
1771942314.760965,1771942314.7076378,-58.10546875,-1000.0,-593.75,-1000.0,0.0,0,0
1771942314.7609768,1771942314.7115386,-64.94140625,-446.2890625,-375.48828125,-830.56640625,0.0,0,0
1771942314.76099,1771942314.7154393,-42.96875,561.5234375,327.1484375,268.5546875,0.0,0,0
1771942314.761002,1771942314.71934,-18.5546875,998.046875,670.8984375,-922.36328125,0.0,0,0
1771942314.761014,1771942314.7232409,-39.55078125,37.109375,69.3359375,261.23046875,0.0,0,0
1771942314.761079,1771942314.7271416,-72.75390625,-1000.0,-609.375,-925.29296875,0.0,0,0
1771942314.761091,1771942314.7310424,-69.82421875,-720.21484375,-521.484375,-941.40625,0.0,0,0
1771942314.7611032,1771942314.7349432,-34.1796875,373.046875,223.14453125,134.765625,0.0,0,0
1771942314.7611148,1771942314.738844,-7.32421875,-935.05859375,653.80859375,-921.38671875,0.0,0,0
1771942314.7611258,1771942314.7427447,-30.76171875,229.00390625,179.19921875,474.12109375,0.0,0,0
1771942314.761138,1771942314.7466455,-69.3359375,-976.07421875,-534.1796875,-764.16015625,0.0,0,0
1771942314.8060002,1771942314.7506,-67.87109375,-812.98828125,-580.56640625,-1000.0,0.0,0,0
1771942314.80605,1771942314.7545009,-23.4375,270.01953125,165.52734375,70.3125,0.0,0,0
1771942314.806066,1771942314.7584016,14.6484375,989.2578125,635.7421875,-958.0078125,0.0,0,0
1771942314.806081,1771942314.7623024,18.5546875,294.921875,240.234375,619.62890625,0.0,0,0
1771942314.8060951,1771942314.7662032,-25.87890625,-831.0546875,-451.66015625,-583.49609375,0.0,0,0
1771942314.806109,1771942314.770104,-47.8515625,-836.42578125,-582.03125,-1000.0,0.0,0,0
1771942314.806123,1771942314.7740047,-20.01953125,205.078125,84.9609375,-2.44140625,0.0,0,0
1771942314.806137,1771942314.7779055,4.8828125,-969.7265625,584.9609375,-984.375,0.0,0,0
1771942314.80615,1771942314.7818062,0.9765625,572.265625,353.02734375,785.64453125,0.0,0,0
1771942314.806164,1771942314.785707,-38.57421875,-661.62109375,-395.01953125,-377.44140625,0.0,0,0
1771942314.8061771,1771942314.7896078,-61.5234375,-935.546875,-666.50390625,-1000.0,0.0,0,0
1771942314.8061912,1771942314.7935085,-45.41015625,164.55078125,-12.6953125,-165.52734375,0.0,0,0
1771942314.864874,1771942314.797454,-18.06640625,-944.3359375,581.54296875,942.3828125,0.0,0,0
1771942314.864916,1771942314.801355,-11.23046875,645.99609375,461.42578125,863.76953125,0.0,0,0
1771942314.864933,1771942314.8052557,-36.62109375,-560.546875,-323.73046875,-262.6953125,0.0,0,0
1771942314.86495,1771942314.8091564,-49.31640625,-971.19140625,-686.03515625,-1000.0,0.0,0,0
1771942314.8649652,1771942314.8130572,-27.83203125,16.6015625,-90.33203125,-349.12109375,0.0,0,0
1771942314.864981,1771942314.816958,-6.34765625,996.58203125,549.31640625,820.3125,0.0,0,0
1771942314.8649962,1771942314.8208587,9.765625,667.96875,492.67578125,937.5,0.0,0,0
1771942314.865011,1771942314.8247595,-8.30078125,-446.2890625,-276.85546875,-161.1328125,0.0,0,0
1771942314.8650272,1771942314.8286602,-30.76171875,-960.44921875,-695.80078125,-1000.0,0.0,0,0
1771942314.865042,1771942314.832561,-10.25390625,-135.25390625,-207.03125,-520.01953125,0.0,0,0
1771942314.865057,1771942314.836462,17.578125,906.73828125,474.609375,664.0625,0.0,0,0
1771942314.865072,1771942314.8403628,17.08984375,814.453125,562.01171875,993.1640625,0.0,0,0
1771942314.91104,1771942314.8443768,-20.99609375,-287.59765625,-179.19921875,-76.66015625,0.0,0,0
1771942314.9110699,1771942314.8482776,-46.38671875,-1000.0,-678.22265625,-1000.0,0.0,0,0
1771942314.911092,1771942314.8521783,-20.5078125,-268.5546875,-294.43359375,-648.4375,0.0,0,0
1771942314.911115,1771942314.856079,-2.9296875,794.921875,414.55078125,476.07421875,0.0,0,0
1771942314.911135,1771942314.85998,-13.671875,879.8828125,601.5625,-947.265625,0.0,0,0
1771942314.911155,1771942314.8638809,-46.38671875,-179.6875,-79.1015625,76.66015625,0.0,0,0
1771942314.9111738,1771942314.8677816,-74.21875,-1000.0,-639.6484375,-1000.0,0.0,0,0
1771942314.9111931,1771942314.8716824,-69.82421875,-534.66796875,-427.734375,-831.0546875,0.0,0,0
1771942314.9112132,1771942314.8755832,-47.36328125,595.21484375,304.19921875,287.59765625,0.0,0,0
1771942314.911233,1771942314.879484,-41.50390625,949.70703125,620.1171875,-942.3828125,0.0,0,0
1771942314.911252,1771942314.883385,-61.5234375,-122.0703125,-5.859375,194.82421875,0.0,0,0
1771942314.911273,1771942314.8872857,-78.61328125,-997.55859375,-596.19140625,-942.3828125,0.0,0,0
1771942314.956107,1771942314.8912895,-69.82421875,-622.0703125,-464.35546875,-898.92578125,0.0,0,0
1771942314.9561658,1771942314.8951902,-37.59765625,371.58203125,211.9140625,174.31640625,0.0,0,0
1771942314.956199,1771942314.899091,-10.7421875,-950.1953125,613.76953125,-922.8515625,0.0,0,0
1771942314.9562292,1771942314.902992,-3.41796875,140.625,121.58203125,442.3828125,0.0,0,0
1771942314.956258,1771942314.9068928,-29.296875,-967.28515625,-540.52734375,-788.0859375,0.0,0,0
1771942314.956289,1771942314.9107935,-45.41015625,-768.06640625,-541.9921875,-973.6328125,0.0,0,0
1771942314.956318,1771942314.9146943,-28.3203125,236.81640625,165.0390625,110.3515625,0.0,0,0
1771942314.956347,1771942314.9185953,-3.90625,986.328125,613.76953125,-957.51953125,0.0,0,0
1771942314.9563751,1771942314.922496,-14.6484375,194.3359375,195.80078125,524.4140625,0.0,0,0
1771942314.956403,1771942314.9263968,-52.734375,-931.640625,-503.41796875,-664.55078125,0.0,0,0
1771942314.9564312,1771942314.9302976,-70.3125,-739.2578125,-576.66015625,-1000.0,0.0,0,0
1771942314.956476,1771942314.9341986,-46.38671875,313.4765625,120.1171875,9.27734375,0.0,0,0
1771942315.0011148,1771942314.9381926,-23.4375,988.28125,600.5859375,-979.00390625,0.0,0,0
1771942315.001178,1771942314.9420934,-38.57421875,465.33203125,340.33203125,729.00390625,0.0,0,0
1771942315.001211,1771942314.9459941,-69.3359375,-720.21484375,-396.484375,-447.265625,0.0,0,0
1771942315.00124,1771942314.9498951,-77.1484375,-931.15234375,-636.71875,-1000.0,0.0,0,0
1771942315.001268,1771942314.953796,-39.0625,197.265625,41.50390625,-127.44140625,0.0,0,0
1771942315.0012958,1771942314.9576967,-12.6953125,-991.69921875,589.84375,972.16796875,0.0,0,0
1771942315.0013251,1771942314.9615977,-25.390625,552.24609375,415.0390625,791.9921875,0.0,0,0
1771942315.001353,1771942314.9654984,-47.8515625,-588.8671875,-347.65625,-330.078125,0.0,0,0
1771942315.0013819,1771942314.9693992,-56.15234375,-981.93359375,-679.19921875,-1000.0,0.0,0,0
1771942315.00141,1771942314.9733,-36.1328125,116.2109375,-13.671875,-351.5625,0.0,0,0
1771942315.001437,1771942314.977201,-16.11328125,-979.4921875,558.59375,831.54296875,0.0,0,0
1771942315.001466,1771942314.9811018,-6.34765625,736.81640625,470.703125,925.29296875,0.0,0,0
1771942315.0461152,1771942314.9850864,-27.83203125,-372.55859375,-253.41796875,-181.640625,0.0,0,0
1771942315.0461829,1771942314.9889872,-58.10546875,-992.1875,-673.33984375,-1000.0,0.0,0,0
1771942315.046201,1771942314.992888,-46.875,-46.875,-139.16015625,-505.37109375,0.0,0,0
1771942315.046217,1771942314.996789,-22.94921875,927.734375,484.86328125,687.01171875,0.0,0,0
1771942315.0462332,1771942315.0006897,-3.90625,878.41796875,557.12890625,988.76953125,0.0,0,0
1771942315.046248,1771942315.0045905,-22.94921875,-137.6953125,-161.62109375,-84.9609375,0.0,0,0
1771942315.0462642,1771942315.0084915,-53.7109375,-973.14453125,-680.17578125,-1000.0,0.0,0,0
1771942315.046279,1771942315.0123923,-43.9453125,-283.69140625,-256.34765625,-671.875,0.0,0,0
1771942315.046294,1771942315.016293,-19.04296875,797.36328125,405.76171875,500.0,0.0,0,0
1771942315.046308,1771942315.020194,-4.8828125,902.34375,564.94140625,-978.02734375,0.0,0,0
1771942315.046323,1771942315.0240948,-18.5546875,-217.7734375,-95.703125,-7.8125,0.0,0,0
1771942315.04634,1771942315.0279956,-38.0859375,-1000.0,-616.2109375,-1000.0,0.0,0,0
1771942315.0918112,1771942315.0319686,-25.87890625,-416.9921875,-352.5390625,-778.80859375,0.0,0,0
1771942315.091847,1771942315.0358694,9.27734375,675.29296875,328.125,354.4921875,0.0,0,0
1771942315.091868,1771942315.0397704,20.99609375,-976.5625,618.1640625,-906.73828125,0.0,0,0
1771942315.0918899,1771942315.0436711,-13.671875,-80.56640625,-11.71875,175.29296875,0.0,0,0
1771942315.09191,1771942315.0475721,-42.48046875,-1000.0,-615.72265625,-981.93359375,0.0,0,0
1771942315.0919302,1771942315.051473,-39.55078125,-493.1640625,-427.734375,-888.18359375,0.0,0,0
1771942315.0919502,1771942315.0553737,-29.78515625,490.72265625,250.48828125,204.1015625,0.0,0,0
1771942315.09197,1771942315.0592747,-13.18359375,935.05859375,585.44921875,-948.73046875,0.0,0,0
1771942315.09199,1771942315.0631754,-41.50390625,-18.06640625,54.6875,301.26953125,0.0,0,0
1771942315.0921202,1771942315.0670764,-84.9609375,-989.74609375,-566.89453125,-860.83984375,0.0,0,0
1771942315.092142,1771942315.0709772,-78.61328125,-676.26953125,-517.578125,-973.6328125,0.0,0,0
1771942315.0921621,1771942315.074878,-43.9453125,365.72265625,205.078125,100.5859375,0.0,0,0
1771942315.1361659,1771942315.0788405,-15.13671875,-939.94140625,645.01953125,-937.01171875,0.0,0,0
1771942315.136228,1771942315.0827413,-27.34375,225.09765625,165.52734375,474.12109375,0.0,0,0
1771942315.1362538,1771942315.0866423,-54.19921875,-972.65625,-533.69140625,-734.86328125,0.0,0,0
1771942315.136299,1771942315.090543,-48.33984375,-687.98828125,-549.31640625,-1000.0,0.0,0,0
1771942315.1363251,1771942315.094444,-35.15625,286.62109375,120.60546875,20.01953125,0.0,0,0
1771942315.136348,1771942315.0983448,-13.671875,993.1640625,609.86328125,-966.30859375,0.0,0,0
1771942315.1364422,1771942315.1022458,-8.7890625,417.48046875,304.6875,690.4296875,0.0,0,0
1771942315.136471,1771942315.1061466,-44.43359375,-814.453125,-455.56640625,-511.71875,0.0,0,0
1771942315.1364942,1771942315.1100473,-63.96484375,-871.58203125,-640.625,-1000.0,0.0,0,0
1771942315.136516,1771942315.1139483,-40.52734375,250.9765625,38.57421875,-99.12109375,0.0,0,0
1771942315.136539,1771942315.117849,-10.25390625,-986.328125,590.8203125,982.421875,0.0,0,0
1771942315.1365619,1771942315.12175,-7.32421875,610.83984375,409.66796875,799.8046875,0.0,0,0
1771942315.196345,1771942315.1257849,-33.203125,-546.875,-359.86328125,-338.8671875,0.0,0,0
1771942315.1964118,1771942315.1296859,-51.26953125,-1000.0,-683.59375,-1000.0,0.0,0,0
1771942315.1964438,1771942315.1335866,-23.4375,98.6328125,-42.48046875,-247.55859375,0.0,0,0
1771942315.1964731,1771942315.1374876,-4.39453125,-975.09765625,524.4140625,900.390625,0.0,0,0
1771942315.196503,1771942315.1413884,-10.7421875,759.27734375,451.66015625,895.01953125,0.0,0,0
1771942315.196558,1771942315.1452894,-44.43359375,-348.14453125,-269.53125,-209.9609375,0.0,0,0
1771942315.196596,1771942315.1491904,-63.96484375,-976.5625,-678.7109375,-1000.0,0.0,0,0
1771942315.1966238,1771942315.1530912,-40.0390625,-41.015625,-119.62890625,-412.59765625,0.0,0,0
1771942315.196652,1771942315.1569922,0.9765625,956.0546875,496.58203125,766.6015625,0.0,0,0
1771942315.1966798,1771942315.160893,3.90625,845.21484375,526.85546875,979.00390625,0.0,0,0
1771942315.1967092,1771942315.164794,-37.59765625,-228.515625,-186.5234375,-100.09765625,0.0,0,0
1771942315.196738,1771942315.1686947,-52.734375,-952.63671875,-664.0625,-1000.0,0.0,0,0
1771942315.2415202,1771942315.1726375,-30.76171875,-181.640625,-227.5390625,-560.546875,0.0,0,0
1771942315.241626,1771942315.1765385,1.953125,851.07421875,433.59375,606.93359375,0.0,0,0
1771942315.241676,1771942315.1804392,13.671875,919.921875,574.70703125,-963.37890625,0.0,0,0
1771942315.2417212,1771942315.1843402,-20.01953125,-203.125,-132.8125,0.48828125,0.0,0,0
1771942315.241775,1771942315.188241,-51.26953125,-993.65234375,-646.484375,-1000.0,0.0,0,0
1771942315.2418199,1771942315.192142,-41.015625,-272.94921875,-295.41015625,-731.4453125,0.0,0,0
1771942315.241865,1771942315.1960428,1.46484375,753.90625,392.08984375,411.1328125,0.0,0,0
1771942315.24191,1771942315.1999438,12.6953125,927.734375,618.65234375,-943.84765625,0.0,0,0
1771942315.241955,1771942315.2038445,-18.06640625,-205.078125,-62.01171875,98.14453125,0.0,0,0
1771942315.2419991,1771942315.2077456,-35.15625,-967.28515625,-590.33203125,-999.51171875,0.0,0,0
1771942315.242044,1771942315.2116466,-22.4609375,-524.90234375,-368.65234375,-825.1953125,0.0,0,0
1771942315.242087,1771942315.2155473,17.578125,427.24609375,280.76171875,263.671875,0.0,0,0
1771942315.2865689,1771942315.219488,32.2265625,-996.09375,620.60546875,-916.015625,0.0,0,0
1771942315.2867079,1771942315.223389,14.6484375,-20.01953125,14.6484375,314.453125,0.0,0,0
1771942315.286759,1771942315.22729,-8.7890625,-1000.0,-598.14453125,-895.01953125,0.0,0,0
1771942315.286804,1771942315.2311907,-27.83203125,-645.5078125,-485.3515625,-913.57421875,0.0,0,0
1771942315.2868512,1771942315.2350917,-5.859375,379.8828125,214.35546875,168.9453125,0.0,0,0
1771942315.286895,1771942315.2389925,18.06640625,-914.0625,680.17578125,-915.0390625,0.0,0,0
1771942315.2869408,1771942315.2428935,-9.765625,158.69140625,167.48046875,490.72265625,0.0,0,0
1771942315.287006,1771942315.2467945,-57.12890625,-1000.0,-535.64453125,-753.41796875,0.0,0,0
1771942315.28705,1771942315.2506952,-63.4765625,-790.0390625,-538.0859375,-1000.0,0.0,0,0
1771942315.287092,1771942315.2545962,-31.25,226.07421875,130.859375,48.828125,0.0,0,0
1771942315.287137,1771942315.258497,-13.18359375,-999.0234375,606.93359375,-965.8203125,0.0,0,0
1771942315.287189,1771942315.262398,-20.99609375,312.01171875,262.6953125,628.90625,0.0,0,0
1771942315.3330162,1771942315.266408,-42.96875,-848.14453125,-447.265625,-567.87109375,0.0,0,0
1771942315.333159,1771942315.2703087,-50.29296875,-915.52734375,-620.60546875,-1000.0,0.0,0,0
1771942315.333227,1771942315.2742097,-19.53125,193.359375,95.703125,-37.59765625,0.0,0,0
1771942315.333289,1771942315.2781107,3.41796875,-986.81640625,623.046875,-987.3046875,0.0,0,0
1771942315.333351,1771942315.2820115,-5.37109375,536.1328125,353.515625,756.34765625,0.0,0,0
1771942315.333411,1771942315.2859125,-34.1796875,-629.8828125,-395.99609375,-391.11328125,0.0,0,0
1771942315.333471,1771942315.2898133,-49.8046875,-953.61328125,-682.12890625,-1000.0,0.0,0,0
1771942315.333529,1771942315.2937143,-13.671875,180.17578125,7.8125,-210.44921875,0.0,0,0
1771942315.333588,1771942315.2976153,16.11328125,-972.16796875,562.98828125,941.89453125,0.0,0,0
1771942315.333647,1771942315.301516,10.25390625,666.9921875,423.33984375,872.55859375,0.0,0,0
1771942315.333705,1771942315.305417,-16.6015625,-490.72265625,-285.15625,-247.0703125,0.0,0,0
1771942315.333765,1771942315.309318,-33.69140625,-1000.0,-660.64453125,-1000.0,0.0,0,0
1771942315.377883,1771942315.3133166,-23.4375,-34.1796875,-105.95703125,-391.11328125,0.0,0,0
1771942315.378026,1771942315.3172176,-0.9765625,979.4921875,514.6484375,805.17578125,0.0,0,0
1771942315.3780951,1771942315.3211186,16.11328125,859.86328125,521.97265625,966.30859375,0.0,0,0
1771942315.3781571,1771942315.3250196,-21.484375,-268.5546875,-215.8203125,-128.90625,0.0,0,0
1771942315.378217,1771942315.3289204,-44.921875,-930.17578125,-681.15234375,-1000.0,0.0,0,0
1771942315.3782752,1771942315.3328214,-20.99609375,-20.01953125,-188.4765625,-531.25,0.0,0,0
1771942315.378334,1771942315.3367224,-2.9296875,909.66796875,447.265625,646.97265625,0.0,0,0
1771942315.378392,1771942315.3406231,-2.44140625,830.56640625,563.96484375,995.1171875,0.0,0,0
1771942315.3784509,1771942315.3445241,-31.25,-235.83984375,-160.15625,-60.05859375,0.0,0,0
1771942315.378508,1771942315.3484251,-59.08203125,-1000.0,-716.30859375,-1000.0,0.0,0,0
1771942315.3785641,1771942315.352326,-57.6171875,-389.6484375,-322.75390625,-741.69921875,0.0,0,0
1771942315.378624,1771942315.356227,-22.4609375,825.1953125,419.921875,457.51953125,0.0,0,0
1771942315.4215229,1771942315.3602123,-10.7421875,919.921875,606.4453125,-937.98828125,0.0,0,0
1771942315.421731,1771942315.3641133,-42.48046875,-231.93359375,-106.93359375,66.89453125,0.0,0,0
1771942315.4218051,1771942315.368014,-56.640625,-1000.0,-625.0,-1000.0,0.0,0,0
1771942315.421864,1771942315.371915,-41.50390625,-487.3046875,-367.1875,-808.59375,0.0,0,0
1771942315.421925,1771942315.375816,-2.9296875,562.5,324.21875,308.10546875,0.0,0,0
1771942315.421985,1771942315.379717,22.4609375,-977.5390625,673.33984375,-904.296875,0.0,0,0
1771942315.422045,1771942315.3836179,-4.8828125,-54.6875,36.62109375,244.62890625,0.0,0,0
1771942315.4220989,1771942315.387519,-40.0390625,-1000.0,-615.234375,-942.87109375,0.0,0,0
1771942315.4221592,1771942315.39142,-46.38671875,-686.5234375,-483.88671875,-924.31640625,0.0,0,0
1771942315.4222012,1771942315.395321,-20.99609375,401.85546875,237.79296875,171.875,0.0,0,0
1771942315.422246,1771942315.3992217,32.2265625,-940.91796875,670.8984375,-925.78125,0.0,0,0
1771942315.4222982,1771942315.4031227,35.64453125,32.71484375,120.60546875,352.5390625,0.0,0,0
1771942315.4974809,1771942315.407261,4.39453125,-1000.0,-563.96484375,-832.51953125,0.0,0,0
1771942315.4978821,1771942315.4111617,3.41796875,-773.4375,-537.109375,-1000.0,0.0,0,0
1771942315.497953,1771942315.4150627,36.1328125,250.9765625,188.4765625,42.48046875,0.0,0,0
1771942315.498013,1771942315.4189637,54.19921875,-943.84765625,681.640625,-933.59375,0.0,0,0
1771942315.498074,1771942315.4228647,42.48046875,305.6640625,250.0,599.609375,0.0,0,0
1771942315.498115,1771942315.4267657,11.71875,-906.73828125,-457.51953125,-637.6953125,0.0,0,0
1771942315.498158,1771942315.4306667,-5.859375,-896.484375,-564.453125,-1000.0,0.0,0,0
1771942315.498198,1771942315.4345677,12.6953125,130.859375,86.42578125,-13.671875,0.0,0,0
1771942315.4982421,1771942315.4384687,33.203125,-953.125,590.8203125,-972.65625,0.0,0,0
1771942315.498284,1771942315.4423697,25.87890625,516.6015625,328.61328125,741.69921875,0.0,0,0
1771942315.498326,1771942315.4462707,-16.6015625,-768.06640625,-409.1796875,-449.70703125,0.0,0,0
1771942315.4983711,1771942315.4501717,-43.45703125,-939.453125,-648.4375,-1000.0,0.0,0,0
1771942315.51206,1771942315.4541414,-20.99609375,199.70703125,31.25,-137.20703125,0.0,0,0
1771942315.5121658,1771942315.4580424,-2.9296875,973.14453125,567.3828125,963.8671875,0.0,0,0
1771942315.51223,1771942315.4619434,-20.99609375,622.55859375,413.0859375,840.8203125,0.0,0,0
1771942315.51229,1771942315.4658444,-56.640625,-474.609375,-301.26953125,-280.2734375,0.0,0,0
1771942315.512349,1771942315.4697454,-63.4765625,-993.1640625,-677.734375,-1000.0,0.0,0,0
1771942315.512406,1771942315.4736464,-36.1328125,90.8203125,-59.5703125,-290.52734375,0.0,0,0
1771942315.512465,1771942315.4775474,-15.13671875,-978.515625,537.109375,872.55859375,0.0,0,0
1771942315.512522,1771942315.4814484,-17.08984375,729.98046875,465.8203125,914.0625,0.0,0,0
1771942315.512567,1771942315.4853492,-48.33984375,-389.16015625,-259.27734375,-184.5703125,0.0,0,0
1771942315.512613,1771942315.4892502,-59.08203125,-1000.0,-689.453125,-1000.0,0.0,0,0
1771942315.512654,1771942315.4931512,-36.62109375,-36.62109375,-163.57421875,-452.1484375,0.0,0,0
1771942315.512696,1771942315.4970522,-13.18359375,994.140625,473.14453125,720.21484375,0.0,0,0
1771942315.556385,1771942315.5010061,-6.8359375,823.73046875,539.55078125,-996.09375,0.0,0,0
1771942315.5565171,1771942315.5049071,-36.62109375,-287.59765625,-199.70703125,-68.359375,0.0,0,0
1771942315.556567,1771942315.5088081,-58.10546875,-1000.0,-694.82421875,-1000.0,0.0,0,0
1771942315.5566132,1771942315.5127091,-42.96875,-277.83203125,-266.11328125,-641.6015625,0.0,0,0
1771942315.55667,1771942315.5166101,-18.06640625,810.05859375,412.109375,543.9453125,0.0,0,0
1771942315.5567129,1771942315.5205112,-19.04296875,-980.46875,623.53515625,-935.546875,0.0,0,0
1771942315.556756,1771942315.5244122,-53.7109375,-100.5859375,-104.4921875,34.1796875,0.0,0,0
1771942315.5568168,1771942315.5283132,-74.21875,-1000.0,-683.59375,-1000.0,0.0,0,0
1771942315.556875,1771942315.5322142,-59.08203125,-455.078125,-356.4453125,-797.8515625,0.0,0,0
1771942315.556926,1771942315.5361152,-21.484375,647.94921875,338.37890625,343.75,0.0,0,0
1771942315.556969,1771942315.5400162,-10.7421875,989.2578125,613.28125,-940.91796875,0.0,0,0
1771942315.55703,1771942315.5439172,-46.38671875,-139.16015625,-24.90234375,130.859375,0.0,0,0
1771942315.6149828,1771942315.5478604,-77.63671875,-1000.0,-587.40234375,-980.46875,0.0,0,0
1771942315.615105,1771942315.5517614,-66.40625,-639.16015625,-447.75390625,-894.04296875,0.0,0,0
1771942315.615166,1771942315.5556624,-25.390625,397.4609375,242.67578125,205.56640625,0.0,0,0
1771942315.615226,1771942315.5595634,-6.8359375,979.4921875,654.78515625,-933.10546875,0.0,0,0
1771942315.615285,1771942315.5634644,-32.71484375,-40.0390625,67.87109375,321.77734375,0.0,0,0
1771942315.615344,1771942315.5673654,-55.17578125,-1000.0,-584.9609375,-855.46875,0.0,0,0
1771942315.615411,1771942315.5712664,-59.5703125,-761.23046875,-545.8984375,-955.56640625,0.0,0,0
1771942315.6154811,1771942315.5751674,-35.15625,284.1796875,194.82421875,102.05078125,0.0,0,0
1771942315.6155462,1771942315.5790684,6.34765625,-909.66796875,669.921875,-919.921875,0.0,0,0
1771942315.615613,1771942315.5829694,-2.9296875,263.671875,188.4765625,584.47265625,0.0,0,0
1771942315.615681,1771942315.5868704,-35.15625,-959.9609375,-506.8359375,-685.546875,0.0,0,0
1771942315.6157498,1771942315.5907714,-32.71484375,-809.5703125,-562.5,-977.5390625,0.0,0,0
1771942315.6616168,1771942315.594703,-1.953125,212.890625,119.62890625,86.9140625,0.0,0,0
1771942315.661717,1771942315.598604,21.97265625,-994.140625,620.1171875,-962.890625,0.0,0,0
1771942315.6617641,1771942315.602505,14.16015625,412.109375,291.9921875,730.95703125,0.0,0,0
1771942315.661809,1771942315.606406,-24.4140625,-822.75390625,-454.58984375,-484.86328125,0.0,0,0
1771942315.661866,1771942315.610307,-35.15625,-814.94140625,-604.98046875,-1000.0,0.0,0,0
1771942315.661908,1771942315.614208,-8.30078125,354.4921875,91.30859375,-31.25,0.0,0,0
1771942315.661956,1771942315.618109,10.7421875,-992.67578125,569.3359375,989.74609375,0.0,0,0
1771942315.662008,1771942315.62201,0.9765625,556.640625,362.3046875,831.54296875,0.0,0,0
1771942315.662069,1771942315.625911,-35.15625,-575.1953125,-363.28125,-312.98828125,0.0,0,0
1771942315.6621099,1771942315.629812,-52.734375,-984.86328125,-669.921875,-1000.0,0.0,0,0
1771942315.662169,1771942315.633713,-36.1328125,98.14453125,-31.25,-187.01171875,0.0,0,0
1771942315.662215,1771942315.637614,-12.20703125,-966.30859375,553.22265625,915.52734375,0.0,0,0
1771942315.7061498,1771942315.641616,-17.08984375,755.37109375,464.84375,924.8046875,0.0,0,0
1771942315.706253,1771942315.645517,-41.015625,-417.96875,-261.23046875,-183.59375,0.0,0,0
1771942315.706284,1771942315.6494184,-51.7578125,-990.234375,-674.31640625,-1000.0,0.0,0,0
1771942315.706312,1771942315.6533194,-30.2734375,6.34765625,-119.62890625,-342.7734375,0.0,0,0
1771942315.70634,1771942315.6572204,-0.9765625,972.65625,515.625,791.015625,0.0,0,0
1771942315.706367,1771942315.6611214,3.90625,893.06640625,545.41015625,990.234375,0.0,0,0
1771942315.706402,1771942315.6650224,-26.3671875,-244.140625,-219.23828125,-82.51953125,0.0,0,0
1771942315.706445,1771942315.6689234,-43.9453125,-1000.0,-716.30859375,-1000.0,0.0,0,0
1771942315.706481,1771942315.6728244,-19.04296875,-177.24609375,-218.75,-572.75390625,0.0,0,0
1771942315.70651,1771942315.6767254,3.41796875,909.66796875,449.70703125,615.234375,0.0,0,0
1771942315.7065458,1771942315.6806264,6.8359375,903.80859375,561.03515625,-984.375,0.0,0,0
1771942315.706594,1771942315.6845274,-21.97265625,-259.765625,-167.96875,-43.9453125,0.0,0,0
1771942315.7973719,1771942315.68876,-53.22265625,-1000.0,-696.77734375,-1000.0,0.0,0,0
1771942315.7974982,1771942315.692661,-39.55078125,-426.7578125,-367.1875,-752.44140625,0.0,0,0
1771942315.7976289,1771942315.6965623,-0.9765625,690.4296875,350.5859375,396.97265625,0.0,0,0
1771942315.797685,1771942315.7004633,13.671875,936.5234375,593.75,-941.89453125,0.0,0,0
1771942315.7977312,1771942315.7043643,-14.16015625,-202.63671875,-89.84375,76.66015625,0.0,0,0
1771942315.797774,1771942315.7082655,-44.921875,-1000.0,-623.046875,-1000.0,0.0,0,0
1771942315.7978182,1771942315.7121665,-46.38671875,-599.609375,-434.5703125,-862.79296875,0.0,0,0
1771942315.797861,1771942315.7160676,-21.484375,484.375,245.60546875,231.4453125,0.0,0,0
1771942315.7979038,1771942315.7199688,-1.953125,980.95703125,614.74609375,-938.96484375,0.0,0,0
1771942315.797948,1771942315.7238698,-28.80859375,-80.56640625,9.765625,235.83984375,0.0,0,0
1771942315.7979898,1771942315.7277708,-66.89453125,-1000.0,-619.140625,-916.9921875,0.0,0,0
1771942315.7980318,1771942315.7316718,-60.546875,-628.90625,-509.27734375,-944.82421875,0.0,0,0
1771942315.800104,1771942315.7356732,-24.90234375,447.75390625,204.58984375,141.11328125,0.0,0,0
1771942315.8001652,1771942315.7395742,-12.6953125,-980.46875,628.41796875,-930.6640625,0.0,0,0
1771942315.800213,1771942315.7434752,-31.73828125,96.6796875,138.18359375,455.56640625,0.0,0,0
1771942315.8002582,1771942315.7473764,-66.40625,-994.140625,-532.2265625,-755.37109375,0.0,0,0
1771942315.800301,1771942315.7512774,-82.03125,-731.93359375,-540.52734375,-998.046875,0.0,0,0
1771942315.80058,1771942315.7551785,-51.26953125,331.54296875,168.45703125,55.17578125,0.0,0,0
1771942315.8006258,1771942315.7590797,-20.5078125,-993.65234375,632.8125,-951.171875,0.0,0,0
1771942315.800669,1771942315.7629807,-21.97265625,290.52734375,245.1171875,642.578125,0.0,0,0
1771942315.8007119,1771942315.7668817,-49.31640625,-874.51171875,-483.88671875,-577.1484375,0.0,0,0
1771942315.800757,1771942315.770783,-52.734375,-874.0234375,-615.72265625,-1000.0,0.0,0,0
1771942315.800801,1771942315.774684,-20.99609375,230.46875,83.984375,-41.9921875,0.0,0,0
1771942315.800842,1771942315.778585,-8.7890625,-969.7265625,576.66015625,-996.58203125,0.0,0,0
1771942315.856695,1771942315.7825637,-29.296875,552.24609375,346.6796875,768.5546875,0.0,0,0
1771942315.856831,1771942315.7864647,-55.6640625,-661.62109375,-415.0390625,-388.18359375,0.0,0,0
1771942315.8569012,1771942315.790366,-58.59375,-894.04296875,-678.22265625,-1000.0,0.0,0,0
1771942315.856964,1771942315.794267,-26.85546875,260.25390625,27.34375,-143.5546875,0.0,0,0
1771942315.857025,1771942315.7981682,0.48828125,-952.63671875,541.50390625,943.359375,0.0,0,0
1771942315.857096,1771942315.8020692,-1.46484375,740.234375,415.52734375,883.7890625,0.0,0,0
1771942315.8571572,1771942315.8059704,-31.73828125,-472.65625,-327.1484375,-236.328125,0.0,0,0
1771942315.857216,1771942315.8098714,-48.33984375,-1000.0,-711.9140625,-1000.0,0.0,0,0
1771942315.8572748,1771942315.8137724,-27.83203125,-11.71875,-121.09375,-330.078125,0.0,0,0
1771942315.857333,1771942315.8176737,-4.39453125,970.21484375,484.86328125,817.3828125,0.0,0,0
1771942315.857392,1771942315.8215747,7.8125,845.703125,497.0703125,957.51953125,0.0,0,0
1771942315.857449,1771942315.825476,-27.83203125,-250.9765625,-236.328125,-130.37109375,0.0,0,0
1771942315.8884952,1771942315.8294487,-54.19921875,-992.1875,-705.078125,-1000.0,0.0,0,0
1771942315.8885891,1771942315.83335,-28.3203125,-131.8359375,-231.4453125,-527.34375,0.0,0,0
1771942315.8886342,1771942315.837251,-1.46484375,908.203125,437.01171875,659.66796875,0.0,0,0
1771942315.888679,1771942315.8411522,1.46484375,853.02734375,542.96875,999.0234375,0.0,0,0
1771942315.888723,1771942315.8450532,-23.4375,-220.703125,-154.296875,-61.03515625,0.0,0,0
1771942315.888766,1771942315.8489544,-46.875,-992.1875,-639.16015625,-1000.0,0.0,0,0
1771942315.888808,1771942315.8528554,-34.1796875,-285.64453125,-281.73828125,-674.8046875,0.0,0,0
1771942315.888852,1771942315.8567567,-7.8125,806.640625,397.4609375,487.79296875,0.0,0,0
1771942315.8888938,1771942315.8606577,-0.9765625,917.96875,574.70703125,-954.1015625,0.0,0,0
1771942315.888937,1771942315.864559,-24.90234375,-211.9140625,-107.91015625,43.45703125,0.0,0,0
1771942315.88898,1771942315.86846,-43.9453125,-999.51171875,-609.375,-1000.0,0.0,0,0
1771942315.889021,1771942315.872361,-47.36328125,-544.43359375,-374.51171875,-813.4765625,0.0,0,0
1771942315.932543,1771942315.8763182,-32.2265625,515.13671875,282.2265625,292.96875,0.0,0,0
1771942315.9326751,1771942315.8802195,-14.16015625,953.61328125,595.21484375,-959.9609375,0.0,0,0
1771942315.932726,1771942315.8841205,-36.1328125,-129.39453125,-21.97265625,152.34375,0.0,0,0
1771942315.932771,1771942315.8880217,-68.84765625,-1000.0,-602.5390625,-951.66015625,0.0,0,0
1771942315.9328141,1771942315.8919227,-57.6171875,-598.14453125,-465.8203125,-934.5703125,0.0,0,0
1771942315.9328582,1771942315.895824,-26.3671875,516.11328125,239.2578125,158.203125,0.0,0,0
1771942315.9329019,1771942315.899725,-16.11328125,969.7265625,595.703125,-942.87109375,0.0,0,0
1771942315.932945,1771942315.9036262,-33.203125,-30.2734375,37.59765625,291.015625,0.0,0,0
1771942315.932987,1771942315.9075272,-59.5703125,-959.9609375,-595.703125,-865.72265625,0.0,0,0
1771942315.933033,1771942315.9114285,-56.640625,-800.78125,-571.2890625,-990.234375,0.0,0,0
1771942315.933114,1771942315.9153295,-12.20703125,144.53125,109.86328125,44.921875,0.0,0,0
1771942315.933156,1771942315.9192307,12.20703125,-951.66015625,592.7734375,-956.0546875,0.0,0,0
1771942315.992515,1771942315.9231772,-9.27734375,312.98828125,194.82421875,542.96875,0.0,0,0
1771942315.992671,1771942315.9270782,-37.59765625,-923.33984375,-521.97265625,-663.0859375,0.0,0,0
1771942315.992743,1771942315.9309795,-41.015625,-807.12890625,-627.44140625,-1000.0,0.0,0,0
1771942315.992803,1771942315.9348805,-17.08984375,263.18359375,75.68359375,23.92578125,0.0,0,0
1771942315.992864,1771942315.9387817,6.8359375,-937.01171875,589.35546875,-970.21484375,0.0,0,0
1771942315.9929228,1771942315.9426827,-1.46484375,592.28515625,320.80078125,772.94921875,0.0,0,0
1771942315.992983,1771942315.946584,-38.0859375,-732.421875,-454.58984375,-429.19921875,0.0,0,0
1771942315.993042,1771942315.950485,-49.8046875,-933.10546875,-692.87109375,-1000.0,0.0,0,0
1771942315.993099,1771942315.9543862,-20.01953125,212.890625,-6.8359375,-90.33203125,0.0,0,0
1771942315.9931579,1771942315.9582872,3.90625,982.91015625,518.06640625,968.26171875,0.0,0,0
1771942315.993218,1771942315.9621885,9.27734375,687.01171875,390.13671875,867.1875,0.0,0,0
1771942315.993279,1771942315.9660895,-10.25390625,-446.77734375,-332.03125,-260.25390625,0.0,0,0
1771942316.037885,1771942315.9700372,-33.203125,-1000.0,-704.1015625,-1000.0,0.0,0,0
1771942316.038038,1771942315.9739385,-24.4140625,53.22265625,-112.79296875,-275.87890625,0.0,0,0
1771942316.038107,1771942315.9778395,1.46484375,-997.0703125,489.2578125,869.62890625,0.0,0,0
1771942316.03817,1771942315.9817407,13.671875,787.59765625,453.61328125,916.50390625,0.0,0,0
1771942316.0382311,1771942315.9856417,-19.04296875,-339.84375,-273.4375,-185.546875,0.0,0,0
1771942316.038291,1771942315.989543,-42.96875,-1000.0,-699.70703125,-1000.0,0.0,0,0
1771942316.038346,1771942315.993444,-7.8125,-114.2578125,-178.22265625,-445.80078125,0.0,0,0
1771942316.038404,1771942315.9973452,27.34375,966.30859375,471.19140625,739.74609375,0.0,0,0
1771942316.038461,1771942316.0012465,26.85546875,833.49609375,509.27734375,-998.046875,0.0,0,0
1771942316.038523,1771942316.0051475,-7.8125,-251.46484375,-180.17578125,-54.6875,0.0,0,0
1771942316.038574,1771942316.0090487,-29.296875,-1000.0,-649.4140625,-1000.0,0.0,0,0
1771942316.038625,1771942316.0129497,-14.16015625,-312.5,-288.57421875,-655.76171875,0.0,0,0
1771942316.097645,1771942316.016957,6.34765625,801.7578125,393.5546875,522.94921875,0.0,0,0
1771942316.097805,1771942316.020858,13.671875,920.8984375,586.42578125,-958.49609375,0.0,0,0
1771942316.0978718,1771942316.0247593,-7.32421875,-203.125,-108.88671875,9.765625,0.0,0,0
1771942316.0979352,1771942316.0286603,-27.83203125,-1000.0,-664.55078125,-1000.0,0.0,0,0
1771942316.097994,1771942316.0325615,-11.71875,-482.91015625,-387.6953125,-789.55078125,0.0,0,0
1771942316.098055,1771942316.0364628,24.90234375,727.05078125,354.98046875,367.1875,0.0,0,0
1771942316.098115,1771942316.0403638,24.4140625,950.1953125,608.88671875,-947.75390625,0.0,0,0
1771942316.098175,1771942316.044265,-8.7890625,-157.71484375,-51.26953125,120.1171875,0.0,0,0
1771942316.098233,1771942316.0481663,-38.57421875,-1000.0,-640.625,-979.98046875,0.0,0,0
1771942316.09829,1771942316.0520673,-35.64453125,-643.5546875,-465.8203125,-901.3671875,0.0,0,0
1771942316.098355,1771942316.0559685,-1.46484375,532.2265625,296.38671875,205.078125,0.0,0,0
1771942316.098413,1771942316.0598695,10.7421875,961.42578125,634.27734375,-937.01171875,0.0,0,0
1771942316.1264992,1771942316.063861,-29.78515625,-84.9609375,13.18359375,282.2265625,0.0,0,0
1771942316.126626,1771942316.067762,-55.17578125,-1000.0,-601.07421875,-875.48828125,0.0,0,0
1771942316.126679,1771942316.0716631,-37.109375,-671.875,-507.32421875,-963.8671875,0.0,0,0
1771942316.1267252,1771942316.0755644,-6.34765625,359.86328125,182.12890625,99.12109375,0.0,0,0
1771942316.126774,1771942316.0794654,4.39453125,-928.7109375,627.44140625,-948.73046875,0.0,0,0
1771942316.1268191,1771942316.0833666,-22.94921875,286.62109375,199.70703125,440.91796875,0.0,0,0
1771942316.126864,1771942316.0872679,-53.22265625,-958.49609375,-516.11328125,-745.1171875,0.0,0,0
1771942316.1269078,1771942316.0911689,-57.6171875,-935.05859375,-614.2578125,-1000.0,0.0,0,0
1771942316.127158,1771942316.0950701,-34.1796875,166.50390625,84.47265625,-24.90234375,0.0,0,0
1771942316.1272051,1771942316.0989714,-17.578125,-962.890625,613.28125,-963.37890625,0.0,0,0
1771942316.1272478,1771942316.1028724,-27.34375,416.9921875,283.69140625,655.2734375,0.0,0,0
1771942316.127291,1771942316.1067736,-57.12890625,-808.59375,-474.12109375,-546.38671875,0.0,0,0
1771942316.172468,1771942316.1107588,-58.59375,-848.14453125,-615.234375,-1000.0,0.0,0,0
1771942316.1726,1771942316.11466,-27.83203125,283.69140625,60.05859375,-99.609375,0.0,0,0
1771942316.172648,1771942316.118561,-14.6484375,-995.60546875,551.26953125,972.16796875,0.0,0,0
1771942316.172693,1771942316.1224623,-21.97265625,656.25,393.06640625,808.59375,0.0,0,0
1771942316.1727371,1771942316.1263635,-44.43359375,-499.0234375,-357.91015625,-324.70703125,0.0,0,0
1771942316.1727831,1771942316.1302648,-58.10546875,-984.375,-679.6875,-1000.0,0.0,0,0
1771942316.172828,1771942316.1341658,-20.5078125,83.0078125,-53.22265625,-211.42578125,0.0,0,0
1771942316.172875,1771942316.138067,13.18359375,-990.72265625,508.7890625,905.2734375,0.0,0,0
1771942316.172918,1771942316.1419683,14.16015625,758.30078125,457.03125,939.453125,0.0,0,0
1771942316.17296,1771942316.1458693,-12.20703125,-380.37109375,-300.29296875,-156.73828125,0.0,0,0
1771942316.173003,1771942316.1497705,-39.55078125,-926.7578125,-710.44921875,-1000.0,0.0,0,0
1771942316.173044,1771942316.1536717,-28.80859375,30.76171875,-114.2578125,-372.55859375,0.0,0,0
1771942316.217956,1771942316.157647,-11.23046875,969.23828125,495.60546875,791.50390625,0.0,0,0
1771942316.218123,1771942316.1615481,-17.08984375,737.3046875,470.21484375,970.703125,0.0,0,0
1771942316.218189,1771942316.1654494,-57.6171875,-356.4453125,-232.421875,-102.5390625,0.0,0,0
1771942316.21826,1771942316.1693506,-74.70703125,-972.65625,-658.69140625,-1000.0,0.0,0,0
1771942316.2183208,1771942316.1732516,-63.4765625,-210.9375,-227.05078125,-575.1953125,0.0,0,0
1771942316.218393,1771942316.1771529,-40.52734375,868.65234375,454.58984375,613.76953125,0.0,0,0
1771942316.218463,1771942316.181054,-25.87890625,855.46875,570.3125,-994.140625,0.0,0,0
1771942316.218524,1771942316.1849554,-56.15234375,-286.1328125,-167.48046875,-60.546875,0.0,0,0
1771942316.218601,1771942316.1888564,-78.61328125,-941.40625,-658.203125,-1000.0,0.0,0,0
1771942316.218669,1771942316.1927576,-61.03515625,-405.76171875,-341.30859375,-764.16015625,0.0,0,0
1771942316.218749,1771942316.1966588,-26.85546875,590.8203125,333.0078125,377.9296875,0.0,0,0
1771942316.2188349,1771942316.20056,-15.13671875,-949.21875,624.51171875,-940.91796875,0.0,0,0
1771942316.261924,1771942316.204524,-48.33984375,-91.30859375,-45.8984375,69.82421875,0.0,0,0
1771942316.262023,1771942316.2084253,-72.75390625,-1000.0,-640.13671875,-1000.0,0.0,0,0
1771942316.262069,1771942316.2123265,-59.08203125,-517.08984375,-430.6640625,-870.60546875,0.0,0,0
1771942316.2621162,1771942316.2162278,-26.85546875,514.16015625,274.4140625,225.5859375,0.0,0,0
1771942316.2621598,1771942316.220129,-8.7890625,-926.7578125,653.3203125,-916.50390625,0.0,0,0
1771942316.2622058,1771942316.22403,-28.80859375,81.0546875,62.01171875,240.72265625,0.0,0,0
1771942316.262249,1771942316.2279313,-51.26953125,-1000.0,-593.75,-927.734375,0.0,0,0
1771942316.262291,1771942316.2318325,-47.36328125,-704.1015625,-492.67578125,-948.73046875,0.0,0,0
1771942316.2623339,1771942316.2357337,-13.671875,328.61328125,210.44921875,112.79296875,0.0,0,0
1771942316.2623758,1771942316.239635,23.92578125,-959.47265625,643.5546875,-940.91796875,0.0,0,0
1771942316.26242,1771942316.243536,17.08984375,238.28125,177.734375,432.12890625,0.0,0,0
1771942316.262462,1771942316.2474372,-17.578125,-948.73046875,-533.203125,-773.4375,0.0,0,0
1771942316.3070562,1771942316.2513914,-25.390625,-794.43359375,-569.3359375,-991.69921875,0.0,0,0
1771942316.307188,1771942316.2552927,-4.8828125,264.16015625,127.9296875,64.94140625,0.0,0,0
1771942316.3072362,1771942316.259194,8.30078125,-967.7734375,620.1171875,-956.54296875,0.0,0,0
1771942316.3072808,1771942316.2630951,-4.8828125,331.54296875,267.578125,649.4140625,0.0,0,0
1771942316.307325,1771942316.2669961,-31.25,-859.375,-475.5859375,-564.453125,0.0,0,0
1771942316.3073668,1771942316.2708974,-36.1328125,-782.71484375,-583.984375,-1000.0,0.0,0,0
1771942316.3074088,1771942316.2747986,-17.08984375,242.1875,74.70703125,-0.48828125,0.0,0,0
1771942316.307452,1771942316.2786999,3.90625,-993.1640625,557.12890625,-986.328125,0.0,0,0
1771942316.307494,1771942316.282601,-0.48828125,599.12109375,355.46875,745.60546875,0.0,0,0
1771942316.3075368,1771942316.2865024,-41.015625,-637.6953125,-406.25,-421.38671875,0.0,0,0
1771942316.307588,1771942316.2904034,-58.59375,-937.01171875,-676.26953125,-1000.0,0.0,0,0
1771942316.307648,1771942316.2943046,-33.203125,218.75,20.5078125,-171.38671875,0.0,0,0
1771942316.410542,1771942316.2984817,-7.8125,-995.1171875,565.4296875,942.3828125,0.0,0,0
1771942316.4106948,1771942316.302383,-13.671875,662.59765625,424.8046875,854.4921875,0.0,0,0
1771942316.410762,1771942316.3062842,-38.57421875,-454.1015625,-298.33984375,-254.39453125,0.0,0,0
1771942316.410829,1771942316.3101854,-50.78125,-939.453125,-664.0625,-1000.0,0.0,0,0
1771942316.410888,1771942316.3140867,-33.203125,56.15234375,-83.0078125,-396.97265625,0.0,0,0
1771942316.410947,1771942316.317988,-16.11328125,-997.0703125,542.96875,804.6875,0.0,0,0
1771942316.411006,1771942316.3218892,-8.7890625,745.60546875,513.671875,924.8046875,0.0,0,0
1771942316.4110641,1771942316.3257904,-27.34375,-441.89453125,-262.20703125,-177.734375,0.0,0,0
1771942316.411123,1771942316.3296916,-44.43359375,-936.5234375,-687.01171875,-1000.0,0.0,0,0
1771942316.411168,1771942316.333593,-21.484375,-72.75390625,-170.41015625,-557.6171875,0.0,0,0
1771942316.4112551,1771942316.3374941,7.8125,898.92578125,496.09375,654.78515625,0.0,0,0
1771942316.4113028,1771942316.3413954,5.37109375,786.1328125,550.78125,976.5625,0.0,0,0
1771942316.412323,1771942316.345412,-26.3671875,-267.08984375,-183.10546875,-102.05078125,0.0,0,0
1771942316.412396,1771942316.3493133,-52.24609375,-1000.0,-664.0625,-1000.0,0.0,0,0
1771942316.412443,1771942316.3532145,-55.6640625,-354.00390625,-302.24609375,-763.18359375,0.0,0,0
1771942316.412488,1771942316.3571157,-35.15625,750.9765625,398.4375,421.38671875,0.0,0,0
1771942316.4125319,1771942316.361017,-21.484375,964.35546875,643.06640625,-974.12109375,0.0,0,0
1771942316.4125881,1771942316.3649185,-51.26953125,-91.796875,-54.19921875,-2.9296875,0.0,0,0
1771942316.412631,1771942316.3688197,-70.80078125,-1000.0,-666.9921875,-1000.0,0.0,0,0
1771942316.41268,1771942316.372721,-64.453125,-585.44921875,-427.734375,-879.39453125,0.0,0,0
1771942316.412729,1771942316.3766222,-45.8984375,588.8671875,327.63671875,259.765625,0.0,0,0
1771942316.412777,1771942316.3805234,-26.85546875,914.55078125,632.32421875,-948.73046875,0.0,0,0
1771942316.4128299,1771942316.3844247,-28.80859375,-204.58984375,-31.73828125,131.34765625,0.0,0,0
1771942316.4128819,1771942316.388326,-58.10546875,-991.69921875,-594.7265625,-965.8203125,0.0,0,0
1771942316.456992,1771942316.3923213,-66.89453125,-564.453125,-427.734375,-924.31640625,0.0,0,0
1771942316.457099,1771942316.3962226,-32.71484375,415.0390625,241.69921875,150.87890625,0.0,0,0
1771942316.457161,1771942316.4001238,5.859375,-944.3359375,662.109375,-924.8046875,0.0,0,0
1771942316.457226,1771942316.404025,-11.23046875,88.37890625,119.140625,374.0234375,0.0,0,0
1771942316.45728,1771942316.4079263,-54.6875,-985.83984375,-569.3359375,-827.63671875,0.0,0,0
1771942316.45733,1771942316.4118276,-47.8515625,-712.890625,-526.3671875,-987.79296875,0.0,0,0
1771942316.457373,1771942316.4157288,-6.8359375,230.46875,146.97265625,65.4296875,0.0,0,0
1771942316.4574149,1771942316.4196303,13.671875,-959.9609375,623.046875,-936.5234375,0.0,0,0
1771942316.457458,1771942316.4235315,0.9765625,268.06640625,220.703125,567.3828125,0.0,0,0
1771942316.457501,1771942316.4274328,-21.97265625,-941.89453125,-508.7890625,-666.9921875,0.0,0,0
1771942316.457578,1771942316.431334,-35.64453125,-714.84375,-554.6875,-1000.0,0.0,0,0
1771942316.457781,1771942316.4352353,-12.20703125,280.76171875,149.90234375,6.34765625,0.0,0,0
1771942316.501503,1771942316.4392214,19.53125,-993.65234375,608.3984375,-979.98046875,0.0,0,0
1771942316.501667,1771942316.4431226,13.671875,473.6328125,311.5234375,737.79296875,0.0,0,0
1771942316.501739,1771942316.4470239,-11.23046875,-771.97265625,-440.4296875,-446.77734375,0.0,0,0
1771942316.501802,1771942316.450925,-20.5078125,-887.20703125,-651.3671875,-1000.0,0.0,0,0
1771942316.501861,1771942316.4548266,12.20703125,245.60546875,38.57421875,-106.4453125,0.0,0,0
1771942316.501921,1771942316.4587278,37.109375,-970.21484375,593.75,965.8203125,0.0,0,0
1771942316.5019789,1771942316.462629,24.90234375,639.6484375,442.87109375,884.27734375,0.0,0,0
1771942316.502038,1771942316.4665303,-14.6484375,-519.53125,-324.70703125,-242.67578125,0.0,0,0
1771942316.502096,1771942316.4704316,-45.8984375,-1000.0,-692.87109375,-1000.0,0.0,0,0
1771942316.502162,1771942316.474333,-21.97265625,1.953125,-98.6328125,-272.4609375,0.0,0,0
1771942316.5022259,1771942316.4782343,5.37109375,-989.74609375,528.80859375,872.55859375,0.0,0,0
1771942316.502284,1771942316.4821355,0.48828125,791.50390625,495.60546875,942.3828125,0.0,0,0
1771942316.546433,1771942316.4861124,-38.0859375,-339.84375,-258.30078125,-149.4140625,0.0,0,0
1771942316.546602,1771942316.4900136,-58.10546875,-1000.0,-715.8203125,-1000.0,0.0,0,0
1771942316.546728,1771942316.4939148,-27.34375,-41.9921875,-152.83203125,-400.390625,0.0,0,0
1771942316.546793,1771942316.4978163,1.46484375,983.3984375,505.859375,750.9765625,0.0,0,0
1771942316.546874,1771942316.5017176,18.06640625,827.1484375,519.53125,-998.53515625,0.0,0,0
1771942316.5469282,1771942316.5056188,-5.37109375,-163.57421875,-188.4765625,-39.0625,0.0,0,0
1771942316.546974,1771942316.50952,-39.0625,-1000.0,-683.10546875,-1000.0,0.0,0,0
1771942316.547015,1771942316.5134213,-26.3671875,-331.0546875,-288.0859375,-642.08984375,0.0,0,0
1771942316.547061,1771942316.5173228,-5.37109375,825.1953125,403.3203125,544.921875,0.0,0,0
1771942316.547105,1771942316.521224,0.9765625,871.09375,574.70703125,-967.7734375,0.0,0,0
1771942316.547148,1771942316.5251253,-32.71484375,-255.859375,-105.46875,-3.90625,0.0,0,0
1771942316.5471969,1771942316.5290265,-61.5234375,-1000.0,-615.234375,-1000.0,0.0,0,0
1771942316.592024,1771942316.5329943,-56.15234375,-539.0625,-388.18359375,-808.59375,0.0,0,0
1771942316.5921762,1771942316.5368955,-31.25,573.73046875,308.10546875,325.1953125,0.0,0,0
1771942316.59224,1771942316.5407968,-17.578125,-937.5,646.484375,-913.0859375,0.0,0,0
1771942316.592302,1771942316.5446982,-43.45703125,-125.0,-41.015625,133.30078125,0.0,0,0
1771942316.592373,1771942316.5485995,-62.98828125,-1000.0,-625.48828125,-993.1640625,0.0,0,0
1771942316.592431,1771942316.5525007,-48.33984375,-451.171875,-395.99609375,-884.27734375,0.0,0,0
1771942316.5924811,1771942316.556402,-5.37109375,515.625,299.8046875,199.70703125,0.0,0,0
1771942316.592524,1771942316.5603034,26.3671875,882.32421875,625.9765625,-954.1015625,0.0,0,0
1771942316.5925682,1771942316.5642047,7.32421875,-123.53515625,33.69140625,260.7421875,0.0,0,0
1771942316.592611,1771942316.568106,-20.99609375,-1000.0,-595.703125,-881.34765625,0.0,0,0
1771942316.5926652,1771942316.5720072,-38.0859375,-691.89453125,-527.83203125,-967.28515625,0.0,0,0
1771942316.5927281,1771942316.5759087,-24.90234375,370.1171875,214.84375,91.796875,0.0,0,0
1771942316.6366642,1771942316.5798652,-1.46484375,-976.5625,657.71484375,-938.4765625,0.0,0,0
1771942316.6367638,1771942316.5837665,-20.5078125,194.82421875,175.29296875,491.69921875,0.0,0,0
1771942316.6368241,1771942316.5876677,-54.6875,-966.796875,-537.59765625,-725.5859375,0.0,0,0
1771942316.636888,1771942316.5915692,-57.6171875,-808.59375,-595.703125,-1000.0,0.0,0,0
1771942316.636946,1771942316.5954704,-40.0390625,243.65234375,124.51171875,19.53125,0.0,0,0
1771942316.6370041,1771942316.5993717,-21.484375,989.74609375,617.1875,-962.890625,0.0,0,0
1771942316.6370618,1771942316.603273,-22.4609375,293.45703125,245.1171875,672.8515625,0.0,0,0
1771942316.637121,1771942316.6071744,-55.17578125,-826.66015625,-478.515625,-521.97265625,0.0,0,0
1771942316.637187,1771942316.6110756,-69.82421875,-863.28125,-636.23046875,-1000.0,0.0,0,0
1771942316.637244,1771942316.614977,-50.29296875,195.3125,50.78125,-62.98828125,0.0,0,0
1771942316.63731,1771942316.6188784,-26.3671875,983.3984375,606.93359375,991.69921875,0.0,0,0
1771942316.637368,1771942316.6227796,-32.71484375,530.76171875,387.6953125,811.5234375,0.0,0,0
1771942316.696312,1771942316.6268024,-62.01171875,-579.58984375,-386.71875,-322.265625,0.0,0,0
1771942316.696407,1771942316.6307037,-72.265625,-995.60546875,-708.984375,-1000.0,0.0,0,0
1771942316.6964438,1771942316.634605,-48.828125,106.4453125,-32.71484375,-188.4765625,0.0,0,0
1771942316.696482,1771942316.6385064,-14.6484375,-993.1640625,548.33984375,927.24609375,0.0,0,0
1771942316.696518,1771942316.6424077,-0.9765625,775.87890625,441.89453125,923.828125,0.0,0,0
1771942316.696552,1771942316.6463091,-26.3671875,-288.57421875,-241.69921875,-163.0859375,0.0,0,0
1771942316.696586,1771942316.6502104,-49.31640625,-1000.0,-703.61328125,-1000.0,0.0,0,0
1771942316.696618,1771942316.6541116,-18.5546875,-129.8828125,-164.55078125,-400.390625,0.0,0,0
1771942316.696652,1771942316.658013,14.16015625,-995.60546875,527.34375,801.7578125,0.0,0,0
1771942316.696685,1771942316.6619143,10.25390625,722.16796875,510.25390625,940.4296875,0.0,0,0
1771942316.696718,1771942316.6658156,-14.16015625,-353.02734375,-252.44140625,-144.04296875,0.0,0,0
1771942316.696755,1771942316.669717,-35.15625,-990.72265625,-700.68359375,-1000.0,0.0,0,0
1771942316.740373,1771942316.6736548,-10.7421875,-250.48828125,-250.9765625,-590.8203125,0.0,0,0
1771942316.740473,1771942316.6775563,20.99609375,861.81640625,421.875,597.16796875,0.0,0,0
1771942316.7405078,1771942316.6814575,28.3203125,941.89453125,575.68359375,-978.515625,0.0,0,0
1771942316.740544,1771942316.685359,1.46484375,-191.40625,-146.484375,-38.0859375,0.0,0,0
1771942316.740581,1771942316.6892602,-29.296875,-997.0703125,-666.9921875,-1000.0,0.0,0,0
1771942316.740615,1771942316.6931615,-12.20703125,-296.875,-312.01171875,-715.33203125,0.0,0,0
1771942316.740649,1771942316.697063,17.08984375,735.3515625,365.234375,418.9453125,0.0,0,0
1771942316.740694,1771942316.7009642,6.34765625,936.5234375,583.49609375,-933.10546875,0.0,0,0
1771942316.7407281,1771942316.7048657,-39.55078125,-192.87109375,-69.82421875,99.12109375,0.0,0,0
1771942316.740772,1771942316.708767,-64.94140625,-1000.0,-620.60546875,-1000.0,0.0,0,0
1771942316.740809,1771942316.7126682,-58.10546875,-506.8359375,-397.4609375,-819.3359375,0.0,0,0
1771942316.740853,1771942316.7165697,-27.34375,510.7421875,290.0390625,270.5078125,0.0,0,0
1771942316.787678,1771942316.7205784,-3.41796875,-993.65234375,644.04296875,-926.7578125,0.0,0,0
1771942316.787773,1771942316.7244797,-13.18359375,-22.94921875,15.625,237.79296875,0.0,0,0
1771942316.787817,1771942316.7283812,-38.0859375,-1000.0,-626.953125,-933.59375,0.0,0,0
1771942316.787859,1771942316.7322824,-35.64453125,-707.51953125,-507.8125,-961.42578125,0.0,0,0
1771942316.787908,1771942316.736184,-0.9765625,373.046875,196.77734375,116.69921875,0.0,0,0
1771942316.787951,1771942316.7400851,22.94921875,-935.05859375,649.90234375,-921.875,0.0,0,0
1771942316.7879932,1771942316.7439864,7.8125,113.28125,132.8125,390.625,0.0,0,0
1771942316.7880352,1771942316.7478878,-41.015625,-1000.0,-576.66015625,-805.17578125,0.0,0,0
1771942316.788077,1771942316.751789,-70.80078125,-760.25390625,-573.2421875,-1000.0,0.0,0,0
1771942316.7881181,1771942316.7556906,-31.25,276.85546875,144.53125,-1.953125,0.0,0,0
1771942316.7881641,1771942316.7595918,-0.9765625,-982.421875,625.0,-965.8203125,0.0,0,0
1771942316.7882051,1771942316.7634933,-26.3671875,332.03125,240.72265625,543.9453125,0.0,0,0
1771942316.845092,1771942316.767488,-55.17578125,-852.05078125,-476.5625,-628.90625,0.0,0,0
1771942316.845237,1771942316.7713892,-54.6875,-888.671875,-613.28125,-1000.0,0.0,0,0
1771942316.845303,1771942316.7752907,-18.06640625,178.7109375,98.14453125,-93.75,0.0,0,0
1771942316.8455439,1771942316.779192,0.9765625,-959.47265625,620.60546875,-996.58203125,0.0,0,0
1771942316.845612,1771942316.7830935,-18.06640625,607.91015625,365.234375,717.28515625,0.0,0,0
1771942316.845672,1771942316.7869947,-40.0390625,-611.81640625,-375.9765625,-429.19921875,0.0,0,0
1771942316.8457391,1771942316.7908962,-54.6875,-975.5859375,-675.29296875,-1000.0,0.0,0,0
1771942316.845796,1771942316.7947974,-40.0390625,82.03125,-46.38671875,-265.625,0.0,0,0
1771942316.8458529,1771942316.798699,-15.13671875,-966.796875,525.87890625,920.41015625,0.0,0,0
1771942316.845911,1771942316.8026001,-23.4375,692.3828125,411.62109375,841.796875,0.0,0,0
1771942316.845969,1771942316.8065016,-56.640625,-516.11328125,-311.5234375,-281.73828125,0.0,0,0
1771942316.846027,1771942316.8104029,-76.66015625,-998.53515625,-691.89453125,-1000.0,0.0,0,0
1771942316.891938,1771942316.8144622,-44.43359375,11.71875,-125.0,-368.1640625,0.0,0,0
1771942316.8920882,1771942316.8183637,-14.16015625,988.76953125,505.859375,828.125,0.0,0,0
1771942316.8921542,1771942316.822265,-22.94921875,791.015625,476.5625,920.41015625,0.0,0,0
1771942316.892214,1771942316.8261664,-50.78125,-344.23828125,-270.5078125,-179.6875,0.0,0,0
1771942316.8922749,1771942316.8300676,-71.2890625,-929.6875,-690.91796875,-1000.0,0.0,0,0
1771942316.892333,1771942316.833969,-51.26953125,-44.921875,-208.0078125,-509.765625,0.0,0,0
1771942316.8924549,1771942316.8378706,-11.71875,863.76953125,395.5078125,655.76171875,0.0,0,0
1771942316.892528,1771942316.8417718,-1.46484375,916.50390625,521.484375,-981.93359375,0.0,0,0
1771942316.8925781,1771942316.8456733,-45.41015625,-103.515625,-150.390625,-35.15625,0.0,0,0
1771942316.8926342,1771942316.8495746,-75.1953125,-1000.0,-695.80078125,-1000.0,0.0,0,0
1771942316.89268,1771942316.853476,-62.01171875,-365.72265625,-339.84375,-688.96484375,0.0,0,0
1771942316.8927228,1771942316.8573775,-37.59765625,810.05859375,385.7421875,485.3515625,0.0,0,0
1771942316.921432,1771942316.861351,-30.2734375,951.66015625,608.3984375,-956.0546875,0.0,0,0
1771942316.921534,1771942316.8652523,-49.8046875,-174.31640625,-118.1640625,21.97265625,0.0,0,0
1771942316.9215958,1771942316.8691537,-71.2890625,-1000.0,-674.8046875,-1000.0,0.0,0,0
1771942316.921653,1771942316.8730552,-64.453125,-519.53125,-414.55078125,-808.59375,0.0,0,0
1771942316.921717,1771942316.8769565,-31.25,562.5,288.0859375,306.15234375,0.0,0,0
1771942316.921775,1771942316.880858,-14.6484375,958.984375,626.953125,-953.61328125,0.0,0,0
1771942316.921834,1771942316.8847594,-53.22265625,-174.8046875,-49.31640625,112.79296875,0.0,0,0
1771942316.9218931,1771942316.8886607,-95.21484375,-1000.0,-658.69140625,-975.09765625,0.0,0,0
1771942316.921951,1771942316.8925622,-80.56640625,-686.5234375,-503.41796875,-918.45703125,0.0,0,0
1771942316.9220102,1771942316.8964636,-52.24609375,363.28125,196.2890625,150.390625,0.0,0,0
1771942316.922055,1771942316.9003649,-45.41015625,-899.90234375,641.11328125,-915.0390625,0.0,0,0
1771942316.922097,1771942316.9042664,-58.59375,166.015625,104.98046875,385.25390625,0.0,0,0
1771942316.997182,1771942316.9083817,-81.0546875,-1000.0,-615.234375,-830.078125,0.0,0,0
1771942316.997347,1771942316.9122832,-90.8203125,-800.78125,-584.47265625,-985.83984375,0.0,0,0
1771942316.9974148,1771942316.9161844,-65.91796875,257.32421875,136.71875,72.265625,0.0,0,0
1771942316.9974778,1771942316.920086,-41.015625,-961.42578125,604.00390625,-943.359375,0.0,0,0
1771942316.9975429,1771942316.9239874,-48.828125,300.29296875,207.03125,583.984375,0.0,0,0
1771942316.997602,1771942316.9278889,-69.3359375,-900.87890625,-518.5546875,-639.6484375,0.0,0,0
1771942316.997674,1771942316.93179,-70.3125,-899.90234375,-654.296875,-1000.0,0.0,0,0
1771942316.997733,1771942316.9356916,-45.41015625,211.9140625,69.82421875,8.7890625,0.0,0,0
1771942316.997824,1771942316.939593,-32.2265625,-979.00390625,575.1953125,-971.19140625,0.0,0,0
1771942316.9978912,1771942316.9434946,-27.83203125,486.328125,286.62109375,736.328125,0.0,0,0
1771942316.997952,1771942316.947396,-44.43359375,-708.0078125,-451.66015625,-445.80078125,0.0,0,0
1771942316.9980302,1771942316.9512973,-64.94140625,-934.08203125,-696.77734375,-1000.0,0.0,0,0
1771942317.0117939,1771942316.9552562,-51.26953125,210.44921875,7.32421875,-84.9609375,0.0,0,0
1771942317.011883,1771942316.9591575,-42.48046875,-996.09375,535.15625,979.98046875,0.0,0,0
1771942317.0119438,1771942316.963059,-41.50390625,619.62890625,356.4453125,826.66015625,0.0,0,0
1771942317.012005,1771942316.9669604,-61.03515625,-545.8984375,-387.6953125,-305.17578125,0.0,0,0
1771942317.012065,1771942316.970862,-89.84375,-971.6796875,-729.4921875,-1000.0,0.0,0,0
1771942317.01213,1771942316.9747634,-71.2890625,162.109375,-56.640625,-277.34375,0.0,0,0
1771942317.012195,1771942316.9786649,-48.828125,-1000.0,495.60546875,867.1875,0.0,0,0
1771942317.0122519,1771942316.982566,-61.5234375,716.30859375,411.1328125,907.71484375,0.0,0,0
1771942317.012324,1771942316.9864676,-94.23828125,-361.81640625,-310.546875,-188.96484375,0.0,0,0
1771942317.0124009,1771942316.990369,-119.62890625,-1000.0,-766.6015625,-1000.0,0.0,0,0
1771942317.012466,1771942316.9942706,-98.6328125,-24.90234375,-182.12890625,-464.84375,0.0,0,0
1771942317.012542,1771942316.998172,-54.6875,999.0234375,459.47265625,733.3984375,0.0,0,0
1771942317.057428,1771942317.0021176,-47.8515625,812.98828125,473.6328125,951.171875,0.0,0,0
1771942317.057575,1771942317.0060189,-77.63671875,-235.3515625,-243.65234375,-131.34765625,0.0,0,0
1771942317.057655,1771942317.0099204,-94.23828125,-1000.0,-729.00390625,-1000.0,0.0,0,0
1771942317.057716,1771942317.0138218,-75.1953125,-340.33203125,-313.96484375,-711.9140625,0.0,0,0
1771942317.057777,1771942317.0177233,-32.2265625,817.3828125,381.8359375,501.46484375,0.0,0,0
1771942317.057837,1771942317.0216248,-18.06640625,992.1875,573.2421875,-965.33203125,0.0,0,0
1771942317.0578969,1771942317.0255263,-59.08203125,-133.30078125,-154.296875,-24.4140625,0.0,0,0
1771942317.057956,1771942317.0294275,-76.66015625,-1000.0,-731.4453125,-1000.0,0.0,0,0
1771942317.058031,1771942317.033329,-52.24609375,-458.49609375,-414.55078125,-817.87109375,0.0,0,0
1771942317.058103,1771942317.0372305,-26.85546875,671.38671875,311.03515625,336.42578125,0.0,0,0
1771942317.058163,1771942317.041132,-15.625,997.0703125,590.8203125,-953.61328125,0.0,0,0
1771942317.05824,1771942317.0450335,-18.06640625,-145.5078125,-91.796875,65.91796875,0.0,0,0
1771942317.1164951,1771942317.0489688,-33.203125,-1000.0,-671.875,-1000.0,0.0,0,0
1771942317.116639,1771942317.0528703,-38.0859375,-631.8359375,-501.953125,-892.08984375,0.0,0,0
1771942317.116708,1771942317.0567718,-14.6484375,401.85546875,200.1953125,198.73046875,0.0,0,0
1771942317.1167722,1771942317.060673,-15.13671875,-967.7734375,615.72265625,-934.5703125,0.0,0,0
1771942317.116833,1771942317.0645745,-59.5703125,33.203125,35.64453125,253.90625,0.0,0,0
1771942317.1168919,1771942317.068476,-108.88671875,-995.60546875,-583.49609375,-891.11328125,0.0,0,0
1771942317.116958,1771942317.0723774,-130.859375,-865.234375,-536.1328125,-1000.0,0.0,0,0
1771942317.11702,1771942317.076279,-119.62890625,207.03125,127.9296875,44.43359375,0.0,0,0
1771942317.1170921,1771942317.0801804,-104.00390625,-978.02734375,616.2109375,-944.82421875,0.0,0,0
1771942317.117152,1771942317.084082,-141.11328125,69.3359375,135.7421875,403.3203125,0.0,0,0
1771942317.117213,1771942317.0879831,-189.453125,-982.91015625,-564.94140625,-763.671875,0.0,0,0
1771942317.11729,1771942317.0918846,-208.0078125,-870.60546875,-604.4921875,-1000.0,0.0,0,0
1771942317.161477,1771942317.0958104,-187.98828125,185.546875,97.16796875,-64.453125,0.0,0,0
1771942317.1616352,1771942317.099712,-159.1796875,973.6328125,567.3828125,-989.74609375,0.0,0,0
1771942317.161706,1771942317.1036134,-165.52734375,383.30078125,250.0,584.47265625,0.0,0,0
1771942317.161767,1771942317.1075149,-187.01171875,-793.45703125,-495.60546875,-604.4921875,0.0,0,0
1771942317.1618292,1771942317.1114163,-184.5703125,-861.328125,-641.11328125,-1000.0,0.0,0,0
1771942317.161888,1771942317.1153178,-153.3203125,358.88671875,93.75,20.99609375,0.0,0,0
1771942317.1621351,1771942317.1192193,-125.0,963.8671875,510.7421875,964.84375,0.0,0,0
1771942317.162199,1771942317.1231208,-114.74609375,468.26171875,316.89453125,753.90625,0.0,0,0
1771942317.1622589,1771942317.127022,-144.04296875,-621.09375,-437.01171875,-393.06640625,0.0,0,0
1771942317.1623192,1771942317.1309235,-147.4609375,-951.171875,-734.375,-1000.0,0.0,0,0
1771942317.162375,1771942317.134825,-107.91015625,173.33984375,-20.01953125,-145.5078125,0.0,0,0
1771942317.162443,1771942317.1387265,-79.1015625,998.53515625,517.578125,913.57421875,0.0,0,0
1771942317.206413,1771942317.142718,-60.546875,644.04296875,369.140625,876.46484375,0.0,0,0
1771942317.206539,1771942317.1466196,-74.21875,-408.203125,-361.328125,-216.796875,0.0,0,0
1771942317.206604,1771942317.150521,-83.0078125,-1000.0,-773.4375,-1000.0,0.0,0,0
1771942317.2066638,1771942317.1544225,-56.15234375,-146.484375,-232.91015625,-426.7578125,0.0,0,0
1771942317.2067251,1771942317.158324,-18.06640625,999.0234375,430.17578125,771.97265625,0.0,0,0
1771942317.2067862,1771942317.1622255,-1.46484375,681.15234375,436.03515625,933.10546875,0.0,0,0
1771942317.206846,1771942317.166127,-38.0859375,-461.42578125,-338.8671875,-167.96875,0.0,0,0
1771942317.2069051,1771942317.1700284,-58.10546875,-1000.0,-791.50390625,-1000.0,0.0,0,0
1771942317.206961,1771942317.17393,-27.34375,-254.8828125,-309.5703125,-562.98828125,0.0,0,0
1771942317.207019,1771942317.1778314,1.953125,895.99609375,359.86328125,630.859375,0.0,0,0
1771942317.207077,1771942317.181733,10.25390625,860.3515625,465.33203125,-972.16796875,0.0,0,0
1771942317.207129,1771942317.1856341,-17.578125,-254.39453125,-252.44140625,-17.578125,0.0,0,0
1771942317.2966988,1771942317.189839,-30.2734375,-1000.0,-777.83203125,-1000.0,0.0,0,0
1771942317.296837,1771942317.1937404,-21.484375,-569.3359375,-460.44921875,-707.51953125,0.0,0,0
1771942317.296902,1771942317.1976418,-4.8828125,656.25,262.6953125,436.03515625,0.0,0,0
1771942317.296949,1771942317.2015436,20.5078125,822.75390625,518.5546875,-918.9453125,0.0,0,0
1771942317.2969952,1771942317.205445,8.30078125,-365.72265625,-194.82421875,136.71875,0.0,0,0
1771942317.297039,1771942317.2093465,-13.18359375,-1000.0,-749.0234375,-999.51171875,0.0,0,0
1771942317.2970822,1771942317.213248,-3.41796875,-907.2265625,-552.734375,-813.96484375,0.0,0,0
1771942317.2971258,1771942317.2171495,32.2265625,324.70703125,151.3671875,286.62109375,0.0,0,0
1771942317.297169,1771942317.221051,48.33984375,939.453125,504.39453125,-894.04296875,0.0,0,0
1771942317.297212,1771942317.2249525,19.53125,-209.9609375,-109.86328125,343.75,0.0,0,0
1771942317.297264,1771942317.228854,-7.8125,-1000.0,-726.07421875,-896.97265625,0.0,0,0
1771942317.297306,1771942317.2327554,-11.71875,-876.46484375,-612.79296875,-884.765625,0.0,0,0
1771942317.298843,1771942317.2367435,12.6953125,239.74609375,96.6796875,208.0078125,0.0,0,0
1771942317.298911,1771942317.240645,39.55078125,957.51953125,517.578125,-925.29296875,0.0,0,0
1771942317.298958,1771942317.2445464,15.625,-53.7109375,6.34765625,501.953125,0.0,0,0
1771942317.299003,1771942317.248448,-16.11328125,-1000.0,-689.94140625,-751.46484375,0.0,0,0
1771942317.2990458,1771942317.2523494,-22.4609375,-811.03515625,-670.8984375,-944.82421875,0.0,0,0
1771942317.29909,1771942317.2562509,4.39453125,280.76171875,55.17578125,146.484375,0.0,0,0
1771942317.299135,1771942317.2601526,36.62109375,944.82421875,494.62890625,-949.21875,0.0,0,0
1771942317.299196,1771942317.264054,26.3671875,77.63671875,75.68359375,657.2265625,0.0,0,0
1771942317.299239,1771942317.2679555,-0.48828125,-929.6875,-654.78515625,-564.94140625,0.0,0,0
1771942317.299293,1771942317.271857,1.46484375,-921.875,-741.2109375,-1000.0,0.0,0,0
1771942317.2993438,1771942317.2757585,29.296875,171.38671875,-7.8125,1.46484375,0.0,0,0
1771942317.299414,1771942317.27966,48.33984375,985.83984375,461.42578125,-982.421875,0.0,0,0
1771942317.341416,1771942317.2836213,36.1328125,394.04296875,193.84765625,792.48046875,0.0,0,0
1771942317.341536,1771942317.2875228,-2.44140625,-678.7109375,-554.19921875,-372.55859375,0.0,0,0
1771942317.341598,1771942317.2914243,-27.34375,-990.234375,-814.94140625,-1000.0,0.0,0,0
1771942317.341656,1771942317.295326,-12.20703125,75.68359375,-111.328125,-136.71875,0.0,0,0
1771942317.3417149,1771942317.2992275,10.25390625,-970.703125,432.12890625,961.9140625,0.0,0,0
1771942317.341773,1771942317.303129,6.34765625,662.109375,309.5703125,860.83984375,0.0,0,0
1771942317.341871,1771942317.3070304,-26.85546875,-522.4609375,-478.515625,-264.16015625,0.0,0,0
1771942317.341933,1771942317.310932,-40.0390625,-1000.0,-865.72265625,-1000.0,0.0,0,0
1771942317.341988,1771942317.3148336,-18.06640625,-38.0859375,-232.421875,-363.76953125,0.0,0,0
1771942317.342047,1771942317.3187351,9.27734375,959.9609375,337.40234375,809.5703125,0.0,0,0
1771942317.342109,1771942317.3226366,16.6015625,693.359375,316.89453125,928.22265625,0.0,0,0
1771942317.3421729,1771942317.326538,-7.32421875,-412.59765625,-399.90234375,-174.8046875,0.0,0,0
1771942317.3999832,1771942317.330491,-34.66796875,-1000.0,-836.42578125,-1000.0,0.0,0,0
1771942317.4001112,1771942317.3343925,-18.5546875,-241.69921875,-346.6796875,-565.4296875,0.0,0,0
1771942317.400185,1771942317.3382943,11.71875,891.6015625,299.31640625,652.83203125,0.0,0,0
1771942317.400244,1771942317.3421957,17.08984375,805.6640625,393.06640625,963.37890625,0.0,0,0
1771942317.400304,1771942317.3460972,-0.48828125,-316.89453125,-320.80078125,-129.39453125,0.0,0,0
1771942317.400363,1771942317.3499987,-23.4375,-966.30859375,-766.6015625,-1000.0,0.0,0,0
1771942317.4004211,1771942317.3539004,-27.83203125,-463.8671875,-412.109375,-741.69921875,0.0,0,0
1771942317.400492,1771942317.357802,4.8828125,664.55078125,223.6328125,439.453125,0.0,0,0
1771942317.4005601,1771942317.3617034,39.0625,887.20703125,451.171875,-991.69921875,0.0,0,0
1771942317.400629,1771942317.3656049,18.06640625,-306.15234375,-283.69140625,-50.78125,0.0,0,0
1771942317.400706,1771942317.3695064,-18.5546875,-1000.0,-821.2890625,-1000.0,0.0,0,0
1771942317.4007611,1771942317.373408,-26.3671875,-659.1796875,-533.203125,-871.09375,0.0,0,0
1771942317.432009,1771942317.3773506,-6.8359375,441.89453125,136.23046875,256.8359375,0.0,0,0
1771942317.4321039,1771942317.381252,0.9765625,917.48046875,466.796875,-968.26171875,0.0,0,0
1771942317.4321642,1771942317.3851535,-22.94921875,-211.42578125,-157.71484375,58.59375,0.0,0,0
1771942317.432223,1771942317.389055,-45.8984375,-1000.0,-761.71875,-983.88671875,0.0,0,0
1771942317.43228,1771942317.3929567,-47.8515625,-760.25390625,-617.1875,-986.81640625,0.0,0,0
1771942317.432344,1771942317.3968582,-15.625,435.546875,122.0703125,94.7265625,0.0,0,0
1771942317.432401,1771942317.4007597,8.7890625,866.2109375,485.83984375,-978.02734375,0.0,0,0
1771942317.43246,1771942317.4046612,-12.20703125,-201.171875,-95.21484375,200.1953125,0.0,0,0
1771942317.4325309,1771942317.408563,-59.5703125,-983.3984375,-745.60546875,-874.0234375,0.0,0,0
1771942317.432606,1771942317.4124644,-77.1484375,-947.265625,-715.8203125,-1000.0,0.0,0,0
1771942317.432672,1771942317.4163659,-44.43359375,128.90625,7.32421875,-33.203125,0.0,0,0
1771942317.432734,1771942317.4202673,-26.3671875,966.30859375,456.54296875,-967.7734375,0.0,0,0
1771942317.4916859,1771942317.4242,-36.62109375,22.94921875,1.953125,386.71875,0.0,0,0
1771942317.491818,1771942317.4281018,-50.29296875,-939.453125,-676.7578125,-724.12109375,0.0,0,0
1771942317.49189,1771942317.4320033,-40.52734375,-1000.0,-744.62890625,-1000.0,0.0,0,0
1771942317.49195,1771942317.4359047,-16.11328125,34.1796875,-65.4296875,-221.6796875,0.0,0,0
1771942317.492009,1771942317.4398062,59.08203125,-993.1640625,448.73046875,982.421875,0.0,0,0
1771942317.492069,1771942317.443708,107.91015625,275.390625,149.90234375,527.83203125,0.0,0,0
1771942317.492128,1771942317.4476094,69.3359375,-831.54296875,-632.32421875,-600.5859375,0.0,0,0
1771942317.492199,1771942317.451511,43.45703125,-1000.0,-854.00390625,-1000.0,0.0,0,0
1771942317.4922712,1771942317.4554124,63.4765625,102.5390625,-119.140625,-219.7265625,0.0,0,0
1771942317.492348,1771942317.459314,79.58984375,922.36328125,393.06640625,964.35546875,0.0,0,0
1771942317.492602,1771942317.4632156,63.4765625,389.6484375,199.21875,730.95703125,0.0,0,0
1771942317.492665,1771942317.467117,19.53125,-579.58984375,-543.45703125,-381.34765625,0.0,0,0
1771942317.536721,1771942317.4710422,-2.44140625,-1000.0,-905.76171875,-1000.0,0.0,0,0
1771942317.5368588,1771942317.4749436,20.5078125,-56.15234375,-232.421875,-503.90625,0.0,0,0
1771942317.536907,1771942317.4788451,47.8515625,-992.67578125,371.58203125,808.59375,0.0,0,0
1771942317.536951,1771942317.4827468,50.29296875,560.546875,282.71484375,762.6953125,0.0,0,0
1771942317.5369952,1771942317.4866483,15.625,-506.34765625,-461.42578125,-352.05078125,0.0,0,0
1771942317.537038,1771942317.4905498,-10.25390625,-1000.0,-890.625,-1000.0,0.0,0,0
1771942317.537086,1771942317.4944513,10.7421875,-268.5546875,-368.65234375,-648.4375,0.0,0,0
1771942317.537129,1771942317.498353,43.9453125,955.56640625,270.5078125,659.1796875,0.0,0,0
1771942317.537181,1771942317.5022545,41.015625,707.51953125,312.98828125,935.05859375,0.0,0,0
1771942317.5372229,1771942317.506156,6.34765625,-421.875,-448.73046875,-181.640625,0.0,0,0
1771942317.537267,1771942317.5100577,-9.765625,-1000.0,-918.45703125,-1000.0,0.0,0,0
1771942317.537308,1771942317.5139592,7.8125,-325.1953125,-464.84375,-771.484375,0.0,0,0
1771942317.596997,1771942317.5180223,33.69140625,853.02734375,247.55859375,494.140625,0.0,0,0
1771942317.597145,1771942317.5219238,35.15625,691.40625,372.55859375,964.35546875,0.0,0,0
1771942317.5972118,1771942317.5258255,3.90625,-446.2890625,-391.6015625,-147.4609375,0.0,0,0
1771942317.597274,1771942317.529727,-21.97265625,-1000.0,-918.45703125,-1000.0,0.0,0,0
1771942317.597332,1771942317.5336285,-15.625,-576.171875,-583.49609375,-881.34765625,0.0,0,0
1771942317.597402,1771942317.5375302,14.16015625,687.5,167.96875,295.41015625,0.0,0,0
1771942317.597461,1771942317.5414317,31.73828125,797.36328125,386.71875,-978.515625,0.0,0,0
1771942317.5975418,1771942317.5453331,9.27734375,-365.234375,-301.26953125,-21.97265625,0.0,0,0
1771942317.597623,1771942317.5492349,-21.484375,-1000.0,-889.16015625,-1000.0,0.0,0,0
1771942317.5976782,1771942317.5531363,-20.01953125,-737.79296875,-696.2890625,-1000.0,0.0,0,0
1771942317.597735,1771942317.5570378,3.41796875,481.93359375,113.28125,94.7265625,0.0,0,0
1771942317.597831,1771942317.5609396,26.3671875,838.37890625,446.77734375,-972.65625,0.0,0,0
1771942317.6264,1771942317.5649183,7.8125,-303.22265625,-214.35546875,113.76953125,0.0,0,0
1771942317.626518,1771942317.56882,-25.390625,-1000.0,-855.46875,-925.78125,0.0,0,0
1771942317.626585,1771942317.5727215,-29.296875,-849.12109375,-754.39453125,-1000.0,0.0,0,0
1771942317.626645,1771942317.576623,0.9765625,216.30859375,-9.27734375,-17.08984375,0.0,0,0
1771942317.626706,1771942317.5805247,24.4140625,989.2578125,437.98828125,-946.77734375,0.0,0,0
1771942317.626772,1771942317.5844262,6.8359375,61.5234375,-27.34375,336.42578125,0.0,0,0
1771942317.6268349,1771942317.588328,-13.671875,-985.83984375,-768.06640625,-804.19921875,0.0,0,0
1771942317.6268969,1771942317.5922294,-12.20703125,-931.640625,-833.49609375,-1000.0,0.0,0,0
1771942317.626955,1771942317.5961308,8.7890625,139.6484375,-64.453125,-98.6328125,0.0,0,0
1771942317.627029,1771942317.6000326,41.50390625,937.98828125,432.12890625,-953.61328125,0.0,0,0
1771942317.6270971,1771942317.603934,36.62109375,167.96875,71.77734375,620.1171875,0.0,0,0
1771942317.627163,1771942317.6078358,0.9765625,-843.26171875,-677.24609375,-582.51953125,0.0,0,0
1771942317.673569,1771942317.6118095,-4.39453125,-1000.0,-868.1640625,-1000.0,0.0,0,0
1771942317.673696,1771942317.6157112,10.7421875,83.0078125,-134.27734375,-96.6796875,0.0,0,0
1771942317.673762,1771942317.6196127,20.01953125,998.53515625,415.52734375,-988.28125,0.0,0,0
1771942317.6738281,1771942317.6235144,26.3671875,295.8984375,173.33984375,796.875,0.0,0,0
1771942317.673888,1771942317.627416,9.27734375,-729.98046875,-599.609375,-347.16796875,0.0,0,0
1771942317.6739478,1771942317.6313176,-15.625,-1000.0,-878.41796875,-1000.0,0.0,0,0
1771942317.674003,1771942317.635219,-0.9765625,-15.625,-209.47265625,-312.98828125,0.0,0,0
1771942317.674062,1771942317.6391208,24.4140625,972.65625,353.515625,917.48046875,0.0,0,0
1771942317.67412,1771942317.6430223,15.625,498.046875,244.140625,885.25390625,0.0,0,0
1771942317.674177,1771942317.646924,-21.97265625,-558.59375,-514.16015625,-232.421875,0.0,0,0
1771942317.6742342,1771942317.6508255,-27.83203125,-969.23828125,-898.4375,-1000.0,0.0,0,0
1771942317.674291,1771942317.654727,-8.7890625,-97.16796875,-314.94140625,-460.9375,0.0,0,0
1771942317.716684,1771942317.6586928,11.71875,958.984375,319.82421875,791.9921875,0.0,0,0
1771942317.716815,1771942317.6625943,13.18359375,637.6953125,326.66015625,935.546875,0.0,0,0
1771942317.716855,1771942317.666496,-17.08984375,-477.05078125,-454.58984375,-169.43359375,0.0,0,0
1771942317.716892,1771942317.6703975,-23.92578125,-1000.0,-911.1328125,-1000.0,0.0,0,0
1771942317.716925,1771942317.6742992,5.859375,-322.265625,-412.59765625,-666.9921875,0.0,0,0
1771942317.71696,1771942317.6782007,41.9921875,878.90625,289.55078125,602.5390625,0.0,0,0
1771942317.716994,1771942317.6821024,50.78125,592.28515625,354.00390625,987.3046875,0.0,0,0
1771942317.717047,1771942317.686004,19.04296875,-488.76953125,-407.2265625,-99.609375,0.0,0,0
1771942317.717094,1771942317.6899056,0.9765625,-1000.0,-901.3671875,-1000.0,0.0,0,0
1771942317.717126,1771942317.6938071,4.8828125,-685.05859375,-562.5,-850.5859375,0.0,0,0
1771942317.7171588,1771942317.6977088,37.59765625,602.5390625,194.3359375,382.32421875,0.0,0,0
1771942317.717212,1771942317.7016103,64.94140625,908.203125,488.28125,997.55859375,0.0,0,0
1771942317.761533,1771942317.705563,49.8046875,-275.390625,-261.23046875,-157.2265625,0.0,0,0
1771942317.761664,1771942317.7094646,57.12890625,-1000.0,-890.13671875,-1000.0,0.0,0,0
1771942317.7617102,1771942317.7133663,68.359375,-834.47265625,-629.39453125,-1000.0,0.0,0,0
1771942317.761756,1771942317.7172678,84.9609375,419.43359375,153.80859375,-5.37109375,0.0,0,0
1771942317.761801,1771942317.7211695,117.1875,930.17578125,516.11328125,960.9375,0.0,0,0
1771942317.7618449,1771942317.725071,93.75,-294.43359375,-159.66796875,-174.8046875,0.0,0,0
1771942317.761889,1771942317.7289727,48.828125,-1000.0,-860.83984375,-978.515625,0.0,0,0
1771942317.76194,1771942317.7328742,36.1328125,-927.734375,-746.09375,-1000.0,0.0,0,0
1771942317.7620008,1771942317.7367759,68.84765625,234.86328125,82.03125,-186.5234375,0.0,0,0
1771942317.762052,1771942317.7406774,90.33203125,859.375,507.8125,928.22265625,0.0,0,0
1771942317.762113,1771942317.744579,69.82421875,-183.10546875,-55.17578125,-43.45703125,0.0,0,0
1771942317.762167,1771942317.7484806,29.78515625,-963.8671875,-774.90234375,-922.36328125,0.0,0,0
1771942317.807852,1771942317.7524273,8.7890625,-984.375,-804.6875,-1000.0,0.0,0,0
1771942317.807963,1771942317.7563288,43.45703125,102.05078125,9.27734375,-282.2265625,0.0,0,0
1771942317.8080242,1771942317.7602305,69.3359375,928.22265625,522.4609375,979.4921875,0.0,0,0
1771942317.8080919,1771942317.764132,49.31640625,-17.578125,69.82421875,274.90234375,0.0,0,0
1771942317.808151,1771942317.7680337,28.3203125,-909.66796875,-686.5234375,-779.296875,0.0,0,0
1771942317.80821,1771942317.7719355,36.1328125,-979.4921875,-800.29296875,-1000.0,0.0,0,0
1771942317.808268,1771942317.775837,68.359375,26.3671875,-48.33984375,-347.65625,0.0,0,0
1771942317.808327,1771942317.7797387,88.37890625,979.4921875,491.2109375,963.8671875,0.0,0,0
1771942317.8083851,1771942317.7836401,91.30859375,129.39453125,163.57421875,453.61328125,0.0,0,0
1771942317.808444,1771942317.7875419,81.0546875,-852.5390625,-633.30078125,-651.3671875,0.0,0,0
1771942317.808502,1771942317.7914433,75.1953125,-945.3125,-857.91015625,-1000.0,0.0,0,0
1771942317.8085592,1771942317.795345,75.68359375,63.4765625,-113.28125,-502.44140625,0.0,0,0
1771942317.897349,1771942317.7995005,82.51953125,984.375,451.171875,843.26171875,0.0,0,0
1771942317.897494,1771942317.8034022,87.40234375,441.89453125,272.4609375,668.45703125,0.0,0,0
1771942317.897623,1771942317.807304,28.3203125,-600.09765625,-516.6015625,-463.37890625,0.0,0,0
1771942317.897868,1771942317.8112056,-12.20703125,-1000.0,-905.2734375,-1000.0,0.0,0,0
1771942317.897915,1771942317.815107,25.87890625,-125.0,-217.7734375,-637.20703125,0.0,0,0
1771942317.89796,1771942317.8190088,72.265625,-992.67578125,486.81640625,737.3046875,0.0,0,0
1771942317.898004,1771942317.8229105,85.9375,426.7578125,348.14453125,803.7109375,0.0,0,0
1771942317.898047,1771942317.826812,51.26953125,-619.62890625,-482.421875,-344.7265625,0.0,0,0
1771942317.89809,1771942317.8307137,19.53125,-1000.0,-916.9921875,-1000.0,0.0,0,0
1771942317.89813,1771942317.8346155,38.0859375,-266.11328125,-356.93359375,-766.6015625,0.0,0,0
1771942317.8981729,1771942317.838517,82.03125,974.609375,444.3359375,584.9609375,0.0,0,0
1771942317.8982148,1771942317.8424187,100.09765625,591.30859375,452.1484375,907.2265625,0.0,0,0
1771942317.90082,1771942317.8463612,57.12890625,-562.98828125,-421.875,-265.13671875,0.0,0,0
1771942317.900893,1771942317.8502626,37.109375,-1000.0,-907.2265625,-1000.0,0.0,0,0
1771942317.900942,1771942317.8541644,79.58984375,-435.05859375,-457.51953125,-897.94921875,0.0,0,0
1771942317.900995,1771942317.858066,112.79296875,778.3203125,316.89453125,351.5625,0.0,0,0
1771942317.901044,1771942317.8619678,114.74609375,863.28125,515.13671875,-999.0234375,0.0,0,0
1771942317.901093,1771942317.8658693,72.75390625,-225.09765625,-289.55078125,-144.53125,0.0,0,0
1771942317.901141,1771942317.869771,24.4140625,-1000.0,-916.015625,-1000.0,0.0,0,0
1771942317.9011881,1771942317.8736727,16.6015625,-674.31640625,-607.91015625,-1000.0,0.0,0,0
1771942317.9012558,1771942317.8775742,43.45703125,595.21484375,243.1640625,134.27734375,0.0,0,0
1771942317.901338,1771942317.881476,37.109375,862.3046875,551.26953125,-961.9140625,0.0,0,0
1771942317.901393,1771942317.8853776,5.37109375,-302.734375,-242.67578125,-33.203125,0.0,0,0
1771942317.901443,1771942317.8892794,-15.625,-1000.0,-899.4140625,-1000.0,0.0,0,0
1771942317.970175,1771942317.8932714,-12.6953125,-710.44921875,-687.01171875,-1000.0,0.0,0,0
1771942317.970316,1771942317.8971732,20.5078125,450.1953125,165.0390625,8.7890625,0.0,0,0
1771942317.970377,1771942317.901075,37.109375,973.14453125,567.3828125,-914.55078125,0.0,0,0
1771942317.970447,1771942317.9049766,10.7421875,-117.1875,-123.53515625,193.359375,0.0,0,0
1771942317.970508,1771942317.908878,-13.671875,-969.7265625,-838.8671875,-904.296875,0.0,0,0
1771942317.9705658,1771942317.9127798,-7.32421875,-803.7109375,-761.23046875,-1000.0,0.0,0,0
1771942317.970625,1771942317.9166815,41.50390625,147.94921875,70.80078125,-143.06640625,0.0,0,0
1771942317.970687,1771942317.9205832,91.796875,952.1484375,583.0078125,-920.8984375,0.0,0,0
1771942317.970746,1771942317.924485,79.58984375,63.96484375,37.109375,428.22265625,0.0,0,0
1771942317.970804,1771942317.9283864,50.29296875,-951.171875,-748.046875,-756.8359375,0.0,0,0
1771942317.970863,1771942317.9322882,37.109375,-836.42578125,-820.80078125,-1000.0,0.0,0,0
1771942317.970918,1771942317.93619,52.24609375,192.3828125,12.20703125,-176.7578125,0.0,0,0
1771942318.001994,1771942317.940167,72.265625,984.86328125,571.2890625,-948.73046875,0.0,0,0
1771942318.0021179,1771942317.9440687,56.15234375,215.33203125,155.2734375,619.62890625,0.0,0,0
1771942318.002188,1771942317.9479704,20.01953125,-873.046875,-668.45703125,-567.3828125,0.0,0,0
1771942318.0022569,1771942317.951872,13.18359375,-981.93359375,-899.4140625,-1000.0,0.0,0,0
1771942318.0023239,1771942317.9557736,49.31640625,116.2109375,-59.08203125,-241.69921875,0.0,0,0
1771942318.002392,1771942317.9596753,73.2421875,995.1171875,585.9375,-988.76953125,0.0,0,0
1771942318.002458,1771942317.963577,55.6640625,341.30859375,254.8828125,718.26171875,0.0,0,0
1771942318.002524,1771942317.9674788,20.99609375,-702.1484375,-578.61328125,-418.45703125,0.0,0,0
1771942318.0025952,1771942317.9713805,5.859375,-1000.0,-895.01953125,-1000.0,0.0,0,0
1771942318.0026581,1771942317.9752822,33.69140625,21.97265625,-154.78515625,-496.58203125,0.0,0,0
1771942318.002741,1771942317.9791837,67.3828125,-962.40234375,536.1328125,858.3984375,0.0,0,0
1771942318.002805,1771942317.9830854,82.03125,705.56640625,422.36328125,838.37890625,0.0,0,0
1771942318.0462961,1771942317.9870539,51.26953125,-439.94140625,-441.40625,-307.6171875,0.0,0,0
1771942318.046418,1771942317.9909556,24.4140625,-1000.0,-938.96484375,-1000.0,0.0,0,0
1771942318.046546,1771942317.9948573,57.6171875,-175.29296875,-288.57421875,-675.78125,0.0,0,0
1771942318.046597,1771942317.998759,83.49609375,994.140625,489.2578125,671.38671875,0.0,0,0
1771942318.046704,1771942318.0026608,85.9375,706.0546875,472.16796875,931.640625,0.0,0,0
1771942318.046766,1771942318.0065622,50.29296875,-353.02734375,-377.9296875,-196.77734375,0.0,0,0
