timestamp,lsl_timestamp,TP9,AF7,AF8,TP10,Right AUX,keypress_A,keypress_B
1765394650.02578,1765394649.9610825,25.87890625,-19.53125,-40.0390625,-293.45703125,0.0,0,0
1765394650.025972,1765394649.964977,-91.30859375,-20.01953125,-15.13671875,-402.83203125,0.0,0,0
1765394650.026006,1765394649.9688714,-142.578125,-34.66796875,-28.80859375,-483.3984375,0.0,0,0
1765394650.0260348,1765394649.972766,0.48828125,-24.4140625,-25.390625,662.109375,0.0,0,0
1765394650.0260549,1765394649.9766605,66.89453125,-25.87890625,-42.96875,320.80078125,0.0,0,0
1765394650.026072,1765394649.980555,34.66796875,-28.80859375,-38.57421875,-225.09765625,0.0,0,0
1765394650.02609,1765394649.9844496,-80.078125,-24.90234375,-2.44140625,-372.55859375,0.0,0,0
1765394650.0261068,1765394649.988344,-136.23046875,-28.3203125,-17.578125,-446.2890625,0.0,0,0
1765394650.026124,1765394649.9922385,-11.23046875,-20.01953125,-29.296875,602.5390625,0.0,0,0
1765394650.026141,1765394649.996133,70.3125,-18.5546875,-24.90234375,460.44921875,0.0,0,0
1765394650.026158,1765394650.0000277,50.78125,-27.83203125,-30.2734375,-143.5546875,0.0,0,0
1765394650.026175,1765394650.003922,-79.1015625,-34.1796875,-19.53125,-485.83984375,0.0,0,0
1765394650.070634,1765394650.0079205,-139.16015625,-28.80859375,-16.6015625,-425.78125,0.0,0,0
1765394650.070721,1765394650.011815,-28.80859375,-21.484375,-21.484375,522.94921875,0.0,0,0
1765394650.070752,1765394650.0157096,47.36328125,-26.3671875,-30.76171875,410.15625,0.0,0,0
1765394650.0707772,1765394650.0196042,61.03515625,-24.4140625,-24.4140625,-66.89453125,0.0,0,0
1765394650.070802,1765394650.0234988,-59.5703125,-27.34375,-7.8125,-491.69921875,0.0,0,0
1765394650.070826,1765394650.0273933,-142.578125,-30.76171875,-8.30078125,-390.625,0.0,0,0
1765394650.070851,1765394650.0312877,-53.7109375,-30.2734375,-20.99609375,309.08203125,0.0,0,0
1765394650.0708742,1765394650.0351822,32.71484375,-28.80859375,-33.203125,431.640625,0.0,0,0
1765394650.0708978,1765394650.0390768,56.640625,-29.78515625,-38.0859375,48.828125,0.0,0,0
1765394650.070921,1765394650.0429714,-59.08203125,-38.0859375,-20.5078125,-587.40234375,0.0,0,0
1765394650.070945,1765394650.046866,-145.99609375,-33.69140625,-8.7890625,-463.37890625,0.0,0,0
1765394650.0709682,1765394650.0507605,-74.70703125,-22.4609375,-13.18359375,172.8515625,0.0,0,0
1765394650.115969,1765394650.0547476,41.50390625,-17.08984375,-25.390625,543.45703125,0.0,0,0
1765394650.115999,1765394650.0586421,74.21875,-30.76171875,-39.55078125,100.09765625,0.0,0,0
1765394650.11601,1765394650.0625367,-37.59765625,-38.57421875,-24.4140625,-650.87890625,0.0,0,0
1765394650.116019,1765394650.0664313,-123.53515625,-26.85546875,-7.8125,-446.2890625,0.0,0,0
1765394650.116029,1765394650.0703259,-77.1484375,-18.06640625,-12.6953125,83.49609375,0.0,0,0
1765394650.1160371,1765394650.0742204,34.66796875,-17.08984375,-21.97265625,542.48046875,0.0,0,0
1765394650.1160462,1765394650.0781147,74.70703125,-19.04296875,-32.71484375,206.0546875,0.0,0,0
1765394650.116054,1765394650.0820093,-22.4609375,-25.87890625,-21.484375,-507.32421875,0.0,0,0
1765394650.116066,1765394650.085904,-131.8359375,-33.69140625,-17.578125,-554.6875,0.0,0,0
1765394650.116074,1765394650.0897985,-114.2578125,-29.296875,-32.2265625,-122.55859375,0.0,0,0
1765394650.116093,1765394650.093693,16.11328125,-22.4609375,-35.64453125,672.36328125,0.0,0,0
1765394650.116121,1765394650.0975876,64.453125,-24.4140625,-44.43359375,245.1171875,0.0,0,0
1765394650.160651,1765394650.1015692,-13.671875,-31.73828125,-38.57421875,-479.98046875,0.0,0,0
1765394650.1607199,1765394650.1054637,-118.1640625,-33.203125,-24.4140625,-487.3046875,0.0,0,0
1765394650.160753,1765394650.1093583,-116.2109375,-26.85546875,-25.390625,-147.4609375,0.0,0,0
1765394650.160785,1765394650.1132529,4.8828125,-24.4140625,-37.109375,659.66796875,0.0,0,0
1765394650.160838,1765394650.1171474,62.98828125,-32.2265625,-50.29296875,246.09375,0.0,0,0
1765394650.160871,1765394650.121042,17.08984375,-31.73828125,-30.76171875,-232.421875,0.0,0,0
1765394650.1609018,1765394650.1249366,-106.4453125,-31.25,-16.11328125,-385.7421875,0.0,0,0
1765394650.160953,1765394650.1288311,-143.06640625,-38.0859375,-29.78515625,-359.375,0.0,0,0
1765394650.160984,1765394650.1327257,-11.71875,-28.80859375,-31.25,703.61328125,0.0,0,0
1765394650.161014,1765394650.1366203,65.91796875,-19.04296875,-28.3203125,400.390625,0.0,0,0
1765394650.161044,1765394650.1405149,21.484375,-20.99609375,-23.4375,-386.23046875,0.0,0,0
1765394650.161073,1765394650.1444094,-109.86328125,-30.2734375,-20.5078125,-630.859375,0.0,0,0
1765394650.250627,1765394650.1483798,-141.11328125,-24.4140625,-23.92578125,-309.5703125,0.0,0,0
1765394650.250759,1765394650.1522744,-16.6015625,-12.6953125,-31.73828125,580.078125,0.0,0,0
1765394650.250792,1765394650.156169,58.59375,-15.13671875,-42.48046875,331.54296875,0.0,0,0
1765394650.250823,1765394650.1600635,39.0625,-18.06640625,-39.0625,-187.01171875,0.0,0,0
1765394650.2508821,1765394650.163958,-88.8671875,-23.4375,-19.53125,-483.3984375,0.0,0,0
1765394650.2509131,1765394650.1678526,-144.53125,-18.5546875,-12.20703125,-345.21484375,0.0,0,0
1765394650.250943,1765394650.1717472,-33.69140625,-6.34765625,-21.484375,562.5,0.0,0,0
1765394650.2509718,1765394650.1756418,45.41015625,-18.5546875,-37.59765625,344.7265625,0.0,0,0
1765394650.251002,1765394650.1795363,44.921875,-23.92578125,-42.96875,-177.734375,0.0,0,0
1765394650.25103,1765394650.183431,-87.40234375,-29.296875,-27.83203125,-548.828125,0.0,0,0
1765394650.25106,1765394650.1873255,-161.62109375,-34.1796875,-22.4609375,-489.74609375,0.0,0,0
1765394650.2510872,1765394650.19122,-47.36328125,-26.3671875,-33.203125,357.91015625,0.0,0,0
1765394650.266836,1765394650.1951904,42.48046875,-21.97265625,-38.57421875,511.23046875,0.0,0,0
1765394650.266933,1765394650.1990852,50.78125,-27.34375,-37.59765625,-49.8046875,0.0,0,0
1765394650.266965,1765394650.2029798,-75.1953125,-38.0859375,-24.90234375,-661.1328125,0.0,0,0
1765394650.266996,1765394650.2068744,-155.76171875,-35.15625,-16.11328125,-489.2578125,0.0,0,0
1765394650.2670279,1765394650.210769,-71.2890625,-24.4140625,-15.13671875,185.546875,0.0,0,0
1765394650.267058,1765394650.2146635,32.2265625,-18.06640625,-18.06640625,502.9296875,0.0,0,0
1765394650.2670872,1765394650.218558,60.05859375,-23.4375,-40.0390625,46.875,0.0,0,0
1765394650.267115,1765394650.2224526,-55.17578125,-34.66796875,-25.87890625,-648.92578125,0.0,0,0
1765394650.267144,1765394650.2263472,-146.97265625,-33.203125,-10.25390625,-518.06640625,0.0,0,0
1765394650.267173,1765394650.2302418,-88.8671875,-25.390625,-18.06640625,75.1953125,0.0,0,0
1765394650.2672021,1765394650.2341363,31.73828125,-20.5078125,-26.85546875,555.17578125,0.0,0,0
1765394650.26723,1765394650.238031,77.1484375,-21.484375,-38.0859375,133.30078125,0.0,0,0
1765394650.311618,1765394650.2420745,-33.69140625,-28.80859375,-32.2265625,-655.2734375,0.0,0,0
1765394650.311689,1765394650.245969,-141.11328125,-28.80859375,-19.53125,-526.85546875,0.0,0,0
1765394650.311716,1765394650.2498636,-93.75,-16.6015625,-17.578125,-9.765625,0.0,0,0
1765394650.3117409,1765394650.2537582,23.92578125,-16.6015625,-31.73828125,552.734375,0.0,0,0
1765394650.311768,1765394650.257653,63.4765625,-17.08984375,-41.9921875,189.94140625,0.0,0,0
1765394650.3117938,1765394650.2615476,-9.765625,-7.8125,-19.04296875,-395.5078125,0.0,0,0
1765394650.311819,1765394650.2654421,-126.46484375,-22.4609375,-8.7890625,-506.34765625,0.0,0,0
1765394650.3118432,1765394650.2693367,-129.8828125,-37.109375,-29.78515625,-292.48046875,0.0,0,0
1765394650.311867,1765394650.2732313,7.32421875,-16.11328125,-36.1328125,663.0859375,0.0,0,0
1765394650.3118908,1765394650.277126,59.5703125,-13.18359375,-39.55078125,292.48046875,0.0,0,0
1765394650.3119519,1765394650.2810206,0.48828125,-29.296875,-26.3671875,-373.53515625,0.0,0,0
1765394650.312008,1765394650.2849152,-115.72265625,-37.109375,-13.18359375,-499.0234375,0.0,0,0
1765394650.355646,1765394650.2889395,-132.32421875,-33.69140625,-17.578125,-237.3046875,0.0,0,0
1765394650.355757,1765394650.292834,1.46484375,-20.01953125,-19.04296875,701.171875,0.0,0,0
1765394650.355801,1765394650.2967286,62.5,-24.90234375,-33.69140625,230.95703125,0.0,0,0
1765394650.356215,1765394650.3006234,19.53125,-34.66796875,-21.97265625,-365.72265625,0.0,0,0
1765394650.3562481,1765394650.304518,-106.4453125,-36.1328125,-3.41796875,-463.37890625,0.0,0,0
1765394650.3562791,1765394650.3084126,-136.23046875,-25.87890625,-9.765625,-301.7578125,0.0,0,0
1765394650.356311,1765394650.3123074,-6.34765625,-15.625,-14.16015625,707.03125,0.0,0,0
1765394650.356339,1765394650.316202,36.1328125,-34.1796875,-41.50390625,185.546875,0.0,0,0
1765394650.3563678,1765394650.3200965,16.11328125,-28.80859375,-40.0390625,-293.45703125,0.0,0,0
1765394650.356396,1765394650.323991,-101.5625,-30.2734375,-18.06640625,-429.6875,0.0,0,0
1765394650.3564239,1765394650.3278859,-161.1328125,-44.921875,-27.83203125,-411.62109375,0.0,0,0
1765394650.356452,1765394650.3317804,-30.2734375,-25.390625,-27.34375,596.6796875,0.0,0,0
1765394650.402323,1765394650.3357937,36.62109375,-23.4375,-40.0390625,338.8671875,0.0,0,0
1765394650.402466,1765394650.3396885,39.0625,-25.390625,-32.2265625,-55.17578125,0.0,0,0
1765394650.4025228,1765394650.343583,-74.21875,-28.80859375,-4.39453125,-407.71484375,0.0,0,0
1765394650.402577,1765394650.347478,-142.578125,-28.3203125,-7.32421875,-406.25,0.0,0,0
1765394650.4026291,1765394650.3513725,-39.0625,-22.4609375,-16.11328125,553.7109375,0.0,0,0
1765394650.402682,1765394650.355267,39.0625,-21.97265625,-23.4375,493.65234375,0.0,0,0
1765394650.402733,1765394650.3591619,54.19921875,-21.97265625,-25.390625,16.6015625,0.0,0,0
1765394650.402795,1765394650.3630564,-76.171875,-28.80859375,-18.5546875,-571.77734375,0.0,0,0
1765394650.402855,1765394650.366951,-158.69140625,-19.53125,-15.13671875,-409.66796875,0.0,0,0
1765394650.402915,1765394650.3708458,-60.546875,-20.01953125,-11.71875,445.80078125,0.0,0,0
1765394650.4029891,1765394650.3747404,39.0625,-26.85546875,-20.5078125,526.85546875,0.0,0,0
1765394650.403059,1765394650.3786352,53.22265625,-28.3203125,-38.0859375,13.18359375,0.0,0,0
1765394650.446105,1765394650.382637,-67.3828125,-33.69140625,-24.90234375,-601.5625,0.0,0,0
1765394650.446213,1765394650.3865316,-151.3671875,-32.71484375,-9.27734375,-504.39453125,0.0,0,0
1765394650.446254,1765394650.3904264,-75.1953125,-25.87890625,-10.7421875,217.7734375,0.0,0,0
1765394650.446292,1765394650.394321,35.64453125,-24.4140625,-23.92578125,576.66015625,0.0,0,0
1765394650.4463308,1765394650.3982158,61.03515625,-29.78515625,-41.50390625,114.74609375,0.0,0,0
1765394650.446368,1765394650.4021103,-46.38671875,-36.1328125,-18.5546875,-456.54296875,0.0,0,0
1765394650.446406,1765394650.4060051,-144.53125,-37.59765625,-14.16015625,-564.453125,0.0,0,0
1765394650.446443,1765394650.4098997,-91.796875,-21.484375,-31.25,53.7109375,0.0,0,0
1765394650.446479,1765394650.4137943,36.1328125,-12.6953125,-37.109375,747.55859375,0.0,0,0
1765394650.446516,1765394650.417689,68.84765625,-23.92578125,-43.9453125,87.890625,0.0,0,0
1765394650.446553,1765394650.4215837,-21.484375,-31.25,-23.4375,-467.7734375,0.0,0,0
1765394650.446592,1765394650.4254785,-129.8828125,-39.0625,-13.671875,-515.13671875,0.0,0,0
1765394650.491383,1765394650.4294713,-109.86328125,-33.69140625,-18.06640625,-43.45703125,0.0,0,0
1765394650.491522,1765394650.4333658,16.11328125,-26.85546875,-28.3203125,753.41796875,0.0,0,0
1765394650.491565,1765394650.4372606,59.08203125,-27.83203125,-44.43359375,204.58984375,0.0,0,0
1765394650.4916039,1765394650.4411552,-7.8125,-25.87890625,-26.3671875,-382.8125,0.0,0,0
1765394650.491644,1765394650.44505,-119.62890625,-27.83203125,-13.671875,-515.13671875,0.0,0,0
1765394650.4916842,1765394650.4489446,-123.046875,-25.87890625,-14.6484375,-210.9375,0.0,0,0
1765394650.491734,1765394650.4528394,12.20703125,-5.859375,-24.90234375,720.703125,0.0,0,0
1765394650.49177,1765394650.456734,44.43359375,-12.20703125,-54.19921875,121.09375,0.0,0,0
1765394650.4918358,1765394650.4606287,-12.6953125,-34.1796875,-44.921875,-453.125,0.0,0,0
1765394650.491873,1765394650.4645233,-108.3984375,-33.69140625,-16.11328125,-410.15625,0.0,0,0
1765394650.491911,1765394650.4684181,-137.6953125,-26.85546875,-21.484375,-361.328125,0.0,0,0
1765394650.491957,1765394650.4723127,-8.30078125,-19.53125,-31.73828125,656.73828125,0.0,0,0
1765394650.5518441,1765394650.4763849,52.734375,-24.4140625,-41.015625,368.1640625,0.0,0,0
1765394650.551913,1765394650.4802797,16.6015625,-27.34375,-34.66796875,-236.81640625,0.0,0,0
1765394650.5519402,1765394650.4841745,-104.98046875,-29.78515625,-16.11328125,-539.0625,0.0,0,0
1765394650.5519638,1765394650.488069,-135.7421875,-22.94921875,-9.765625,-296.875,0.0,0,0
1765394650.551989,1765394650.4919639,-21.484375,-14.6484375,-28.80859375,554.19921875,0.0,0,0
1765394650.5520132,1765394650.4958587,58.10546875,-10.7421875,-38.0859375,404.296875,0.0,0,0
1765394650.552036,1765394650.4997532,50.29296875,-10.25390625,-31.25,-135.25390625,0.0,0,0
1765394650.55206,1765394650.503648,-98.14453125,-24.4140625,-26.85546875,-689.94140625,0.0,0,0
1765394650.552087,1765394650.5075428,-151.85546875,-24.90234375,-26.85546875,-407.71484375,0.0,0,0
1765394650.5521111,1765394650.5114374,-40.52734375,-18.5546875,-33.69140625,469.23828125,0.0,0,0
1765394650.552135,1765394650.5153322,52.24609375,-17.08984375,-36.62109375,453.61328125,0.0,0,0
1765394650.5521631,1765394650.5192268,55.17578125,-20.01953125,-36.1328125,-126.46484375,0.0,0,0
1765394650.5963142,1765394650.523202,-83.0078125,-30.2734375,-20.5078125,-629.8828125,0.0,0,0
1765394650.596509,1765394650.5270967,-153.3203125,-30.2734375,-15.13671875,-446.77734375,0.0,0,0
1765394650.596569,1765394650.5309913,-58.10546875,-23.4375,-22.4609375,325.68359375,0.0,0,0
1765394650.5966232,1765394650.5348861,39.0625,-22.94921875,-34.1796875,437.01171875,0.0,0,0
1765394650.5966752,1765394650.538781,57.12890625,-26.3671875,-42.96875,16.11328125,0.0,0,0
1765394650.596726,1765394650.5426755,-63.96484375,-29.296875,-14.16015625,-504.39453125,0.0,0,0
1765394650.596776,1765394650.5465703,-151.85546875,-33.69140625,-5.37109375,-538.0859375,0.0,0,0
1765394650.596833,1765394650.550465,-77.1484375,-32.71484375,-30.2734375,132.8125,0.0,0,0
1765394650.596895,1765394650.55436,38.57421875,-27.34375,-36.1328125,583.984375,0.0,0,0
1765394650.5969331,1765394650.5582545,67.3828125,-23.4375,-37.59765625,112.3046875,0.0,0,0
1765394650.596979,1765394650.5621493,-51.7578125,-23.4375,-26.85546875,-599.12109375,0.0,0,0
1765394650.597017,1765394650.566044,-139.16015625,-32.2265625,-15.625,-495.1171875,0.0,0,0
1765394650.641804,1765394650.570092,-80.56640625,-31.73828125,-19.04296875,55.6640625,0.0,0,0
1765394650.64196,1765394650.5739865,41.9921875,-22.94921875,-22.94921875,539.0625,0.0,0,0
1765394650.6420019,1765394650.5778813,89.35546875,-22.4609375,-25.390625,181.15234375,0.0,0,0
1765394650.64204,1765394650.5817761,-15.13671875,-30.76171875,-14.6484375,-580.56640625,0.0,0,0
1765394650.6420789,1765394650.585671,-106.93359375,-23.92578125,-8.7890625,-455.56640625,0.0,0,0
1765394650.642117,1765394650.5895658,-74.70703125,-14.6484375,-4.39453125,75.68359375,0.0,0,0
1765394650.642154,1765394650.5934603,30.2734375,-21.484375,-13.18359375,601.07421875,0.0,0,0
1765394650.6421912,1765394650.5973551,58.59375,-34.1796875,-43.45703125,61.03515625,0.0,0,0
1765394650.642231,1765394650.60125,-16.11328125,-33.69140625,-26.3671875,-498.53515625,0.0,0,0
1765394650.642268,1765394650.6051447,-111.81640625,-27.34375,-2.9296875,-413.57421875,0.0,0,0
1765394650.642304,1765394650.6090395,-119.140625,-31.25,-24.4140625,-271.484375,0.0,0,0
1765394650.6423419,1765394650.612934,14.6484375,-30.2734375,-27.83203125,610.83984375,0.0,0,0
1765394650.687406,1765394650.6169715,70.3125,-30.76171875,-29.78515625,189.94140625,0.0,0,0
1765394650.687604,1765394650.6208663,7.8125,-30.2734375,-20.5078125,-443.84765625,0.0,0,0
1765394650.687663,1765394650.624761,-106.4453125,-28.3203125,-5.37109375,-489.2578125,0.0,0,0
1765394650.687716,1765394650.628656,-125.0,-26.3671875,-10.25390625,-259.27734375,0.0,0,0
1765394650.6877718,1765394650.6325507,18.06640625,-13.18359375,-8.7890625,747.55859375,0.0,0,0
1765394650.687825,1765394650.6364453,84.47265625,-12.20703125,-20.01953125,270.5078125,0.0,0,0
1765394650.687878,1765394650.64034,33.69140625,-17.578125,-18.5546875,-276.85546875,0.0,0,0
1765394650.688273,1765394650.644235,-95.703125,-26.85546875,-14.6484375,-453.61328125,0.0,0,0
1765394650.688329,1765394650.6481297,-132.32421875,-30.76171875,-21.97265625,-330.078125,0.0,0,0
1765394650.688381,1765394650.6520245,-2.9296875,-16.6015625,-20.5078125,700.1953125,0.0,0,0
1765394650.6884322,1765394650.6559193,57.12890625,-20.99609375,-34.66796875,319.3359375,0.0,0,0
1765394650.688482,1765394650.6598141,34.66796875,-28.80859375,-28.80859375,-129.8828125,0.0,0,0
1765394650.731338,1765394650.6638386,-79.1015625,-24.4140625,-1.953125,-365.234375,0.0,0,0
1765394650.731503,1765394650.6677334,-142.08984375,-21.484375,-17.578125,-405.76171875,0.0,0,0
1765394650.7315469,1765394650.6716282,-19.04296875,-18.06640625,-36.1328125,630.37109375,0.0,0,0
1765394650.7315872,1765394650.675523,57.6171875,-24.4140625,-42.48046875,415.0390625,0.0,0,0
1765394650.7316248,1765394650.6794178,41.9921875,-34.1796875,-44.43359375,-119.140625,0.0,0,0
1765394650.731663,1765394650.6833127,-75.68359375,-31.73828125,-14.16015625,-396.484375,0.0,0,0
1765394650.731701,1765394650.6872075,-151.85546875,-31.73828125,-14.6484375,-517.08984375,0.0,0,0
1765394650.7317388,1765394650.6911023,-51.7578125,-28.80859375,-32.71484375,349.12109375,0.0,0,0
1765394650.731776,1765394650.694997,40.0390625,-27.34375,-43.45703125,433.59375,0.0,0,0
1765394650.731812,1765394650.6988919,44.43359375,-30.2734375,-53.22265625,-131.8359375,0.0,0,0
1765394650.73185,1765394650.7027867,-58.59375,-34.1796875,-29.78515625,-537.59765625,0.0,0,0
1765394650.731887,1765394650.7066815,-132.32421875,-33.69140625,-16.6015625,-482.421875,0.0,0,0
1765394650.776406,1765394650.7106948,-64.94140625,-28.3203125,-26.3671875,242.1875,0.0,0,0
1765394650.776473,1765394650.7145896,37.109375,-30.2734375,-31.73828125,537.109375,0.0,0,0
1765394650.776499,1765394650.7184844,66.89453125,-33.203125,-37.109375,-2.9296875,0.0,0,0
1765394650.776524,1765394650.7223792,-41.9921875,-33.203125,-14.16015625,-559.5703125,0.0,0,0
1765394650.7765481,1765394650.726274,-133.7890625,-37.109375,-4.39453125,-468.75,0.0,0,0
1765394650.776572,1765394650.7301688,-71.77734375,-29.78515625,-12.6953125,193.359375,0.0,0,0
1765394650.776596,1765394650.7340636,48.33984375,-21.484375,-22.94921875,644.04296875,0.0,0,0
1765394650.776619,1765394650.7379584,66.89453125,-32.2265625,-43.9453125,-8.7890625,0.0,0,0
1765394650.776643,1765394650.7418532,-45.8984375,-37.59765625,-23.4375,-560.05859375,0.0,0,0
1765394650.776711,1765394650.7457483,-132.32421875,-45.41015625,-6.8359375,-408.203125,0.0,0,0
1765394650.776771,1765394650.749643,-87.890625,-41.9921875,-20.01953125,74.70703125,0.0,0,0
1765394650.7768,1765394650.753538,28.80859375,-30.76171875,-31.25,626.46484375,0.0,0,0
1765394650.8521621,1765394650.7577157,67.87109375,-30.76171875,-40.52734375,193.84765625,0.0,0,0
1765394650.852295,1765394650.7616105,-26.3671875,-34.1796875,-22.4609375,-435.05859375,0.0,0,0
1765394650.852329,1765394650.7655053,-128.90625,-36.1328125,-9.27734375,-429.19921875,0.0,0,0
1765394650.85236,1765394650.7694004,-107.91015625,-31.73828125,-22.4609375,-49.31640625,0.0,0,0
1765394650.852392,1765394650.7732952,12.6953125,-24.90234375,-38.0859375,674.31640625,0.0,0,0
1765394650.852422,1765394650.77719,64.453125,-25.87890625,-41.9921875,270.5078125,0.0,0,0
1765394650.852452,1765394650.7810848,-8.7890625,-33.69140625,-33.69140625,-391.11328125,0.0,0,0
1765394650.8524811,1765394650.7849798,-126.46484375,-39.55078125,-29.78515625,-472.16796875,0.0,0,0
1765394650.852523,1765394650.7888746,-129.8828125,-35.64453125,-33.203125,-195.80078125,0.0,0,0
1765394650.852553,1765394650.7927694,0.9765625,-29.296875,-33.203125,716.30859375,0.0,0,0
1765394650.852601,1765394650.7966645,60.546875,-31.73828125,-39.0625,286.62109375,0.0,0,0
1765394650.852631,1765394650.8005593,5.859375,-37.109375,-33.69140625,-354.00390625,0.0,0,0
1765394650.865621,1765394650.8045523,-115.234375,-44.43359375,-22.4609375,-444.3359375,0.0,0,0
1765394650.865699,1765394650.8084474,-133.7890625,-38.0859375,-24.4140625,-294.921875,0.0,0,0
1765394650.8657448,1765394650.8123422,0.9765625,-24.90234375,-22.4609375,656.25,0.0,0,0
1765394650.8657851,1765394650.816237,62.5,-31.73828125,-33.203125,293.9453125,0.0,0,0
1765394650.865824,1765394650.820132,31.25,-32.71484375,-31.73828125,-304.6875,0.0,0,0
1765394650.865864,1765394650.8240268,-75.1953125,-23.92578125,0.48828125,-411.1328125,0.0,0,0
1765394650.8659031,1765394650.8279216,-110.83984375,-19.04296875,-2.9296875,-311.5234375,0.0,0,0
1765394650.8659399,1765394650.8318167,-6.34765625,-23.92578125,-33.69140625,515.625,0.0,0,0
1765394650.865977,1765394650.8357115,64.453125,-28.3203125,-46.38671875,282.71484375,0.0,0,0
1765394650.866015,1765394650.8396063,68.84765625,-18.06640625,-31.25,-73.2421875,0.0,0,0
1765394650.86606,1765394650.8435013,-63.4765625,-24.90234375,-13.671875,-429.19921875,0.0,0,0
1765394650.866097,1765394650.8473961,-131.8359375,-28.80859375,-17.578125,-407.71484375,0.0,0,0
1765394650.9250472,1765394650.8513806,-9.765625,-15.13671875,-22.94921875,572.75390625,0.0,0,0
1765394650.92522,1765394650.8552756,61.03515625,-19.04296875,-38.0859375,433.10546875,0.0,0,0
1765394650.92528,1765394650.8591704,57.12890625,-12.6953125,-41.50390625,-43.45703125,0.0,0,0
1765394650.925333,1765394650.8630652,-62.98828125,-16.11328125,-19.04296875,-527.34375,0.0,0,0
1765394650.925384,1765394650.8669603,-139.6484375,-29.78515625,-20.01953125,-488.76953125,0.0,0,0
1765394650.925437,1765394650.870855,-39.0625,-20.5078125,-22.4609375,492.67578125,0.0,0,0
1765394650.9254882,1765394650.8747501,43.9453125,-5.37109375,-39.0625,390.13671875,0.0,0,0
1765394650.92555,1765394650.878645,53.22265625,-12.20703125,-53.22265625,-133.7890625,0.0,0,0
1765394650.925605,1765394650.88254,-54.6875,-31.73828125,-19.04296875,-459.47265625,0.0,0,0
1765394650.925656,1765394650.8864348,-129.8828125,-33.69140625,-9.765625,-437.01171875,0.0,0,0
1765394650.925706,1765394650.8903296,-54.6875,-25.390625,-21.484375,166.50390625,0.0,0,0
1765394650.925775,1765394650.8942246,47.36328125,-22.4609375,-32.2265625,431.640625,0.0,0,0
1765394650.9714298,1765394650.898193,81.0546875,-19.53125,-32.71484375,131.34765625,0.0,0,0
1765394650.971583,1765394650.9020877,-22.94921875,-20.01953125,-8.7890625,-553.22265625,0.0,0,0
1765394650.9716249,1765394650.9059827,-117.67578125,-20.99609375,-7.32421875,-511.23046875,0.0,0,0
1765394650.971665,1765394650.9098775,-76.66015625,-20.5078125,-21.484375,54.6875,0.0,0,0
1765394650.971703,1765394650.9137726,37.109375,-25.390625,-35.64453125,561.5234375,0.0,0,0
1765394650.9717472,1765394650.9176674,84.47265625,-17.08984375,-37.59765625,262.20703125,0.0,0,0
1765394650.971787,1765394650.9215624,-20.01953125,-14.16015625,-12.6953125,-456.54296875,0.0,0,0
1765394650.971825,1765394650.9254572,-133.7890625,-32.71484375,-12.6953125,-576.66015625,0.0,0,0
1765394650.971874,1765394650.9293523,-97.16796875,-32.71484375,-27.83203125,-105.46875,0.0,0,0
1765394650.971912,1765394650.933247,27.34375,-24.90234375,-31.25,645.99609375,0.0,0,0
1765394650.971971,1765394650.9371421,71.77734375,-32.2265625,-33.69140625,179.19921875,0.0,0,0
1765394650.972008,1765394650.941037,-2.9296875,-36.1328125,-15.625,-459.47265625,0.0,0,0
1765394651.015465,1765394650.9450781,-104.4921875,-31.73828125,-4.8828125,-478.515625,0.0,0,0
1765394651.015533,1765394650.948973,-107.421875,-30.76171875,-22.94921875,-221.6796875,0.0,0,0
1765394651.015558,1765394650.952868,23.4375,-19.53125,-30.2734375,665.52734375,0.0,0,0
1765394651.015579,1765394650.9567628,83.0078125,-20.01953125,-39.55078125,271.484375,0.0,0,0
1765394651.0156002,1765394650.9606578,17.08984375,-26.85546875,-31.25,-338.37890625,0.0,0,0
1765394651.015624,1765394650.9645529,-96.6796875,-22.4609375,-1.953125,-400.390625,0.0,0,0
1765394651.015645,1765394650.9684477,-123.046875,-25.87890625,-20.99609375,-360.3515625,0.0,0,0
1765394651.0157409,1765394650.9723427,4.8828125,-28.3203125,-35.64453125,583.0078125,0.0,0,0
1765394651.015776,1765394650.9762375,78.125,-26.3671875,-33.69140625,274.90234375,0.0,0,0
1765394651.015796,1765394650.9801326,33.69140625,-28.3203125,-33.69140625,-370.60546875,0.0,0,0
1765394651.0159051,1765394650.9840274,-88.8671875,-29.296875,-17.08984375,-467.28515625,0.0,0,0
1765394651.015929,1765394650.9879224,-120.60546875,-22.94921875,-18.06640625,-308.59375,0.0,0,0
1765394651.060364,1765394650.9919512,-0.48828125,-14.6484375,-27.83203125,619.140625,0.0,0,0
1765394651.060407,1765394650.995846,67.87109375,-23.4375,-41.9921875,300.78125,0.0,0,0
1765394651.0604239,1765394650.999741,51.7578125,-30.76171875,-45.41015625,-268.06640625,0.0,0,0
1765394651.060437,1765394651.0036361,-76.171875,-33.69140625,-23.92578125,-526.85546875,0.0,0,0
1765394651.060528,1765394651.007531,-128.41796875,-31.25,-20.99609375,-327.63671875,0.0,0,0
1765394651.060544,1765394651.011426,-13.18359375,-18.5546875,-25.87890625,633.30078125,0.0,0,0
1765394651.060603,1765394651.015321,58.10546875,-18.5546875,-45.41015625,340.33203125,0.0,0,0
1765394651.060618,1765394651.0192158,51.7578125,-20.99609375,-42.96875,-130.37109375,0.0,0,0
1765394651.060651,1765394651.0231109,-75.1953125,-32.2265625,-25.390625,-458.0078125,0.0,0,0
1765394651.060711,1765394651.027006,-146.97265625,-37.59765625,-26.3671875,-477.5390625,0.0,0,0
1765394651.060736,1765394651.0309007,-40.52734375,-27.34375,-28.3203125,361.81640625,0.0,0,0
1765394651.06075,1765394651.0347958,52.734375,-28.3203125,-42.96875,407.71484375,0.0,0,0
1765394651.1058,1765394651.0388143,68.359375,-30.76171875,-40.0390625,-48.828125,0.0,0,0
1765394651.105831,1765394651.0427094,-59.5703125,-36.1328125,-20.5078125,-577.63671875,0.0,0,0
1765394651.105841,1765394651.0466044,-148.92578125,-28.3203125,-14.6484375,-497.0703125,0.0,0,0
1765394651.105851,1765394651.0504992,-58.59375,-15.625,-20.5078125,263.671875,0.0,0,0
1765394651.10586,1765394651.0543942,47.8515625,-19.53125,-39.0625,439.94140625,0.0,0,0
1765394651.105869,1765394651.0582893,72.75390625,-13.671875,-47.36328125,-10.7421875,0.0,0,0
1765394651.105879,1765394651.0621843,-43.9453125,-20.99609375,-28.80859375,-625.48828125,0.0,0,0
1765394651.105888,1765394651.0660791,-146.484375,-31.73828125,-22.4609375,-555.6640625,0.0,0,0
1765394651.105897,1765394651.0699742,-84.47265625,-23.92578125,-30.76171875,110.83984375,0.0,0,0
1765394651.105907,1765394651.0738692,41.015625,-12.20703125,-30.76171875,578.125,0.0,0,0
1765394651.1059148,1765394651.0777643,69.82421875,-10.7421875,-36.62109375,10.7421875,0.0,0,0
1765394651.105925,1765394651.081659,-27.83203125,-18.06640625,-16.6015625,-544.921875,0.0,0,0
1765394651.15085,1765394651.0856671,-125.9765625,-18.5546875,-1.46484375,-463.8671875,0.0,0,0
1765394651.150889,1765394651.0895622,-88.37890625,-13.671875,-14.6484375,-47.36328125,0.0,0,0
1765394651.150906,1765394651.0934572,34.66796875,-14.16015625,-28.80859375,666.015625,0.0,0,0
1765394651.150918,1765394651.0973523,61.03515625,-22.94921875,-46.38671875,76.171875,0.0,0,0
1765394651.15093,1765394651.1012473,-15.625,-25.390625,-30.2734375,-546.875,0.0,0,0
1765394651.1509418,1765394651.105142,-107.421875,-23.4375,0.9765625,-335.9375,0.0,0,0
1765394651.150953,1765394651.1090372,-97.16796875,-24.4140625,-5.37109375,-44.921875,0.0,0,0
1765394651.150966,1765394651.1129322,16.6015625,-23.92578125,-31.25,640.625,0.0,0,0
1765394651.150978,1765394651.1168272,51.7578125,-20.99609375,-52.734375,126.46484375,0.0,0,0
1765394651.150989,1765394651.1207223,6.8359375,-22.94921875,-29.296875,-300.29296875,0.0,0,0
1765394651.151001,1765394651.1246173,-104.00390625,-30.76171875,-4.39453125,-343.26171875,0.0,0,0
1765394651.1510122,1765394651.1285121,-128.90625,-35.15625,-22.4609375,-280.76171875,0.0,0,0
1765394651.19541,1765394651.1325083,18.5546875,-20.5078125,-27.34375,813.96484375,0.0,0,0
1765394651.195464,1765394651.136403,62.98828125,-23.4375,-39.0625,170.8984375,0.0,0,0
1765394651.1954792,1765394651.1402981,12.20703125,-33.69140625,-29.78515625,-347.65625,0.0,0,0
1765394651.195494,1765394651.1441932,-102.5390625,-35.15625,-10.7421875,-332.03125,0.0,0,0
1765394651.195507,1765394651.1480882,-140.625,-34.66796875,-23.4375,-354.98046875,0.0,0,0
1765394651.195521,1765394651.1519833,0.0,-20.01953125,-22.4609375,737.3046875,0.0,0,0
1765394651.1955352,1765394651.1558783,50.78125,-18.5546875,-41.015625,195.80078125,0.0,0,0
1765394651.1955478,1765394651.1597733,14.16015625,-24.90234375,-51.26953125,-445.80078125,0.0,0,0
1765394651.195561,1765394651.1636684,-97.65625,-34.1796875,-20.5078125,-439.94140625,0.0,0,0
1765394651.195573,1765394651.1675634,-140.625,-37.59765625,-17.08984375,-366.69921875,0.0,0,0
1765394651.195586,1765394651.1714585,-29.296875,-29.296875,-39.0625,462.890625,0.0,0,0
1765394651.195606,1765394651.1753533,40.52734375,-32.2265625,-55.17578125,305.6640625,0.0,0,0
1765394651.241333,1765394651.1793404,36.1328125,-35.64453125,-42.48046875,-91.30859375,0.0,0,0
1765394651.241378,1765394651.1832354,-97.65625,-37.59765625,-16.11328125,-525.390625,0.0,0,0
1765394651.241395,1765394651.1871305,-154.78515625,-33.203125,-23.92578125,-435.05859375,0.0,0,0
1765394651.24141,1765394651.1910255,-31.25,-24.90234375,-36.1328125,637.20703125,0.0,0,0
1765394651.2414248,1765394651.1949205,46.875,-29.78515625,-52.734375,355.95703125,0.0,0,0
1765394651.2414458,1765394651.1988156,49.8046875,-29.296875,-48.828125,-146.97265625,0.0,0,0
1765394651.241478,1765394651.2027106,-59.08203125,-25.87890625,-19.53125,-390.625,0.0,0,0
1765394651.241494,1765394651.2066057,-142.08984375,-29.78515625,-19.53125,-548.33984375,0.0,0,0
1765394651.2415092,1765394651.2105007,-48.33984375,-25.390625,-34.1796875,289.0625,0.0,0,0
1765394651.241524,1765394651.2143958,49.31640625,-24.90234375,-47.8515625,485.83984375,0.0,0,0
1765394651.241538,1765394651.2182908,66.40625,-21.97265625,-43.45703125,62.5,0.0,0,0
1765394651.2415519,1765394651.2221859,-50.29296875,-23.4375,-12.6953125,-478.02734375,0.0,0,0
1765394651.299098,1765394651.2261608,-148.4375,-33.203125,-11.71875,-552.734375,0.0,0,0
1765394651.2991629,1765394651.2300558,-76.171875,-26.85546875,-33.203125,125.0,0.0,0,0
1765394651.299191,1765394651.2339509,38.57421875,-15.625,-34.66796875,535.64453125,0.0,0,0
1765394651.299212,1765394651.237846,74.21875,-12.20703125,-37.59765625,126.953125,0.0,0,0
1765394651.299233,1765394651.241741,-40.0390625,-28.3203125,-23.4375,-571.77734375,0.0,0,0
1765394651.299253,1765394651.245636,-134.27734375,-31.73828125,-9.27734375,-400.87890625,0.0,0,0
1765394651.299273,1765394651.249531,-88.37890625,-16.6015625,-22.94921875,22.94921875,0.0,0,0
1765394651.2992918,1765394651.253426,22.4609375,-19.04296875,-46.875,359.375,0.0,0,0
1765394651.2993112,1765394651.2573211,73.73046875,-21.484375,-49.31640625,187.01171875,0.0,0,0
1765394651.2993312,1765394651.2612162,-19.53125,-19.53125,-20.99609375,-520.5078125,0.0,0,0
1765394651.299351,1765394651.2651112,-118.65234375,-13.671875,-2.44140625,-501.46484375,0.0,0,0
1765394651.29937,1765394651.2690065,-95.703125,-12.6953125,-15.625,-71.77734375,0.0,0,0
1765394651.3467011,1765394651.2729702,18.5546875,-15.13671875,-33.69140625,549.8046875,0.0,0,0
1765394651.346764,1765394651.2768652,68.84765625,-15.625,-47.8515625,194.82421875,0.0,0,0
1765394651.346792,1765394651.2807605,-13.671875,-27.83203125,-32.2265625,-502.9296875,0.0,0,0
1765394651.3468192,1765394651.2846556,-121.58203125,-33.203125,-14.16015625,-501.953125,0.0,0,0
1765394651.346844,1765394651.2885506,-116.69921875,-26.3671875,-17.578125,-145.99609375,0.0,0,0
1765394651.346869,1765394651.2924457,14.6484375,-21.484375,-16.6015625,672.36328125,0.0,0,0
1765394651.346892,1765394651.2963407,73.2421875,-21.97265625,-27.34375,243.1640625,0.0,0,0
1765394651.3469162,1765394651.3002357,9.27734375,-25.87890625,-23.92578125,-411.1328125,0.0,0,0
1765394651.3469398,1765394651.3041308,-110.3515625,-35.15625,-19.04296875,-516.11328125,0.0,0,0
1765394651.3469682,1765394651.3080258,-122.0703125,-32.71484375,-23.4375,-217.28515625,0.0,0,0
1765394651.346992,1765394651.311921,5.37109375,-18.06640625,-30.2734375,700.1953125,0.0,0,0
1765394651.347015,1765394651.315816,55.6640625,-21.484375,-47.8515625,216.30859375,0.0,0,0
1765394651.3931708,1765394651.319862,20.99609375,-28.80859375,-41.9921875,-379.39453125,0.0,0,0
1765394651.393259,1765394651.323757,-99.12109375,-30.76171875,-18.06640625,-489.2578125,0.0,0,0
1765394651.393502,1765394651.3276522,-131.34765625,-29.296875,-16.11328125,-313.4765625,0.0,0,0
1765394651.3935318,1765394651.3315473,-11.71875,-23.4375,-31.25,509.765625,0.0,0,0
1765394651.393559,1765394651.3354423,46.875,-24.4140625,-41.50390625,263.671875,0.0,0,0
1765394651.393583,1765394651.3393373,42.48046875,-22.4609375,-25.390625,-102.5390625,0.0,0,0
1765394651.39361,1765394651.3432324,-78.61328125,-23.92578125,-10.25390625,-469.7265625,0.0,0,0
1765394651.393634,1765394651.3471274,-134.27734375,-23.92578125,-16.6015625,-401.3671875,0.0,0,0
1765394651.3936589,1765394651.3510227,-18.06640625,-13.18359375,-20.5078125,582.03125,0.0,0,0
1765394651.393683,1765394651.3549178,61.5234375,-19.53125,-30.76171875,376.46484375,0.0,0,0
1765394651.393707,1765394651.3588128,66.89453125,-19.53125,-29.78515625,-87.890625,0.0,0,0
1765394651.393731,1765394651.3627079,-63.4765625,-14.16015625,-8.30078125,-464.84375,0.0,0,0
1765394651.465472,1765394651.3668425,-132.32421875,-14.16015625,-2.9296875,-409.66796875,0.0,0,0
1765394651.465559,1765394651.3707376,-30.2734375,-13.671875,-20.5078125,343.26171875,0.0,0,0
1765394651.46559,1765394651.3746326,56.640625,-14.16015625,-36.1328125,395.99609375,0.0,0,0
1765394651.465615,1765394651.3785279,73.2421875,-16.11328125,-27.34375,24.90234375,0.0,0,0
1765394651.4656398,1765394651.382423,-49.8046875,-24.4140625,-8.30078125,-531.25,0.0,0,0
1765394651.465663,1765394651.386318,-125.48828125,-20.5078125,-5.859375,-399.4140625,0.0,0,0
1765394651.465688,1765394651.3902133,-44.43359375,-7.8125,-14.16015625,317.3828125,0.0,0,0
1765394651.4657128,1765394651.3941083,57.6171875,-10.25390625,-30.2734375,465.8203125,0.0,0,0
1765394651.465738,1765394651.3980033,82.03125,-17.578125,-40.0390625,36.1328125,0.0,0,0
1765394651.4657621,1765394651.4018986,-35.15625,-23.92578125,-15.13671875,-535.15625,0.0,0,0
1765394651.4657862,1765394651.4057937,-124.51171875,-22.4609375,-9.27734375,-552.734375,0.0,0,0
1765394651.4658098,1765394651.4096887,-57.6171875,-15.13671875,-19.04296875,151.3671875,0.0,0,0
1765394651.48175,1765394651.413719,56.640625,-17.578125,-24.4140625,681.640625,0.0,0,0
1765394651.481806,1765394651.4176142,74.21875,-23.4375,-43.45703125,83.984375,0.0,0,0
1765394651.481838,1765394651.4215093,-30.2734375,-25.87890625,-27.83203125,-585.44921875,0.0,0,0
1765394651.481869,1765394651.4254045,-123.53515625,-24.90234375,-8.30078125,-425.78125,0.0,0,0
1765394651.4819012,1765394651.4292996,-92.28515625,-19.53125,-20.99609375,34.66796875,0.0,0,0
1765394651.481931,1765394651.4331949,30.2734375,-12.20703125,-26.85546875,623.046875,0.0,0,0
1765394651.481961,1765394651.43709,68.359375,-17.08984375,-38.0859375,110.3515625,0.0,0,0
1765394651.4819908,1765394651.440985,-21.97265625,-26.85546875,-28.80859375,-574.70703125,0.0,0,0
1765394651.482021,1765394651.4448802,-124.51171875,-29.296875,-17.08984375,-448.73046875,0.0,0,0
1765394651.4820921,1765394651.4487753,-111.81640625,-24.4140625,-27.83203125,-113.28125,0.0,0,0
1765394651.4821482,1765394651.4526706,16.6015625,-17.08984375,-37.59765625,639.16015625,0.0,0,0
1765394651.4821818,1765394651.4565656,66.89453125,-27.34375,-47.36328125,196.77734375,0.0,0,0
1765394651.527272,1765394651.4605787,1.46484375,-34.1796875,-34.1796875,-471.6796875,0.0,0,0
1765394651.527361,1765394651.464474,-112.79296875,-35.64453125,-17.578125,-502.9296875,0.0,0,0
1765394651.527395,1765394651.468369,-113.28125,-41.015625,-18.5546875,-201.171875,0.0,0,0
1765394651.527426,1765394651.4722643,20.99609375,-33.203125,-26.3671875,681.15234375,0.0,0,0
1765394651.527456,1765394651.4761593,66.89453125,-33.203125,-46.875,178.7109375,0.0,0,0
1765394651.527485,1765394651.4800546,24.4140625,-37.109375,-31.25,-301.7578125,0.0,0,0
1765394651.527524,1765394651.4839497,-89.84375,-31.25,-3.41796875,-365.72265625,0.0,0,0
1765394651.527555,1765394651.487845,-137.20703125,-22.94921875,-20.01953125,-357.421875,0.0,0,0
1765394651.527584,1765394651.49174,-16.11328125,-17.578125,-39.55078125,498.046875,0.0,0,0
1765394651.527613,1765394651.4956353,63.96484375,-18.06640625,-42.48046875,283.203125,0.0,0,0
1765394651.527642,1765394651.4995303,33.203125,-20.99609375,-27.83203125,-259.765625,0.0,0,0
1765394651.527672,1765394651.5034256,-97.65625,-26.3671875,-6.34765625,-534.1796875,0.0,0,0
1765394651.5703292,1765394651.5074208,-142.578125,-30.76171875,-17.578125,-412.59765625,0.0,0,0
1765394651.5703769,1765394651.5113158,-18.5546875,-25.87890625,-30.2734375,534.66796875,0.0,0,0
1765394651.570396,1765394651.515211,49.8046875,-26.85546875,-37.59765625,311.03515625,0.0,0,0
1765394651.570411,1765394651.5191061,39.55078125,-29.78515625,-39.0625,-202.63671875,0.0,0,0
1765394651.570459,1765394651.5230014,-84.9609375,-32.2265625,-21.484375,-497.0703125,0.0,0,0
1765394651.570493,1765394651.5268965,-140.13671875,-26.85546875,-13.671875,-338.37890625,0.0,0,0
1765394651.5705118,1765394651.5307918,-34.66796875,-27.34375,-25.87890625,410.64453125,0.0,0,0
1765394651.570559,1765394651.534687,43.45703125,-26.3671875,-46.38671875,309.08203125,0.0,0,0
1765394651.5706282,1765394651.538582,60.546875,-22.4609375,-43.9453125,-57.12890625,0.0,0,0
1765394651.570646,1765394651.5424774,-59.5703125,-29.78515625,-20.01953125,-527.83203125,0.0,0,0
1765394651.570678,1765394651.5463724,-137.6953125,-35.15625,-22.4609375,-479.4921875,0.0,0,0
1765394651.570697,1765394651.5502677,-47.8515625,-32.71484375,-33.69140625,329.1015625,0.0,0,0
1765394651.615741,1765394651.5542521,48.33984375,-28.80859375,-44.921875,486.328125,0.0,0,0
1765394651.615766,1765394651.5581474,70.3125,-32.71484375,-52.24609375,-47.36328125,0.0,0,0
1765394651.6157749,1765394651.5620427,-33.69140625,-29.78515625,-28.80859375,-570.80078125,0.0,0,0
1765394651.615784,1765394651.5659378,-112.79296875,-28.3203125,-25.390625,-497.0703125,0.0,0,0
1765394651.615793,1765394651.569833,-48.33984375,-32.2265625,-28.3203125,233.3984375,0.0,0,0
1765394651.615802,1765394651.5737283,52.24609375,-24.90234375,-19.53125,643.06640625,0.0,0,0
1765394651.615811,1765394651.5776234,75.68359375,-21.97265625,-29.78515625,174.31640625,0.0,0,0
1765394651.61582,1765394651.5815187,-53.22265625,-36.1328125,-23.4375,-634.765625,0.0,0,0
1765394651.6158369,1765394651.585414,-147.94921875,-39.0625,-10.7421875,-535.64453125,0.0,0,0
1765394651.6158469,1765394651.589309,-97.65625,-34.66796875,-11.71875,97.65625,0.0,0,0
1765394651.6158562,1765394651.5932043,3.90625,-33.203125,-24.90234375,541.015625,0.0,0,0
1765394651.6158762,1765394651.5970993,51.7578125,-33.69140625,-33.203125,165.0390625,0.0,0,0
1765394651.6606731,1765394651.6010735,-38.57421875,-43.45703125,-11.23046875,-468.75,0.0,0,0
1765394651.6607082,1765394651.6049688,-152.34375,-46.875,-7.32421875,-494.140625,0.0,0,0
1765394651.6607192,1765394651.6088638,-115.234375,-31.25,-17.08984375,-54.6875,0.0,0,0
1765394651.660728,1765394651.612759,24.90234375,-23.4375,-23.92578125,665.52734375,0.0,0,0
1765394651.660737,1765394651.6166544,65.4296875,-30.2734375,-40.0390625,141.6015625,0.0,0,0
1765394651.660746,1765394651.6205494,-1.46484375,-34.66796875,-15.13671875,-337.890625,0.0,0,0
1765394651.660755,1765394651.6244447,-112.79296875,-38.0859375,0.48828125,-393.06640625,0.0,0,0
1765394651.660765,1765394651.62834,-125.9765625,-37.59765625,-17.08984375,-270.01953125,0.0,0,0
1765394651.660774,1765394651.632235,12.6953125,-29.296875,-21.484375,705.078125,0.0,0,0
1765394651.660782,1765394651.6361303,62.01171875,-30.2734375,-30.76171875,214.84375,0.0,0,0
1765394651.66079,1765394651.6400256,7.32421875,-33.203125,-16.11328125,-272.4609375,0.0,0,0
1765394651.660799,1765394651.643921,-104.4921875,-34.66796875,0.0,-380.37109375,0.0,0,0
1765394651.749509,1765394651.6478841,-129.8828125,-34.1796875,-15.13671875,-276.85546875,0.0,0,0
1765394651.749547,1765394651.6517794,2.9296875,-21.97265625,-22.94921875,726.07421875,0.0,0,0
1765394651.749564,1765394651.6556747,69.82421875,-26.85546875,-25.87890625,328.125,0.0,0,0
1765394651.749579,1765394651.65957,32.71484375,-32.71484375,-17.08984375,-251.46484375,0.0,0,0
1765394651.7495942,1765394651.663465,-100.09765625,-41.9921875,-11.71875,-531.73828125,0.0,0,0
1765394651.749609,1765394651.6673603,-124.51171875,-31.73828125,-6.34765625,-211.9140625,0.0,0,0
1765394651.749681,1765394651.6712556,-7.32421875,-10.7421875,-16.6015625,625.0,0.0,0,0
1765394651.749697,1765394651.6751506,55.17578125,-22.94921875,-45.41015625,192.87109375,0.0,0,0
1765394651.749712,1765394651.679046,45.8984375,-29.78515625,-38.57421875,-209.9609375,0.0,0,0
1765394651.749727,1765394651.6829412,-77.63671875,-31.73828125,-13.18359375,-467.7734375,0.0,0,0
1765394651.749741,1765394651.6868365,-133.30078125,-34.66796875,-19.04296875,-424.31640625,0.0,0,0
1765394651.7497559,1765394651.6907315,-17.08984375,-20.01953125,-33.203125,569.3359375,0.0,0,0
1765394651.764384,1765394651.6946971,63.4765625,-20.5078125,-46.875,405.76171875,0.0,0,0
1765394651.764433,1765394651.6985924,53.22265625,-25.87890625,-42.96875,-81.0546875,0.0,0,0
1765394651.764451,1765394651.7024877,-76.171875,-28.3203125,-15.13671875,-477.05078125,0.0,0,0
1765394651.764467,1765394651.706383,-144.53125,-29.78515625,-17.08984375,-413.57421875,0.0,0,0
1765394651.764482,1765394651.710278,-40.52734375,-21.484375,-28.80859375,488.76953125,0.0,0,0
1765394651.7644968,1765394651.7141733,49.8046875,-19.53125,-27.34375,504.39453125,0.0,0,0
1765394651.764512,1765394651.7180686,59.08203125,-19.04296875,-36.1328125,-20.01953125,0.0,0,0
1765394651.764527,1765394651.721964,-67.3828125,-30.76171875,-28.3203125,-614.2578125,0.0,0,0
1765394651.7645419,1765394651.725859,-145.99609375,-37.109375,-15.13671875,-471.6796875,0.0,0,0
1765394651.764556,1765394651.7297542,-60.546875,-23.92578125,-23.92578125,284.66796875,0.0,0,0
1765394651.764571,1765394651.7336495,40.0390625,-21.484375,-38.0859375,516.11328125,0.0,0,0
1765394651.764586,1765394651.7375448,60.546875,-30.76171875,-50.78125,37.109375,0.0,0,0
1765394651.8128462,1765394651.7415779,-56.15234375,-35.15625,-26.3671875,-565.91796875,0.0,0,0
1765394651.812902,1765394651.7454731,-154.78515625,-35.64453125,-12.20703125,-487.3046875,0.0,0,0
1765394651.812923,1765394651.7493684,-87.890625,-29.78515625,-29.296875,211.42578125,0.0,0,0
1765394651.8129432,1765394651.7532637,34.1796875,-23.4375,-33.69140625,637.20703125,0.0,0,0
1765394651.81296,1765394651.7571588,69.82421875,-15.625,-32.71484375,114.2578125,0.0,0,0
1765394651.812978,1765394651.761054,-22.4609375,-5.859375,-13.18359375,-477.5390625,0.0,0,0
1765394651.812995,1765394651.7649493,-124.51171875,-15.13671875,-6.34765625,-495.60546875,0.0,0,0
1765394651.813012,1765394651.7688446,-106.93359375,-29.296875,-34.66796875,-189.453125,0.0,0,0
1765394651.813029,1765394651.77274,27.83203125,-21.484375,-42.96875,568.359375,0.0,0,0
1765394651.813046,1765394651.7766352,79.1015625,-19.04296875,-41.9921875,120.1171875,0.0,0,0
1765394651.8130639,1765394651.7805305,-13.671875,-31.73828125,-33.69140625,-629.8828125,0.0,0,0
1765394651.813081,1765394651.7844257,-107.91015625,-33.203125,-14.16015625,-457.51953125,0.0,0,0
1765394651.855377,1765394651.788448,-94.7265625,-23.92578125,-26.85546875,-113.28125,0.0,0,0
1765394651.855433,1765394651.7923434,36.1328125,-14.6484375,-34.1796875,735.3515625,0.0,0,0
1765394651.855454,1765394651.7962387,70.80078125,-24.4140625,-47.8515625,149.4140625,0.0,0,0
1765394651.855474,1765394651.800134,-0.48828125,-30.76171875,-39.55078125,-435.546875,0.0,0,0
1765394651.855493,1765394651.8040292,-110.3515625,-30.2734375,-14.6484375,-409.66796875,0.0,0,0
1765394651.855511,1765394651.8079245,-116.2109375,-26.3671875,-10.25390625,-194.3359375,0.0,0,0
1765394651.8555279,1765394651.8118198,5.859375,-23.4375,-27.83203125,590.33203125,0.0,0,0
1765394651.8555908,1765394651.815715,65.91796875,-26.85546875,-48.33984375,216.30859375,0.0,0,0
1765394651.855631,1765394651.8196104,35.64453125,-9.765625,-33.69140625,-322.265625,0.0,0,0
1765394651.855652,1765394651.8235056,-82.51953125,-15.13671875,-11.23046875,-509.27734375,0.0,0,0
1765394651.8556852,1765394651.827401,-109.375,-28.80859375,-14.6484375,-275.390625,0.0,0,0
1765394651.855708,1765394651.8312962,14.16015625,-14.6484375,-23.92578125,632.8125,0.0,0,0
1765394651.900623,1765394651.835309,73.2421875,-19.04296875,-41.015625,228.515625,0.0,0,0
1765394651.9006772,1765394651.8392043,40.52734375,-30.2734375,-43.9453125,-332.51953125,0.0,0,0
1765394651.900704,1765394651.8430996,-90.8203125,-32.2265625,-21.484375,-440.4296875,0.0,0,0
1765394651.9007292,1765394651.8469949,-140.13671875,-27.34375,-22.94921875,-308.10546875,0.0,0,0
1765394651.9007528,1765394651.8508902,-5.37109375,-13.671875,-30.76171875,591.796875,0.0,0,0
1765394651.9007769,1765394651.8547854,75.1953125,-12.6953125,-34.1796875,413.0859375,0.0,0,0
1765394651.900801,1765394651.8586807,58.59375,-18.5546875,-28.80859375,-90.8203125,0.0,0,0
1765394651.900824,1765394651.862576,-81.0546875,-26.85546875,-18.06640625,-531.73828125,0.0,0,0
1765394651.9008482,1765394651.8664713,-141.6015625,-26.85546875,-25.390625,-473.6328125,0.0,0,0
1765394651.900872,1765394651.8703666,-29.78515625,-19.53125,-32.2265625,448.73046875,0.0,0,0
1765394651.900898,1765394651.8742619,56.640625,-17.578125,-31.25,448.73046875,0.0,0,0
1765394651.900922,1765394651.8781571,60.546875,-23.4375,-30.76171875,-89.84375,0.0,0,0
1765394651.945962,1765394651.882154,-66.40625,-34.66796875,-18.06640625,-552.24609375,0.0,0,0
1765394651.94608,1765394651.8860493,-143.5546875,-28.80859375,-11.23046875,-445.80078125,0.0,0,0
1765394651.946125,1765394651.8899446,-49.8046875,-18.06640625,-19.53125,336.42578125,0.0,0,0
1765394651.946165,1765394651.89384,40.52734375,-20.01953125,-33.203125,436.5234375,0.0,0,0
1765394651.946204,1765394651.8977354,61.5234375,-27.83203125,-37.109375,-44.43359375,0.0,0,0
1765394651.946243,1765394651.9016306,-48.828125,-33.69140625,-13.671875,-522.94921875,0.0,0,0
1765394651.94628,1765394651.905526,-135.7421875,-31.25,-9.27734375,-399.4140625,0.0,0,0
1765394651.946319,1765394651.9094212,-61.5234375,-21.97265625,-18.5546875,248.046875,0.0,0,0
1765394651.9463649,1765394651.9133165,41.9921875,-23.92578125,-33.203125,518.5546875,0.0,0,0
1765394651.946404,1765394651.9172118,74.70703125,-32.71484375,-48.33984375,123.046875,0.0,0,0
1765394651.946441,1765394651.921107,-24.90234375,-35.64453125,-25.87890625,-477.5390625,0.0,0,0
1765394651.946479,1765394651.9250023,-128.90625,-29.78515625,-14.6484375,-480.46875,0.0,0,0
1765394651.9906502,1765394651.9289908,-81.54296875,-27.34375,-29.296875,95.703125,0.0,0,0
1765394651.9907598,1765394651.9328861,46.38671875,-27.34375,-39.55078125,632.32421875,0.0,0,0
1765394651.990793,1765394651.9367814,83.49609375,-19.04296875,-40.0390625,195.80078125,0.0,0,0
1765394651.990828,1765394651.9406767,-8.7890625,-23.4375,-25.87890625,-434.08203125,0.0,0,0
1765394651.990858,1765394651.944572,-114.74609375,-32.2265625,-23.92578125,-533.69140625,0.0,0,0
1765394651.9908879,1765394651.9484673,-81.0546875,-21.484375,-20.5078125,-25.87890625,0.0,0,0
1765394651.9909172,1765394651.9523628,44.43359375,-0.9765625,-17.08984375,757.8125,0.0,0,0
1765394651.9909482,1765394651.956258,71.77734375,-3.90625,-34.66796875,163.57421875,0.0,0,0
1765394651.990977,1765394651.9601533,-13.18359375,-30.76171875,-35.64453125,-599.609375,0.0,0,0
1765394651.991007,1765394651.9640486,-113.28125,-36.62109375,-19.53125,-462.890625,0.0,0,0
1765394651.991036,1765394651.967944,-106.93359375,-29.78515625,-12.20703125,-101.5625,0.0,0,0
1765394651.991078,1765394651.9718392,19.53125,-23.92578125,-26.3671875,619.62890625,0.0,0,0
1765394652.0640619,1765394651.9759,81.0546875,-27.34375,-43.9453125,247.55859375,0.0,0,0
1765394652.064134,1765394651.9797955,13.671875,-36.62109375,-27.83203125,-347.16796875,0.0,0,0
1765394652.064163,1765394651.9836907,-109.86328125,-41.50390625,-6.34765625,-492.67578125,0.0,0,0
1765394652.064189,1765394651.987586,-116.69921875,-38.57421875,-9.765625,-203.61328125,0.0,0,0
1765394652.064214,1765394651.9914813,9.27734375,-29.78515625,-20.99609375,656.25,0.0,0,0
1765394652.064238,1765394651.9953768,75.68359375,-25.87890625,-27.83203125,311.03515625,0.0,0,0
1765394652.0642629,1765394651.999272,28.3203125,-26.85546875,-30.2734375,-295.41015625,0.0,0,0
1765394652.064287,1765394652.0031674,-104.4921875,-33.69140625,-15.625,-559.5703125,0.0,0,0
1765394652.064312,1765394652.007063,-138.18359375,-40.52734375,-17.578125,-324.21875,0.0,0,0
1765394652.06447,1765394652.0109582,-11.71875,-30.2734375,-32.71484375,658.69140625,0.0,0,0
1765394652.064498,1765394652.0148535,61.5234375,-21.97265625,-33.203125,378.41796875,0.0,0,0
1765394652.064522,1765394652.0187488,41.50390625,-28.3203125,-26.3671875,-178.22265625,0.0,0,0
1765394652.095317,1765394652.0227177,-83.984375,-35.64453125,-1.953125,-490.72265625,0.0,0,0
1765394652.095372,1765394652.026613,-138.18359375,-29.296875,2.44140625,-350.5859375,0.0,0,0
1765394652.0953972,1765394652.0305083,-32.2265625,-22.94921875,-19.53125,473.6328125,0.0,0,0
1765394652.0954208,1765394652.0344038,44.921875,-26.85546875,-39.55078125,311.03515625,0.0,0,0
1765394652.095445,1765394652.038299,52.24609375,-30.2734375,-41.015625,-70.80078125,0.0,0,0
1765394652.095468,1765394652.0421944,-71.77734375,-36.1328125,-13.671875,-477.5390625,0.0,0,0
1765394652.095493,1765394652.04609,-143.06640625,-36.1328125,-10.25390625,-428.7109375,0.0,0,0
1765394652.095516,1765394652.0499852,-50.29296875,-33.69140625,-33.69140625,291.9921875,0.0,0,0
1765394652.095573,1765394652.0538805,40.0390625,-32.2265625,-47.36328125,382.8125,0.0,0,0
1765394652.095628,1765394652.057776,61.03515625,-23.4375,-42.48046875,46.38671875,0.0,0,0
1765394652.0956569,1765394652.0616713,-55.17578125,-24.90234375,-11.71875,-505.37109375,0.0,0,0
1765394652.095689,1765394652.0655665,-135.7421875,-31.25,-2.44140625,-404.296875,0.0,0,0
1765394652.141171,1765394652.0696049,-65.91796875,-31.25,-28.3203125,186.5234375,0.0,0,0
1765394652.1412601,1765394652.0735004,28.80859375,-28.80859375,-42.48046875,381.34765625,0.0,0,0
1765394652.141305,1765394652.0773957,65.4296875,-29.296875,-40.0390625,139.6484375,0.0,0,0
1765394652.141385,1765394652.081291,-51.26953125,-39.0625,-26.3671875,-585.9375,0.0,0,0
1765394652.1414201,1765394652.0851865,-138.671875,-36.62109375,-18.06640625,-382.32421875,0.0,0,0
1765394652.141452,1765394652.0890818,-82.03125,-24.90234375,-20.99609375,238.76953125,0.0,0,0
1765394652.141483,1765394652.0929773,20.5078125,-25.390625,-36.62109375,528.3203125,0.0,0,0
1765394652.1415129,1765394652.0968726,59.5703125,-30.76171875,-58.59375,143.06640625,0.0,0,0
1765394652.141543,1765394652.100768,-38.57421875,-36.62109375,-36.62109375,-497.55859375,0.0,0,0
1765394652.1415749,1765394652.1046634,-137.20703125,-26.85546875,-17.08984375,-462.890625,0.0,0,0
1765394652.1416068,1765394652.1085587,-102.5390625,-20.99609375,-30.76171875,4.8828125,0.0,0,0
1765394652.141637,1765394652.1124542,25.390625,-21.484375,-35.64453125,684.5703125,0.0,0,0
1765394652.1856582,1765394652.1164825,66.89453125,-22.4609375,-41.50390625,157.71484375,0.0,0,0
1765394652.1857312,1765394652.1203778,-13.671875,-21.484375,-23.4375,-488.28125,0.0,0,0
1765394652.1857579,1765394652.1242733,-114.2578125,-24.90234375,-3.41796875,-356.93359375,0.0,0,0
1765394652.1857831,1765394652.1281686,-109.86328125,-27.83203125,-14.6484375,-132.32421875,0.0,0,0
1765394652.185808,1765394652.132064,13.671875,-17.578125,-32.71484375,558.59375,0.0,0,0
1765394652.185832,1765394652.1359594,68.84765625,-14.16015625,-41.50390625,240.234375,0.0,0,0
1765394652.185856,1765394652.139855,7.32421875,-15.625,-26.3671875,-385.7421875,0.0,0,0
1765394652.18588,1765394652.1437502,-107.91015625,-26.3671875,-17.08984375,-484.86328125,0.0,0,0
1765394652.185903,1765394652.1476457,-113.28125,-22.4609375,-29.296875,-275.390625,0.0,0,0
1765394652.185927,1765394652.151541,12.20703125,-10.7421875,-37.109375,659.66796875,0.0,0,0
1765394652.18595,1765394652.1554365,60.05859375,-24.4140625,-47.36328125,167.48046875,0.0,0,0
1765394652.1859741,1765394652.1593318,19.04296875,-31.25,-37.109375,-422.8515625,0.0,0,0
1765394652.2316139,1765394652.1633484,-102.5390625,-36.1328125,-22.4609375,-478.02734375,0.0,0,0
1765394652.2316859,1765394652.1672437,-134.765625,-34.66796875,-22.94921875,-350.09765625,0.0,0,0
1765394652.231717,1765394652.1711392,-16.11328125,-20.99609375,-25.87890625,585.9375,0.0,0,0
1765394652.2317429,1765394652.1750348,52.24609375,-20.5078125,-34.66796875,306.15234375,0.0,0,0
1765394652.23177,1765394652.17893,29.78515625,-20.99609375,-33.69140625,-239.74609375,0.0,0,0
1765394652.2317948,1765394652.1828256,-88.8671875,-21.97265625,-14.6484375,-513.671875,0.0,0,0
1765394652.231819,1765394652.1867208,-136.71875,-27.34375,-8.7890625,-386.23046875,0.0,0,0
1765394652.2318442,1765394652.1906164,-35.15625,-31.25,-21.97265625,482.91015625,0.0,0,0
1765394652.2318668,1765394652.194512,50.78125,-18.5546875,-42.96875,302.734375,0.0,0,0
1765394652.231891,1765394652.1984072,53.22265625,-16.11328125,-32.2265625,-114.74609375,0.0,0,0
1765394652.231915,1765394652.2023027,-75.68359375,-37.109375,-1.953125,-495.1171875,0.0,0,0
1765394652.231939,1765394652.206198,-143.5546875,-38.57421875,-7.8125,-456.0546875,0.0,0,0
1765394652.2767098,1765394652.2102082,-39.0625,-28.80859375,-25.390625,392.578125,0.0,0,0
1765394652.277081,1765394652.2141035,51.26953125,-28.80859375,-37.109375,375.9765625,0.0,0,0
1765394652.277183,1765394652.217999,54.19921875,-35.64453125,-34.1796875,-97.16796875,0.0,0,0
1765394652.2772732,1765394652.2218945,-64.94140625,-43.45703125,-8.7890625,-533.69140625,0.0,0,0
1765394652.277361,1765394652.2257898,-136.23046875,-39.55078125,-5.37109375,-430.17578125,0.0,0,0
1765394652.27745,1765394652.2296853,-53.22265625,-26.85546875,-12.6953125,373.046875,0.0,0,0
1765394652.277537,1765394652.2335808,31.73828125,-27.83203125,-28.3203125,462.40234375,0.0,0,0
1765394652.277631,1765394652.237476,45.41015625,-25.390625,-48.828125,-133.7890625,0.0,0,0
1765394652.2777169,1765394652.2413716,-56.15234375,-25.390625,-30.2734375,-517.08984375,0.0,0,0
1765394652.277802,1765394652.2452672,-141.11328125,-36.62109375,-12.20703125,-380.859375,0.0,0,0
1765394652.277888,1765394652.2491624,-81.0546875,-31.25,-18.5546875,180.6640625,0.0,0,0
1765394652.277973,1765394652.253058,30.76171875,-29.296875,-35.64453125,521.97265625,0.0,0,0
1765394652.3506088,1765394652.2572212,62.5,-35.15625,-44.921875,122.0703125,0.0,0,0
1765394652.3507562,1765394652.2611165,-40.0390625,-39.0625,-14.6484375,-425.29296875,0.0,0,0
1765394652.350785,1765394652.265012,-128.41796875,-38.0859375,-1.953125,-398.92578125,0.0,0,0
1765394652.3508108,1765394652.2689075,-86.42578125,-34.66796875,-18.06640625,41.015625,0.0,0,0
1765394652.350836,1765394652.272803,27.83203125,-29.78515625,-32.2265625,526.3671875,0.0,0,0
1765394652.350859,1765394652.2766986,78.125,-28.3203125,-35.64453125,204.1015625,0.0,0,0
1765394652.3508842,1765394652.280594,-21.484375,-40.52734375,-21.97265625,-549.8046875,0.0,0,0
1765394652.3509068,1765394652.2844894,-126.953125,-33.203125,-14.16015625,-474.12109375,0.0,0,0
1765394652.350932,1765394652.288385,-99.609375,-32.71484375,-27.83203125,-72.265625,0.0,0,0
1765394652.350955,1765394652.2922804,28.3203125,-32.71484375,-32.71484375,649.90234375,0.0,0,0
1765394652.350979,1765394652.296176,69.82421875,-21.484375,-36.62109375,155.76171875,0.0,0,0
1765394652.351003,1765394652.3000715,0.48828125,-26.85546875,-24.90234375,-450.68359375,0.0,0,0
1765394652.366373,1765394652.3040633,-105.46875,-32.71484375,-7.8125,-449.70703125,0.0,0,0
1765394652.3664799,1765394652.3079588,-117.1875,-36.62109375,-23.4375,-307.6171875,0.0,0,0
1765394652.3665159,1765394652.3118544,17.578125,-28.80859375,-34.1796875,694.82421875,0.0,0,0
1765394652.3665469,1765394652.31575,70.80078125,-30.76171875,-42.96875,226.07421875,0.0,0,0
1765394652.366577,1765394652.3196454,20.01953125,-34.66796875,-35.15625,-367.1875,0.0,0,0
1765394652.366606,1765394652.3235407,-88.37890625,-32.71484375,-13.671875,-362.3046875,0.0,0,0
1765394652.366635,1765394652.3274362,-106.4453125,-26.3671875,-17.578125,-206.0546875,0.0,0,0
1765394652.366664,1765394652.3313317,7.32421875,-26.3671875,-37.59765625,537.109375,0.0,0,0
1765394652.366693,1765394652.3352273,61.03515625,-31.73828125,-54.19921875,171.875,0.0,0,0
1765394652.366722,1765394652.3391228,37.59765625,-26.85546875,-38.57421875,-218.75,0.0,0,0
1765394652.366751,1765394652.3430183,-83.0078125,-25.390625,-16.11328125,-431.640625,0.0,0,0
1765394652.3667798,1765394652.3469138,-123.53515625,-22.94921875,-26.85546875,-321.77734375,0.0,0,0
1765394652.427288,1765394652.3508961,-1.953125,-16.6015625,-32.71484375,648.4375,0.0,0,0
1765394652.4274309,1765394652.3547914,51.7578125,-30.76171875,-46.875,250.9765625,0.0,0,0
1765394652.427487,1765394652.358687,32.2265625,-18.06640625,-46.875,-194.3359375,0.0,0,0
1765394652.42754,1765394652.3625824,-84.47265625,-13.671875,-17.08984375,-389.16015625,0.0,0,0
1765394652.427594,1765394652.366478,-146.97265625,-40.0390625,-21.97265625,-459.47265625,0.0,0,0
1765394652.427646,1765394652.3703735,-27.83203125,-24.90234375,-23.92578125,614.2578125,0.0,0,0
1765394652.427698,1765394652.374269,48.828125,-15.625,-35.64453125,380.37109375,0.0,0,0
1765394652.4277482,1765394652.3781645,40.0390625,-27.34375,-49.8046875,-219.23828125,0.0,0,0
1765394652.427799,1765394652.38206,-68.359375,-33.203125,-15.625,-429.6875,0.0,0,0
1765394652.427849,1765394652.3859556,-135.7421875,-33.69140625,-3.41796875,-382.8125,0.0,0,0
1765394652.427899,1765394652.389851,-49.31640625,-28.80859375,-25.390625,379.8828125,0.0,0,0
1765394652.427967,1765394652.3937466,40.52734375,-29.296875,-40.0390625,402.83203125,0.0,0,0
1765394652.4727879,1765394652.3977318,68.359375,-26.85546875,-37.59765625,33.69140625,0.0,0,0
1765394652.472942,1765394652.4016273,-53.7109375,-28.80859375,-11.71875,-490.234375,0.0,0,0
1765394652.473,1765394652.4055228,-138.671875,-33.203125,-9.765625,-438.96484375,0.0,0,0
1765394652.473053,1765394652.4094183,-53.7109375,-22.94921875,-19.53125,260.25390625,0.0,0,0
1765394652.473106,1765394652.4133139,38.57421875,-21.484375,-33.69140625,478.02734375,0.0,0,0
1765394652.47316,1765394652.4172094,54.6875,-17.578125,-45.8984375,67.87109375,0.0,0,0
1765394652.4732108,1765394652.421105,-48.33984375,-15.13671875,-15.13671875,-463.8671875,0.0,0,0
1765394652.473283,1765394652.4250004,-134.765625,-26.85546875,-4.39453125,-399.90234375,0.0,0,0
1765394652.473334,1765394652.428896,-88.8671875,-31.73828125,-26.85546875,30.76171875,0.0,0,0
1765394652.473383,1765394652.4327915,30.76171875,-25.390625,-35.64453125,500.48828125,0.0,0,0
1765394652.4734342,1765394652.436687,67.87109375,-28.3203125,-43.45703125,104.00390625,0.0,0,0
1765394652.473494,1765394652.4405825,-27.34375,-35.15625,-20.99609375,-438.4765625,0.0,0,0
1765394652.516901,1765394652.4446213,-124.51171875,-38.0859375,-8.30078125,-433.10546875,0.0,0,0
1765394652.5170271,1765394652.4485168,-99.12109375,-31.73828125,-26.3671875,-112.3046875,0.0,0,0
1765394652.51706,1765394652.4524124,27.83203125,-22.94921875,-38.0859375,562.5,0.0,0,0
1765394652.517091,1765394652.456308,64.453125,-26.85546875,-44.43359375,84.9609375,0.0,0,0
1765394652.517121,1765394652.4602034,-14.6484375,-35.64453125,-21.484375,-458.49609375,0.0,0,0
1765394652.5171509,1765394652.464099,-105.95703125,-35.15625,-1.953125,-317.87109375,0.0,0,0
1765394652.51718,1765394652.4679945,-114.2578125,-35.15625,-16.11328125,-150.390625,0.0,0,0
1765394652.517209,1765394652.4718902,4.8828125,-31.25,-29.296875,579.1015625,0.0,0,0
1765394652.517238,1765394652.4757857,66.89453125,-23.92578125,-32.2265625,309.5703125,0.0,0,0
1765394652.517267,1765394652.4796813,-0.9765625,-26.85546875,-23.92578125,-410.15625,0.0,0,0
1765394652.5172968,1765394652.4835768,-116.2109375,-37.109375,-12.6953125,-491.2109375,0.0,0,0
1765394652.5173252,1765394652.4874723,-120.60546875,-30.76171875,-15.13671875,-126.46484375,0.0,0,0
1765394652.560815,1765394652.4915004,5.859375,-25.87890625,-36.1328125,649.4140625,0.0,0,0
1765394652.560888,1765394652.495396,68.359375,-35.15625,-54.19921875,230.46875,0.0,0,0
1765394652.5609221,1765394652.4992914,26.85546875,-36.1328125,-41.015625,-312.98828125,0.0,0,0
1765394652.560954,1765394652.503187,-96.6796875,-38.57421875,-14.6484375,-447.75390625,0.0,0,0
1765394652.560985,1765394652.5070825,-127.44140625,-36.1328125,-13.671875,-344.7265625,0.0,0,0
1765394652.56102,1765394652.5109782,0.48828125,-18.5546875,-22.94921875,660.15625,0.0,0,0
1765394652.561053,1765394652.5148737,48.828125,-21.97265625,-42.48046875,199.70703125,0.0,0,0
1765394652.5610838,1765394652.5187693,14.16015625,-37.109375,-49.8046875,-362.3046875,0.0,0,0
1765394652.5611148,1765394652.5226648,-103.515625,-41.50390625,-29.296875,-499.0234375,0.0,0,0
1765394652.561146,1765394652.5265603,-150.87890625,-35.15625,-19.53125,-351.07421875,0.0,0,0
1765394652.561176,1765394652.530456,-34.1796875,-27.83203125,-24.4140625,527.34375,0.0,0,0
1765394652.561206,1765394652.5343516,43.45703125,-19.04296875,-37.109375,391.11328125,0.0,0,0
1765394652.605949,1765394652.538368,31.25,-25.390625,-52.734375,-163.57421875,0.0,0,0
1765394652.606085,1765394652.5422635,-90.33203125,-40.52734375,-33.69140625,-572.75390625,0.0,0,0
1765394652.606148,1765394652.546159,-140.625,-29.78515625,-10.25390625,-334.47265625,0.0,0,0
1765394652.6062021,1765394652.5500546,-46.875,-19.53125,-19.53125,396.97265625,0.0,0,0
1765394652.6062562,1765394652.5539503,33.203125,-25.87890625,-39.55078125,319.82421875,0.0,0,0
1765394652.6063092,1765394652.5578458,56.640625,-24.90234375,-35.64453125,-72.265625,0.0,0,0
1765394652.606362,1765394652.5617414,-58.10546875,-26.3671875,-6.34765625,-519.53125,0.0,0,0
1765394652.606415,1765394652.565637,-146.97265625,-31.25,-6.8359375,-531.25,0.0,0,0
1765394652.606466,1765394652.5695326,-57.12890625,-24.90234375,-19.53125,256.8359375,0.0,0,0
1765394652.606518,1765394652.5734282,35.64453125,-26.85546875,-32.2265625,471.19140625,0.0,0,0
1765394652.6065578,1765394652.5773237,53.22265625,-28.3203125,-36.62109375,-28.3203125,0.0,0,0
1765394652.606596,1765394652.5812194,-47.36328125,-28.3203125,-13.671875,-537.59765625,0.0,0,0
1765394652.6521559,1765394652.5852253,-136.71875,-30.76171875,-3.41796875,-506.8359375,0.0,0,0
1765394652.652298,1765394652.5891209,-81.54296875,-26.3671875,-20.5078125,73.73046875,0.0,0,0
1765394652.65236,1765394652.5930166,36.1328125,-21.97265625,-28.80859375,578.61328125,0.0,0,0
1765394652.652415,1765394652.5969121,70.3125,-29.296875,-38.0859375,59.5703125,0.0,0,0
1765394652.652482,1765394652.6008077,-35.64453125,-37.59765625,-24.90234375,-546.38671875,0.0,0,0
1765394652.6525362,1765394652.6047034,-121.09375,-30.76171875,-3.90625,-232.421875,0.0,0,0
1765394652.65259,1765394652.608599,-91.30859375,-20.99609375,-18.5546875,48.828125,0.0,0,0
1765394652.652643,1765394652.6124945,27.83203125,-15.625,-35.64453125,531.25,0.0,0,0
1765394652.652704,1765394652.6163902,70.3125,-24.4140625,-49.31640625,163.0859375,0.0,0,0
1765394652.652757,1765394652.6202857,-20.99609375,-32.71484375,-24.90234375,-505.859375,0.0,0,0
1765394652.6528268,1765394652.6241813,-121.09375,-28.3203125,1.46484375,-459.47265625,0.0,0,0
1765394652.6528761,1765394652.628077,-107.421875,-20.5078125,-13.671875,-156.25,0.0,0,0
1765394652.695998,1765394652.6320727,24.4140625,-17.08984375,-26.3671875,627.9296875,0.0,0,0
1765394652.696095,1765394652.6359682,71.2890625,-26.3671875,-37.109375,106.93359375,0.0,0,0
1765394652.696139,1765394652.639864,23.4375,-25.87890625,-9.765625,-272.4609375,0.0,0,0
1765394652.6961799,1765394652.6437595,-96.6796875,-24.4140625,0.0,-383.7890625,0.0,0,0
1765394652.696217,1765394652.647655,-130.859375,-27.83203125,-29.78515625,-367.67578125,0.0,0,0
1765394652.696258,1765394652.6515508,20.01953125,-14.16015625,-31.73828125,743.65234375,0.0,0,0
1765394652.696296,1765394652.6554463,68.84765625,-14.16015625,-45.8984375,193.84765625,0.0,0,0
1765394652.6963332,1765394652.659342,3.90625,-17.08984375,-52.734375,-498.046875,0.0,0,0
1765394652.69637,1765394652.6632376,-110.83984375,-14.6484375,-45.8984375,-544.921875,0.0,0,0
1765394652.696418,1765394652.6671333,-127.44140625,-14.6484375,-45.8984375,-318.359375,0.0,0,0
1765394652.696474,1765394652.6710289,15.13671875,-1.46484375,-40.0390625,800.29296875,0.0,0,0
1765394652.696521,1765394652.6749244,67.3828125,-2.9296875,-54.6875,246.58203125,0.0,0,0
1765394652.740938,1765394652.6789107,28.3203125,-11.71875,-51.26953125,-321.2890625,0.0,0,0
1765394652.741057,1765394652.6828065,-89.35546875,-20.99609375,-30.76171875,-436.03515625,0.0,0,0
1765394652.7411041,1765394652.686702,-133.7890625,-20.99609375,-37.59765625,-391.6015625,0.0,0,0
1765394652.7411442,1765394652.6905978,-14.16015625,-13.671875,-45.8984375,563.96484375,0.0,0,0
1765394652.7414231,1765394652.6944933,54.19921875,-20.99609375,-54.6875,307.6171875,0.0,0,0
1765394652.741466,1765394652.698389,49.31640625,-19.04296875,-43.9453125,-96.19140625,0.0,0,0
1765394652.741503,1765394652.7022846,-70.80078125,-16.6015625,-16.6015625,-370.60546875,0.0,0,0
1765394652.7415402,1765394652.7061803,-141.11328125,-22.94921875,-29.296875,-480.46875,0.0,0,0
1765394652.741581,1765394652.7100759,-33.69140625,-22.94921875,-42.48046875,411.1328125,0.0,0,0
1765394652.7416189,1765394652.7139716,55.17578125,-20.5078125,-52.24609375,358.88671875,0.0,0,0
1765394652.741655,1765394652.7178671,55.6640625,-27.83203125,-57.12890625,-266.6015625,0.0,0,0
1765394652.7416918,1765394652.721763,-65.4296875,-34.66796875,-20.5078125,-553.22265625,0.0,0,0
1765394652.786363,1765394652.725737,-133.7890625,-27.34375,-11.71875,-426.26953125,0.0,0,0
1765394652.786437,1765394652.7296329,-40.0390625,-16.6015625,-26.85546875,315.91796875,0.0,0,0
1765394652.786473,1765394652.7335284,53.7109375,-16.6015625,-38.57421875,476.5625,0.0,0,0
1765394652.786504,1765394652.7374241,67.3828125,-22.94921875,-42.48046875,75.1953125,0.0,0,0
1765394652.786535,1765394652.7413197,-57.12890625,-31.25,-17.08984375,-478.02734375,0.0,0,0
1765394652.786571,1765394652.7452154,-137.20703125,-27.34375,-2.44140625,-358.88671875,0.0,0,0
1765394652.786603,1765394652.749111,-71.77734375,-14.16015625,-23.92578125,173.828125,0.0,0,0
1765394652.786633,1765394652.7530067,23.92578125,-13.671875,-47.36328125,400.390625,0.0,0,0
1765394652.786664,1765394652.7569022,70.3125,-21.484375,-51.26953125,148.92578125,0.0,0,0
1765394652.786696,1765394652.760798,-34.1796875,-30.76171875,-31.73828125,-529.296875,0.0,0,0
1765394652.786726,1765394652.7646935,-130.859375,-29.78515625,-20.01953125,-490.72265625,0.0,0,0
1765394652.786756,1765394652.7685893,-65.91796875,-15.625,-24.4140625,148.92578125,0.0,0,0
1765394652.8452852,1765394652.772553,55.6640625,-8.7890625,-37.109375,647.94921875,0.0,0,0
1765394652.845394,1765394652.7764485,74.70703125,-19.53125,-55.6640625,94.7265625,0.0,0,0
1765394652.845421,1765394652.7803442,-21.484375,-24.4140625,-33.69140625,-481.4453125,0.0,0,0
1765394652.8454459,1765394652.7842398,-112.3046875,-26.3671875,-18.06640625,-500.9765625,0.0,0,0
1765394652.845479,1765394652.7881355,-80.56640625,-23.92578125,-30.2734375,-22.4609375,0.0,0,0
1765394652.845504,1765394652.7920313,45.41015625,-5.37109375,-28.80859375,787.109375,0.0,0,0
1765394652.8455281,1765394652.7959268,80.078125,-0.9765625,-40.0390625,104.00390625,0.0,0,0
1765394652.845675,1765394652.7998226,-8.30078125,-25.87890625,-35.64453125,-557.12890625,0.0,0,0
1765394652.845713,1765394652.803718,-117.67578125,-32.71484375,-17.08984375,-451.171875,0.0,0,0
1765394652.8457458,1765394652.8076138,-112.79296875,-29.296875,-24.4140625,-163.57421875,0.0,0,0
1765394652.845778,1765394652.8115094,17.08984375,-22.94921875,-27.83203125,722.65625,0.0,0,0
1765394652.845809,1765394652.8154051,66.89453125,-25.390625,-35.15625,190.4296875,0.0,0,0
1765394652.891412,1765394652.819442,3.90625,-28.3203125,-31.73828125,-462.40234375,0.0,0,0
1765394652.891507,1765394652.8233378,-105.95703125,-29.78515625,-17.578125,-499.0234375,0.0,0,0
1765394652.891552,1765394652.8272336,-104.98046875,-22.94921875,-14.6484375,-201.171875,0.0,0,0
1765394652.891592,1765394652.831129,20.01953125,-13.18359375,-26.85546875,673.33984375,0.0,0,0
1765394652.8916302,1765394652.8350248,54.19921875,-24.4140625,-47.8515625,89.35546875,0.0,0,0
1765394652.891668,1765394652.8389206,30.76171875,-19.53125,-31.73828125,-256.34765625,0.0,0,0
1765394652.891705,1765394652.842816,-95.21484375,-28.80859375,-18.5546875,-370.1171875,0.0,0,0
1765394652.891743,1765394652.8467119,-138.18359375,-34.1796875,-29.296875,-347.16796875,0.0,0,0
1765394652.8917801,1765394652.8506076,-13.18359375,-28.3203125,-38.57421875,573.2421875,0.0,0,0
1765394652.89184,1765394652.8545032,42.96875,-34.1796875,-52.24609375,258.7890625,0.0,0,0
1765394652.8918788,1765394652.858399,32.2265625,-28.80859375,-39.0625,-173.33984375,0.0,0,0
1765394652.8919191,1765394652.8622947,-83.984375,-29.296875,-10.25390625,-431.15234375,0.0,0,0
1765394652.954027,1765394652.8664079,-136.23046875,-27.34375,-10.7421875,-346.6796875,0.0,0,0
1765394652.95418,1765394652.8703036,-17.08984375,-8.7890625,-13.18359375,609.86328125,0.0,0,0
1765394652.954238,1765394652.8741994,53.22265625,-6.34765625,-18.5546875,416.015625,0.0,0,0
1765394652.95429,1765394652.8780951,46.875,-20.01953125,-20.5078125,-44.921875,0.0,0,0
1765394652.954346,1765394652.8819907,-83.49609375,-28.80859375,-1.953125,-454.58984375,0.0,0,0
1765394652.954398,1765394652.8858864,-149.90234375,-20.99609375,4.39453125,-323.2421875,0.0,0,0
1765394652.954449,1765394652.8897822,-47.36328125,-9.765625,-15.625,464.35546875,0.0,0,0
1765394652.954499,1765394652.893678,23.4375,-18.06640625,-36.62109375,434.5703125,0.0,0,0
1765394652.954549,1765394652.8975737,11.71875,-26.3671875,-30.2734375,-108.88671875,0.0,0,0
1765394652.954611,1765394652.9014692,-118.1640625,-26.85546875,-3.41796875,-607.421875,0.0,0,0
1765394652.9546728,1765394652.905365,-198.73046875,-16.11328125,15.625,-425.78125,0.0,0,0
1765394652.9547222,1765394652.9092607,-150.390625,-3.41796875,12.6953125,151.3671875,0.0,0,0
1765394652.997194,1765394652.9132943,-66.89453125,-3.41796875,-0.48828125,380.859375,0.0,0,0
1765394652.9974,1765394652.91719,-42.48046875,-5.37109375,-6.34765625,-102.05078125,0.0,0,0
1765394652.99746,1765394652.9210858,-160.15625,-11.71875,20.01953125,-686.03515625,0.0,0,0
1765394652.997517,1765394652.9249816,-247.55859375,-4.8828125,37.59765625,-555.17578125,0.0,0,0
1765394652.9975731,1765394652.9288774,-196.77734375,9.27734375,20.01953125,-23.4375,0.0,0,0
1765394652.9976242,1765394652.9327729,-77.1484375,14.6484375,10.25390625,520.5078125,0.0,0,0
1765394652.997675,1765394652.9366686,-49.31640625,7.8125,-8.7890625,-69.3359375,0.0,0,0
1765394652.997725,1765394652.9405644,-170.8984375,-6.8359375,-10.25390625,-774.4140625,0.0,0,0
1765394652.997767,1765394652.9444602,-248.046875,-2.44140625,6.8359375,-505.859375,0.0,0,0
1765394652.997805,1765394652.948356,-206.54296875,4.8828125,-11.23046875,-176.26953125,0.0,0,0
1765394652.9978418,1765394652.9522517,-74.70703125,5.859375,-28.80859375,506.8359375,0.0,0,0
1765394652.9978828,1765394652.9561474,-6.34765625,8.7890625,-35.64453125,131.34765625,0.0,0,0
1765394653.026509,1765394652.9601624,-91.796875,9.765625,-27.83203125,-670.41015625,0.0,0,0
1765394653.02656,1765394652.9640582,-180.17578125,1.46484375,-15.13671875,-560.05859375,0.0,0,0
1765394653.026585,1765394652.967954,-144.53125,-5.37109375,-21.484375,-150.87890625,0.0,0,0
1765394653.02661,1765394652.9718497,-1.953125,-8.7890625,-34.1796875,596.6796875,0.0,0,0
1765394653.026633,1765394652.9757454,60.05859375,-17.08984375,-48.828125,229.00390625,0.0,0,0
1765394653.026657,1765394652.9796412,-0.9765625,-29.78515625,-42.48046875,-397.4609375,0.0,0,0
1765394653.026735,1765394652.9835367,-94.7265625,-34.1796875,-26.3671875,-436.03515625,0.0,0,0
1765394653.026788,1765394652.9874325,-121.09375,-28.80859375,-37.59765625,-285.15625,0.0,0,0
1765394653.026815,1765394652.9913282,6.34765625,-20.01953125,-54.19921875,660.15625,0.0,0,0
1765394653.026842,1765394652.995224,90.33203125,-24.4140625,-62.98828125,342.7734375,0.0,0,0
1765394653.026866,1765394652.9991198,55.6640625,-35.15625,-47.36328125,-326.66015625,0.0,0,0
1765394653.02689,1765394653.0030155,-63.96484375,-37.109375,-21.97265625,-492.67578125,0.0,0,0
1765394653.073772,1765394653.0070183,-104.4921875,-40.0390625,-38.57421875,-338.37890625,0.0,0,0
1765394653.073838,1765394653.010914,32.71484375,-40.0390625,-59.08203125,701.171875,0.0,0,0
1765394653.0738711,1765394653.0148098,122.0703125,-39.0625,-63.4765625,449.21875,0.0,0,0
1765394653.073901,1765394653.0187056,89.84375,-47.36328125,-63.4765625,-235.3515625,0.0,0,0
1765394653.073936,1765394653.0226016,-49.8046875,-46.875,-47.36328125,-567.3828125,0.0,0,0
1765394653.073966,1765394653.0264974,-86.42578125,-39.0625,-33.69140625,-213.8671875,0.0,0,0
1765394653.073996,1765394653.0303931,44.43359375,-41.50390625,-38.57421875,708.49609375,0.0,0,0
1765394653.0741792,1765394653.034289,121.09375,-49.31640625,-59.5703125,453.125,0.0,0,0
1765394653.074212,1765394653.0381846,98.14453125,-40.52734375,-60.05859375,-78.61328125,0.0,0,0
1765394653.074243,1765394653.0420804,-49.8046875,-37.59765625,-43.45703125,-620.60546875,0.0,0,0
1765394653.074273,1765394653.0459762,-111.81640625,-39.55078125,-38.0859375,-437.98828125,0.0,0,0
1765394653.074303,1765394653.049872,9.765625,-31.73828125,-43.45703125,568.84765625,0.0,0,0
1765394653.1156359,1765394653.05386,108.88671875,-30.2734375,-53.7109375,576.171875,0.0,0,0
1765394653.115695,1765394653.057756,122.55859375,-29.78515625,-45.8984375,61.03515625,0.0,0,0
1765394653.115721,1765394653.0616517,-24.90234375,-23.92578125,-20.99609375,-546.38671875,0.0,0,0
1765394653.115746,1765394653.0655475,-128.90625,-30.76171875,-33.203125,-610.3515625,0.0,0,0
1765394653.1157708,1765394653.0694432,-29.296875,-34.66796875,-49.8046875,378.41796875,0.0,0,0
1765394653.115795,1765394653.073339,100.09765625,-23.4375,-34.1796875,754.39453125,0.0,0,0
1765394653.115822,1765394653.0772347,132.32421875,-15.13671875,-31.25,205.078125,0.0,0,0
1765394653.115846,1765394653.0811305,-27.34375,-31.25,-47.36328125,-633.30078125,0.0,0,0
1765394653.115869,1765394653.0850263,-145.01953125,-40.0390625,-50.29296875,-637.20703125,0.0,0,0
1765394653.115895,1765394653.088922,-53.22265625,-27.34375,-37.59765625,286.62109375,0.0,0,0
1765394653.1159182,1765394653.0928178,90.8203125,-19.53125,-30.76171875,845.703125,0.0,0,0
1765394653.115942,1765394653.0967135,130.859375,-19.04296875,-34.66796875,373.046875,0.0,0,0
1765394653.1768599,1765394653.1007721,-24.4140625,-34.1796875,-46.875,-694.82421875,0.0,0,0
1765394653.176903,1765394653.104668,-151.3671875,-33.69140625,-52.24609375,-680.17578125,0.0,0,0
1765394653.176928,1765394653.1085637,-74.70703125,-22.94921875,-38.0859375,246.58203125,0.0,0,0
1765394653.176954,1765394653.1124597,72.75390625,-23.4375,-30.76171875,818.359375,0.0,0,0
1765394653.176977,1765394653.1163554,133.7890625,-24.4140625,-35.15625,531.73828125,0.0,0,0
1765394653.177001,1765394653.1202512,-11.23046875,-26.3671875,-32.71484375,-506.8359375,0.0,0,0
1765394653.177025,1765394653.124147,-172.8515625,-19.04296875,-39.55078125,-840.8203125,0.0,0,0
1765394653.177048,1765394653.1280427,-123.53515625,-19.04296875,-40.0390625,-33.203125,0.0,0,0
1765394653.177072,1765394653.1319385,33.69140625,-22.94921875,-25.390625,785.64453125,0.0,0,0
1765394653.1771579,1765394653.1358345,107.421875,-22.4609375,-24.4140625,568.84765625,0.0,0,0
1765394653.177197,1765394653.1397302,-6.34765625,-32.2265625,-40.52734375,-470.703125,0.0,0,0
1765394653.1772218,1765394653.143626,-168.45703125,-32.71484375,-48.33984375,-942.87109375,0.0,0,0
1765394653.221208,1765394653.147602,-149.4140625,-26.3671875,-45.8984375,-225.09765625,0.0,0,0
1765394653.221287,1765394653.1514978,13.671875,-21.484375,-23.4375,728.515625,0.0,0,0
1765394653.221323,1765394653.1553936,117.67578125,-18.5546875,-20.5078125,660.64453125,0.0,0,0
1765394653.221356,1765394653.1592894,26.3671875,-30.2734375,-42.48046875,-312.98828125,0.0,0,0
1765394653.221388,1765394653.1631854,-165.52734375,-37.109375,-50.78125,-1000.0,0.0,0,0
1765394653.221418,1765394653.167081,-177.734375,-26.3671875,-38.0859375,-327.1484375,0.0,0,0
1765394653.221448,1765394653.1709769,-1.953125,-18.06640625,-13.18359375,852.5390625,0.0,0,0
1765394653.221479,1765394653.1748726,99.609375,-29.296875,-25.87890625,657.71484375,0.0,0,0
1765394653.22151,1765394653.1787686,32.71484375,-39.0625,-43.9453125,-188.4765625,0.0,0,0
1765394653.2215402,1765394653.1826644,-177.24609375,-49.31640625,-56.640625,-907.71484375,0.0,0,0
1765394653.22157,1765394653.1865602,-231.93359375,-45.8984375,-60.05859375,-549.31640625,0.0,0,0
1765394653.221601,1765394653.190456,-37.109375,-26.85546875,-21.97265625,716.30859375,0.0,0,0
1765394653.26656,1765394653.1944993,103.515625,-27.34375,-7.8125,929.19921875,0.0,0,0
1765394653.266655,1765394653.198395,69.3359375,-33.69140625,-27.34375,127.44140625,0.0,0,0
1765394653.266688,1765394653.202291,-167.48046875,-47.36328125,-55.17578125,-895.01953125,0.0,0,0
1765394653.26672,1765394653.2061868,-261.23046875,-42.96875,-58.10546875,-693.84765625,0.0,0,0
1765394653.266751,1765394653.2100825,-67.3828125,-23.92578125,-13.18359375,559.5703125,0.0,0,0
1765394653.2667809,1765394653.2139785,109.375,-14.6484375,12.20703125,-972.16796875,0.0,0,0
1765394653.266811,1765394653.2178743,100.5859375,-23.92578125,-21.97265625,300.29296875,0.0,0,0
1765394653.26684,1765394653.2217703,-134.765625,-42.96875,-70.80078125,-821.77734375,0.0,0,0
1765394653.26687,1765394653.225666,-266.6015625,-41.9921875,-69.3359375,-796.38671875,0.0,0,0
1765394653.2668989,1765394653.2295618,-98.6328125,-19.04296875,-16.6015625,455.078125,0.0,0,0
1765394653.2669282,1765394653.2334578,88.37890625,-14.16015625,3.41796875,-942.3828125,0.0,0,0
1765394653.266957,1765394653.2373536,131.8359375,-24.4140625,-9.765625,615.72265625,0.0,0,0
1765394653.3106308,1765394653.241377,-91.796875,-39.0625,-53.7109375,-515.625,0.0,0,0
1765394653.310727,1765394653.2452729,-282.2265625,-48.828125,-84.9609375,-993.65234375,0.0,0,0
1765394653.310754,1765394653.2491686,-142.08984375,-30.2734375,-33.69140625,190.91796875,0.0,0,0
1765394653.3107798,1765394653.2530646,82.03125,-13.18359375,13.671875,-945.80078125,0.0,0,0
1765394653.310805,1765394653.2569604,154.296875,-11.23046875,-2.44140625,736.81640625,0.0,0,0
1765394653.3108292,1765394653.2608564,-54.6875,-27.83203125,-59.08203125,-345.703125,0.0,0,0
1765394653.310854,1765394653.2647521,-266.11328125,-45.41015625,-71.77734375,-1000.0,0.0,0,0
1765394653.310878,1765394653.2686481,-178.7109375,-33.69140625,-21.97265625,-20.99609375,0.0,0,0
1765394653.310902,1765394653.272544,57.6171875,-15.625,17.08984375,985.3515625,0.0,0,0
1765394653.3109262,1765394653.2764397,163.0859375,-16.6015625,16.11328125,750.48828125,0.0,0,0
1765394653.3109498,1765394653.2803357,-48.828125,-38.0859375,-42.48046875,-333.0078125,0.0,0,0
1765394653.310974,1765394653.2842314,-282.2265625,-49.31640625,-74.21875,-1000.0,0.0,0,0
1765394653.372145,1765394653.2882519,-206.54296875,-39.0625,-24.4140625,-175.78125,0.0,0,0
1765394653.3722801,1765394653.2921476,41.50390625,-32.2265625,38.57421875,945.80078125,0.0,0,0
1765394653.372316,1765394653.2960436,192.87109375,-25.390625,44.921875,993.65234375,0.0,0,0
1765394653.3723478,1765394653.2999394,4.8828125,-48.33984375,-33.203125,-5.37109375,0.0,0,0
1765394653.372378,1765394653.3038354,-283.69140625,-72.265625,-89.35546875,-1000.0,0.0,0,0
1765394653.3724082,1765394653.3077312,-242.67578125,-43.9453125,-40.0390625,-233.88671875,0.0,0,0
1765394653.372437,1765394653.3116271,20.01953125,-25.390625,33.69140625,942.87109375,0.0,0,0
1765394653.372467,1765394653.315523,192.3828125,-29.296875,43.45703125,989.74609375,0.0,0,0
1765394653.3724968,1765394653.319419,55.17578125,-46.38671875,-29.78515625,58.10546875,0.0,0,0
1765394653.3725271,1765394653.3233147,-242.1875,-59.08203125,-79.58984375,-1000.0,0.0,0,0
1765394653.372555,1765394653.3272107,-259.765625,-44.43359375,-51.7578125,-454.58984375,0.0,0,0
1765394653.3725839,1765394653.3311064,10.7421875,-23.4375,31.73828125,786.62109375,0.0,0,0
1765394653.402786,1765394653.3351214,211.9140625,-18.5546875,53.7109375,-945.80078125,0.0,0,0
1765394653.403009,1765394653.3390174,106.4453125,-31.25,-28.80859375,246.58203125,0.0,0,0
1765394653.403071,1765394653.3429132,-219.7265625,-46.38671875,-96.19140625,-1000.0,0.0,0,0
1765394653.403161,1765394653.3468091,-285.15625,-37.109375,-76.171875,-553.7109375,0.0,0,0
1765394653.4032068,1765394653.350705,-15.13671875,-21.484375,19.04296875,698.73046875,0.0,0,0
1765394653.403278,1765394653.354601,197.75390625,-7.8125,65.91796875,-912.59765625,0.0,0,0
1765394653.403327,1765394653.358497,143.5546875,-17.08984375,0.9765625,479.98046875,0.0,0,0
1765394653.4033668,1765394653.3623927,-204.1015625,-48.33984375,-92.28515625,-896.484375,0.0,0,0
1765394653.403405,1765394653.3662887,-348.6328125,-53.7109375,-92.7734375,-875.9765625,0.0,0,0
1765394653.4034429,1765394653.3701844,-85.44921875,-34.66796875,22.94921875,363.28125,0.0,0,0
1765394653.403591,1765394653.3740804,167.48046875,-21.484375,71.77734375,-903.80859375,0.0,0,0
1765394653.4036322,1765394653.3779762,162.59765625,-27.83203125,3.90625,639.6484375,0.0,0,0
1765394653.477526,1765394653.382134,-190.91796875,-55.6640625,-106.4453125,-734.375,0.0,0,0
1765394653.47772,1765394653.38603,-375.0,-53.7109375,-115.234375,-941.40625,0.0,0,0
1765394653.477783,1765394653.389926,-120.1171875,-21.97265625,8.30078125,351.07421875,0.0,0,0
1765394653.477837,1765394653.393822,147.94921875,-9.765625,63.4765625,-938.4765625,0.0,0,0
1765394653.477889,1765394653.3977177,198.73046875,-15.625,22.4609375,830.078125,0.0,0,0
1765394653.477941,1765394653.4016137,-139.6484375,-36.62109375,-87.40234375,-419.921875,0.0,0,0
1765394653.4779918,1765394653.4055097,-393.06640625,-44.921875,-130.37109375,-1000.0,0.0,0,0
1765394653.4780428,1765394653.4094055,-176.26953125,-29.296875,-13.671875,69.3359375,0.0,0,0
1765394653.478094,1765394653.4133015,130.859375,-4.39453125,77.1484375,-959.47265625,0.0,0,0
1765394653.4781451,1765394653.4171975,224.12109375,-3.90625,40.52734375,919.921875,0.0,0,0
1765394653.478194,1765394653.4210935,-111.81640625,-34.66796875,-98.14453125,-215.8203125,0.0,0,0
1765394653.478245,1765394653.4249892,-405.2734375,-48.828125,-138.18359375,-1000.0,0.0,0,0
1765394653.493881,1765394653.4289813,-229.00390625,-28.3203125,-17.578125,20.99609375,0.0,0,0
1765394653.494008,1765394653.432877,89.35546875,-13.671875,72.75390625,997.0703125,0.0,0,0
1765394653.4940422,1765394653.436773,238.28125,-14.16015625,58.10546875,-954.58984375,0.0,0,0
1765394653.4940732,1765394653.440669,-54.19921875,-36.1328125,-84.9609375,70.80078125,0.0,0,0
1765394653.494103,1765394653.444565,-388.671875,-44.921875,-142.08984375,-1000.0,0.0,0,0
1765394653.494132,1765394653.448461,-266.11328125,-21.97265625,-22.4609375,-217.7734375,0.0,0,0
1765394653.494161,1765394653.4523568,80.56640625,0.0,87.890625,972.65625,0.0,0,0
1765394653.49419,1765394653.4562528,258.7890625,-0.9765625,76.171875,980.46875,0.0,0,0
1765394653.4942222,1765394653.4601488,-7.8125,-28.80859375,-76.171875,-6.34765625,0.0,0,0
1765394653.494262,1765394653.4640448,-364.2578125,-47.8515625,-151.85546875,-1000.0,0.0,0,0
1765394653.4943008,1765394653.4679408,-317.3828125,-36.1328125,-67.87109375,-555.17578125,0.0,0,0
1765394653.4943519,1765394653.4718366,35.64453125,-7.8125,68.84765625,742.1875,0.0,0,0
1765394653.536292,1765394653.4758148,259.765625,-2.9296875,93.26171875,-903.3203125,0.0,0,0
1765394653.53642,1765394653.4797108,27.83203125,-34.66796875,-72.75390625,76.171875,0.0,0,0
1765394653.536452,1765394653.4836068,-356.93359375,-51.26953125,-166.9921875,-1000.0,0.0,0,0
1765394653.536482,1765394653.4875028,-362.79296875,-36.62109375,-85.44921875,-592.28515625,0.0,0,0
1765394653.536513,1765394653.4913988,3.41796875,-6.8359375,66.40625,650.87890625,0.0,0,0
1765394653.536543,1765394653.4952946,287.59765625,5.859375,116.2109375,-849.12109375,0.0,0,0
1765394653.536572,1765394653.4991906,104.98046875,-30.76171875,-46.38671875,278.80859375,0.0,0,0
1765394653.536603,1765394653.5030866,-337.890625,-62.5,-173.828125,-1000.0,0.0,0,0
1765394653.536633,1765394653.5069826,-413.57421875,-43.9453125,-113.76953125,-764.16015625,0.0,0,0
1765394653.536663,1765394653.5108786,-48.828125,-15.625,57.6171875,460.44921875,0.0,0,0
1765394653.536691,1765394653.5147746,259.27734375,0.48828125,119.62890625,-842.7734375,0.0,0,0
1765394653.536721,1765394653.5186706,155.2734375,-20.99609375,-18.06640625,442.3828125,0.0,0,0
1765394653.597952,1765394653.522639,-291.50390625,-52.24609375,-155.2734375,-959.9609375,0.0,0,0
1765394653.5981429,1765394653.526535,-446.77734375,-43.45703125,-127.9296875,-931.15234375,0.0,0,0
1765394653.5982022,1765394653.530431,-97.65625,-7.32421875,52.24609375,261.71875,0.0,0,0
1765394653.5982568,1765394653.534327,240.234375,3.90625,129.8828125,-880.859375,0.0,0,0
1765394653.5983071,1765394653.538223,211.9140625,-18.06640625,10.25390625,667.96875,0.0,0,0
1765394653.598359,1765394653.542119,-250.9765625,-46.875,-147.94921875,-767.08984375,0.0,0,0
1765394653.598409,1765394653.546015,-473.6328125,-43.9453125,-141.11328125,-958.984375,0.0,0,0
1765394653.598461,1765394653.549911,-136.71875,-20.5078125,38.57421875,301.26953125,0.0,0,0
1765394653.5985222,1765394653.5538068,203.125,-13.18359375,116.2109375,-942.3828125,0.0,0,0
1765394653.5985842,1765394653.5577028,256.8359375,-19.53125,25.390625,864.2578125,0.0,0,0
1765394653.598634,1765394653.5615988,-187.98828125,-49.31640625,-158.203125,-435.546875,0.0,0,0
1765394653.598696,1765394653.5654948,-503.41796875,-57.12890625,-179.19921875,-1000.0,0.0,0,0
1765394653.6439612,1765394653.5695324,-192.3828125,-21.97265625,26.85546875,52.24609375,0.0,0,0
1765394653.64413,1765394653.5734284,191.89453125,0.0,126.953125,-971.19140625,0.0,0,0
1765394653.644185,1765394653.5773244,310.05859375,-1.46484375,63.96484375,-991.69921875,0.0,0,0
1765394653.6442392,1765394653.5812204,-107.91015625,-33.203125,-143.5546875,-133.7890625,0.0,0,0
1765394653.6442912,1765394653.5851164,-501.46484375,-51.7578125,-208.0078125,-1000.0,0.0,0,0
1765394653.644348,1765394653.5890124,-250.0,-19.53125,3.90625,-85.44921875,0.0,0,0
1765394653.644397,1765394653.5929084,181.640625,14.16015625,140.625,-995.1171875,0.0,0,0
1765394653.644448,1765394653.5968044,357.421875,9.765625,91.796875,-942.3828125,0.0,0,0
1765394653.64451,1765394653.6007004,-58.59375,-35.15625,-146.484375,83.984375,0.0,0,0
1765394653.644568,1765394653.6045964,-507.8125,-49.8046875,-233.88671875,-1000.0,0.0,0,0
1765394653.644626,1765394653.6084924,-331.54296875,-16.11328125,-24.90234375,-309.5703125,0.0,0,0
1765394653.644694,1765394653.6123884,152.34375,14.16015625,153.80859375,934.08203125,0.0,0,0
1765394653.687267,1765394653.6164184,403.80859375,19.04296875,156.73828125,-903.80859375,0.0,0,0
1765394653.687382,1765394653.6203144,4.8828125,-25.390625,-109.86328125,206.54296875,0.0,0,0
1765394653.6874418,1765394653.6242104,-517.578125,-61.5234375,-262.20703125,-1000.0,0.0,0,0
1765394653.687496,1765394653.6281064,-459.47265625,-40.52734375,-76.66015625,-672.36328125,0.0,0,0
1765394653.687544,1765394653.6320024,88.37890625,-4.39453125,158.203125,663.0859375,0.0,0,0
1765394653.6875799,1765394653.6358984,472.65625,11.71875,234.86328125,-839.35546875,0.0,0,0
1765394653.687617,1765394653.6397943,231.4453125,-22.4609375,-46.38671875,381.8359375,0.0,0,0
1765394653.6876538,1765394653.6436906,-633.30078125,-103.02734375,-601.5625,-999.51171875,0.0,0,0
1765394653.687691,1765394653.6475866,-1000.0,-93.75,-437.98828125,-969.7265625,0.0,0,0
1765394653.6877272,1765394653.6514826,0.0,39.0625,516.11328125,386.23046875,0.0,0,0
1765394653.687765,1765394653.6553786,-887.6953125,100.09765625,799.31640625,-789.0625,0.0,0,0
1765394653.687818,1765394653.6592746,639.6484375,-6.34765625,-124.51171875,151.3671875,0.0,0,0
1765394653.73103,1765394653.663287,-640.625,-126.953125,-848.6328125,-1000.0,0.0,0,0
1765394653.731148,1765394653.667183,-1000.0,-120.60546875,-489.74609375,-1000.0,0.0,0,0
1765394653.73119,1765394653.671079,-128.90625,6.8359375,457.51953125,93.26171875,0.0,0,0
1765394653.731234,1765394653.674975,-951.66015625,84.9609375,799.8046875,-769.53125,0.0,0,0
1765394653.731273,1765394653.678871,797.36328125,6.8359375,32.71484375,324.70703125,0.0,0,0
1765394653.731311,1765394653.6827672,-415.52734375,-116.2109375,-776.85546875,-948.73046875,0.0,0,0
1765394653.7313511,1765394653.6866632,-1000.0,-128.41796875,-643.5546875,-1000.0,0.0,0,0
1765394653.7313879,1765394653.6905591,-313.4765625,-12.20703125,346.6796875,-128.90625,0.0,0,0
1765394653.731426,1765394653.6944551,925.78125,74.21875,812.98828125,-833.984375,0.0,0,0
1765394653.7314718,1765394653.6983511,958.0078125,30.2734375,237.3046875,571.77734375,0.0,0,0
1765394653.731529,1765394653.7022471,-186.03515625,-102.5390625,-644.53125,-798.828125,0.0,0,0
1765394653.7315872,1765394653.7061431,-1000.0,-141.11328125,-749.51171875,-1000.0,0.0,0,0
1765394653.791723,1765394653.7101521,-544.43359375,-38.0859375,158.203125,-208.0078125,0.0,0,0
1765394653.79178,1765394653.7140481,690.91796875,49.31640625,761.71875,-943.84765625,0.0,0,0
1765394653.7918808,1765394653.7179444,-912.109375,40.52734375,442.87109375,876.46484375,0.0,0,0
1765394653.791915,1765394653.7218404,11.23046875,-84.47265625,-511.71875,-441.40625,0.0,0,0
1765394653.791946,1765394653.7257364,-1000.0,-151.3671875,-834.9609375,-1000.0,0.0,0,0
1765394653.791977,1765394653.7296324,-648.92578125,-46.875,46.38671875,-182.6171875,0.0,0,0
1765394653.7920058,1765394653.7335284,580.078125,59.08203125,762.6953125,-981.4453125,0.0,0,0
1765394653.792038,1765394653.7374246,-868.65234375,57.6171875,505.859375,-996.58203125,0.0,0,0
1765394653.7920692,1765394653.7413206,101.5625,-72.75390625,-480.46875,-206.0546875,0.0,0,0
1765394653.792099,1765394653.7452166,-1000.0,-147.4609375,-834.9609375,-1000.0,0.0,0,0
1765394653.792127,1765394653.7491126,-718.75,-44.43359375,24.90234375,-231.4453125,0.0,0,0
1765394653.792157,1765394653.7530086,501.46484375,68.359375,769.53125,980.46875,0.0,0,0
1765394653.8359308,1765394653.757083,-845.21484375,62.98828125,549.31640625,-941.40625,0.0,0,0
1765394653.83599,1765394653.760979,176.26953125,-74.21875,-454.58984375,-26.3671875,0.0,0,0
1765394653.836015,1765394653.7648752,-1000.0,-148.92578125,-829.58984375,-1000.0,0.0,0,0
1765394653.8360379,1765394653.7687712,-821.77734375,-57.6171875,-58.59375,-376.953125,0.0,0,0
1765394653.836062,1765394653.7726672,358.88671875,62.98828125,729.4921875,912.109375,0.0,0,0
1765394653.836085,1765394653.7765634,-834.9609375,86.42578125,642.08984375,-897.4609375,0.0,0,0
1765394653.836108,1765394653.7804594,275.390625,-38.57421875,-395.5078125,139.6484375,0.0,0,0
1765394653.836132,1765394653.7843554,-1000.0,-136.71875,-833.984375,-1000.0,0.0,0,0
1765394653.836155,1765394653.7882516,-923.33984375,-75.68359375,-166.50390625,-536.62109375,0.0,0,0
1765394653.836179,1765394653.7921476,216.30859375,46.38671875,652.83203125,837.890625,0.0,0,0
1765394653.836202,1765394653.7960436,-844.7265625,83.984375,718.26171875,-865.72265625,0.0,0,0
1765394653.836257,1765394653.7999396,405.2734375,-35.15625,-326.171875,190.91796875,0.0,0,0
1765394653.866944,1765394653.803931,-910.64453125,-143.5546875,-853.515625,-1000.0,0.0,0,0
1765394653.8670568,1765394653.807827,-1000.0,-99.12109375,-291.50390625,-797.36328125,0.0,0,0
1765394653.867098,1765394653.811723,84.9609375,37.109375,562.5,569.3359375,0.0,0,0
1765394653.867137,1765394653.8156192,-869.62890625,96.6796875,770.5078125,-811.03515625,0.0,0,0
1765394653.8671749,1765394653.8195152,547.8515625,-19.04296875,-225.5859375,157.2265625,0.0,0,0
1765394653.867213,1765394653.8234115,-755.859375,-134.27734375,-854.4921875,-1000.0,0.0,0,0
1765394653.86725,1765394653.8273075,-1000.0,-108.88671875,-386.71875,-993.1640625,0.0,0,0
1765394653.867286,1765394653.8312035,-22.94921875,18.5546875,505.859375,251.953125,0.0,0,0
1765394653.867323,1765394653.8350997,-910.64453125,83.984375,785.15625,-771.484375,0.0,0,0
1765394653.86736,1765394653.8389957,703.125,-16.11328125,-97.65625,212.40234375,0.0,0,0
1765394653.867397,1765394653.8428917,-562.5,-134.765625,-829.1015625,-1000.0,0.0,0,0
1765394653.867436,1765394653.846788,-1000.0,-127.9296875,-512.20703125,-1000.0,0.0,0,0
1765394653.914573,1765394653.850769,-156.25,2.9296875,445.80078125,10.25390625,0.0,0,0
1765394653.914712,1765394653.854665,-967.7734375,87.40234375,797.36328125,-783.203125,0.0,0,0
1765394653.9147708,1765394653.8585613,849.609375,14.6484375,62.5,399.90234375,0.0,0,0
1765394653.9148228,1765394653.8624573,-357.421875,-116.2109375,-759.765625,-916.015625,0.0,0,0
1765394653.914874,1765394653.8663535,-1000.0,-133.7890625,-623.53515625,-1000.0,0.0,0,0
1765394653.914913,1765394653.8702495,-281.73828125,-0.9765625,394.04296875,-159.66796875,0.0,0,0
1765394653.9149508,1765394653.8741457,947.75390625,93.75,804.6875,-852.05078125,0.0,0,0
1765394653.914989,1765394653.8780417,966.796875,34.66796875,182.12890625,609.375,0.0,0,0
1765394653.915026,1765394653.8819377,-177.734375,-101.5625,-680.17578125,-770.01953125,0.0,0,0
1765394653.91507,1765394653.885834,-1000.0,-135.25390625,-715.33203125,-1000.0,0.0,0,0
1765394653.9151082,1765394653.88973,-436.5234375,-15.13671875,302.734375,-207.03125,0.0,0,0
1765394653.915144,1765394653.8936262,814.453125,80.078125,816.40625,-941.40625,0.0,0,0
1765394653.971379,1765394653.897589,-931.15234375,54.6875,332.51953125,868.65234375,0.0,0,0
1765394653.971529,1765394653.9014852,-19.04296875,-82.03125,-571.77734375,-453.61328125,0.0,0,0
1765394653.9715781,1765394653.9053812,-1000.0,-145.01953125,-776.85546875,-1000.0,0.0,0,0
1765394653.971616,1765394653.9092774,-592.28515625,-25.87890625,186.5234375,-177.24609375,0.0,0,0
1765394653.971659,1765394653.9131734,652.83203125,81.54296875,812.98828125,-993.1640625,0.0,0,0
1765394653.9716978,1765394653.9170697,-867.67578125,70.80078125,456.54296875,-972.16796875,0.0,0,0
1765394653.971741,1765394653.9209657,104.00390625,-65.91796875,-496.58203125,-136.71875,0.0,0,0
1765394653.97178,1765394653.924862,-1000.0,-148.92578125,-810.546875,-1000.0,0.0,0,0
1765394653.9718158,1765394653.928758,-737.3046875,-52.24609375,34.66796875,-273.4375,0.0,0,0
1765394653.9718559,1765394653.9326541,474.609375,67.3828125,773.4375,959.9609375,0.0,0,0
1765394653.9718919,1765394653.9365501,-838.8671875,74.21875,566.89453125,-926.7578125,0.0,0,0
1765394653.971939,1765394653.9404461,214.35546875,-72.75390625,-452.1484375,36.1328125,0.0,0,0
1765394654.0154681,1765394653.944476,-1000.0,-160.15625,-829.58984375,-1000.0,0.0,0,0
1765394654.0155132,1765394653.9483721,-864.2578125,-72.265625,-103.02734375,-457.03125,0.0,0,0
1765394654.015543,1765394653.9522681,297.8515625,47.8515625,704.58984375,870.60546875,0.0,0,0
1765394654.015574,1765394653.9561644,-837.40234375,75.1953125,675.78125,-879.39453125,0.0,0,0
1765394654.0156229,1765394653.9600606,327.63671875,-48.828125,-378.41796875,194.3359375,0.0,0,0
1765394654.015656,1765394653.9639566,-979.4921875,-146.97265625,-840.8203125,-1000.0,0.0,0,0
1765394654.015685,1765394653.9678528,-967.7734375,-93.75,-231.93359375,-677.24609375,0.0,0,0
1765394654.015764,1765394653.9717488,151.3671875,37.59765625,602.5390625,715.33203125,0.0,0,0
1765394654.015819,1765394653.975645,-855.95703125,91.796875,741.2109375,-837.40234375,0.0,0,0
1765394654.0158532,1765394653.979541,473.6328125,-28.3203125,-291.015625,171.875,0.0,0,0
1765394654.015884,1765394653.9834373,-840.33203125,-138.671875,-863.76953125,-1000.0,0.0,0,0
1765394654.015915,1765394653.9873333,-1000.0,-101.5625,-352.05078125,-911.62109375,0.0,0,0
1765394654.076467,1765394653.9914315,27.34375,30.2734375,527.34375,403.80859375,0.0,0,0
1765394654.076517,1765394653.9953275,-889.6484375,98.14453125,780.2734375,-787.109375,0.0,0,0
1765394654.076542,1765394653.9992237,626.953125,-8.7890625,-162.59765625,144.53125,0.0,0,0
1765394654.076566,1765394654.00312,-659.66796875,-132.8125,-859.86328125,-1000.0,0.0,0,0
1765394654.076591,1765394654.007016,-1000.0,-119.62890625,-480.95703125,-1000.0,0.0,0,0
1765394654.076614,1765394654.0109122,-87.890625,20.99609375,467.28515625,95.21484375,0.0,0,0
1765394654.076637,1765394654.0148084,-940.4296875,98.6328125,795.41015625,-769.04296875,0.0,0,0
1765394654.076663,1765394654.0187044,784.1796875,-2.9296875,-25.87890625,311.5234375,0.0,0,0
1765394654.076687,1765394654.0226007,-453.61328125,-128.90625,-812.01171875,-961.9140625,0.0,0,0
1765394654.076711,1765394654.026497,-1000.0,-116.69921875,-588.37890625,-1000.0,0.0,0,0
1765394654.0767329,1765394654.030393,-211.9140625,5.859375,406.73828125,-84.9609375,0.0,0,0
1765394654.076757,1765394654.0342891,989.74609375,85.44921875,799.8046875,-811.03515625,0.0,0,0
1765394654.105572,1765394654.0383039,919.921875,26.3671875,119.140625,498.046875,0.0,0,0
1765394654.105618,1765394654.0422,-252.9296875,-111.328125,-731.93359375,-862.3046875,0.0,0,0
1765394654.1056519,1765394654.0460963,-1000.0,-138.671875,-686.5234375,-1000.0,0.0,0,0
1765394654.105682,1765394654.0499926,-347.65625,-10.25390625,340.33203125,-210.9375,0.0,0,0
1765394654.1057122,1765394654.0538886,881.8359375,75.68359375,812.01171875,-906.25,0.0,0,0
1765394654.10578,1765394654.0577848,-964.84375,36.1328125,268.5546875,757.8125,0.0,0,0
1765394654.105852,1765394654.061681,-68.84765625,-90.33203125,-619.140625,-608.3984375,0.0,0,0
1765394654.105976,1765394654.0655773,-1000.0,-146.484375,-759.765625,-1000.0,0.0,0,0
1765394654.106009,1765394654.0694733,-526.85546875,-34.1796875,236.81640625,-188.4765625,0.0,0,0
1765394654.1060412,1765394654.0733695,722.65625,78.125,821.2890625,-974.609375,0.0,0,0
1765394654.1060731,1765394654.0772657,-899.4140625,59.08203125,399.4140625,974.609375,0.0,0,0
1765394654.1061041,1765394654.081162,32.2265625,-85.9375,-531.25,-269.04296875,0.0,0,0
1765394654.151048,1765394654.085165,-1000.0,-146.97265625,-803.22265625,-1000.0,0.0,0,0
1765394654.1510952,1765394654.0890613,-684.5703125,-43.9453125,95.703125,-196.77734375,0.0,0,0
1765394654.1511738,1765394654.0929575,540.52734375,61.03515625,792.48046875,990.234375,0.0,0,0
1765394654.1512299,1765394654.0968537,-851.5625,65.4296875,522.4609375,-947.75390625,0.0,0,0
1765394654.151264,1765394654.10075,149.90234375,-77.63671875,-466.30859375,-28.3203125,0.0,0,0
1765394654.151297,1765394654.104646,-1000.0,-167.48046875,-822.75390625,-1000.0,0.0,0,0
1765394654.151375,1765394654.1085422,-812.5,-70.3125,-42.96875,-381.8359375,0.0,0,0
1765394654.151419,1765394654.1124384,367.67578125,57.12890625,735.3515625,909.1796875,0.0,0,0
1765394654.1514509,1765394654.1163347,-835.9375,79.1015625,625.48828125,-897.4609375,0.0,0,0
1765394654.1514812,1765394654.120231,272.94921875,-53.22265625,-410.64453125,135.25390625,0.0,0,0
1765394654.151514,1765394654.124127,-1000.0,-143.5546875,-839.35546875,-1000.0,0.0,0,0
1765394654.151544,1765394654.1280231,-924.31640625,-75.68359375,-176.26953125,-568.359375,0.0,0,0
1765394654.1980731,1765394654.132017,209.47265625,47.36328125,655.76171875,808.59375,0.0,0,1
1765394654.198154,1765394654.1359131,-846.19140625,92.28515625,719.23828125,-858.88671875,0.0,0,0
1765394654.1981802,1765394654.1398094,410.64453125,-28.80859375,-329.58984375,188.96484375,0.0,0,0
1765394654.1982021,1765394654.1437054,-904.296875,-139.6484375,-856.93359375,-1000.0,0.0,0,0
1765394654.198223,1765394654.1476016,-1000.0,-97.16796875,-297.8515625,-801.7578125,0.0,0,0
1765394654.1982431,1765394654.1514978,76.171875,42.96875,561.03515625,563.4765625,0.0,0,0
1765394654.1982641,1765394654.155394,-873.53515625,102.5390625,769.53125,-809.5703125,0.0,0,0
1765394654.1982841,1765394654.1592903,565.4296875,-12.6953125,-221.19140625,153.80859375,0.0,0,0
1765394654.1983051,1765394654.1631866,-735.3515625,-129.8828125,-864.2578125,-1000.0,0.0,0,0
1765394654.198324,1765394654.1670828,-1000.0,-112.3046875,-409.66796875,-1000.0,0.0,0,0
1765394654.1983428,1765394654.170979,-40.0390625,21.97265625,499.0234375,211.9140625,0.0,0,0
1765394654.1983628,1765394654.174875,-917.48046875,96.6796875,791.015625,-767.578125,0.0,0,0
1765394654.240521,1765394654.178861,720.703125,-1.46484375,-90.8203125,218.26171875,0.0,0,0
1765394654.240622,1765394654.1827571,-541.9921875,-127.44140625,-833.0078125,-1000.0,0.0,0,0
1765394654.240654,1765394654.1866531,-1000.0,-121.58203125,-524.4140625,-1000.0,0.0,0,0
1765394654.240679,1765394654.1905494,-149.90234375,10.25390625,438.4765625,-13.18359375,0.0,0,0
1765394654.240704,1765394654.1944456,-973.6328125,93.26171875,795.41015625,-786.62109375,0.0,0,0
1765394654.240732,1765394654.1983418,860.3515625,20.5078125,66.89453125,409.66796875,0.0,0,0
1765394654.240757,1765394654.202238,-336.9140625,-109.375,-758.7890625,-910.64453125,0.0,0,0
1765394654.240781,1765394654.2061343,-1000.0,-128.41796875,-645.5078125,-1000.0,0.0,0,0
1765394654.2408051,1765394654.2100306,-298.828125,-5.37109375,371.58203125,-181.640625,0.0,0,0
1765394654.240829,1765394654.2139268,930.6640625,80.078125,808.59375,-864.74609375,0.0,0,0
1765394654.240853,1765394654.217823,986.328125,28.80859375,214.84375,640.13671875,0.0,0,0
1765394654.2408772,1765394654.2217193,-151.3671875,-98.6328125,-664.0625,-742.1875,0.0,0,0
1765394654.287719,1765394654.2256932,-1000.0,-136.71875,-727.5390625,-1000.0,0.0,0,0
1765394654.287775,1765394654.2295895,-437.98828125,-19.04296875,295.41015625,-204.58984375,0.0,0,0
1765394654.287808,1765394654.2334857,804.6875,79.58984375,816.89453125,-944.82421875,0.0,0,0
1765394654.287839,1765394654.237382,-926.7578125,49.8046875,332.03125,879.39453125,0.0,0,0
1765394654.287871,1765394654.2412782,-8.30078125,-89.35546875,-571.77734375,-437.01171875,0.0,0,0
1765394654.2879019,1765394654.2451744,-1000.0,-145.01953125,-774.4140625,-1000.0,0.0,0,0
1765394654.287947,1765394654.2490706,-599.609375,-27.34375,165.0390625,-176.26953125,0.0,0,0
1765394654.28798,1765394654.252967,635.7421875,76.66015625,803.7109375,-995.1171875,0.0,0,0
1765394654.288011,1765394654.256863,-865.234375,66.89453125,478.02734375,-967.7734375,0.0,0,0
1765394654.288076,1765394654.2607594,114.74609375,-71.2890625,-485.3515625,-119.62890625,0.0,0,0
1765394654.2881339,1765394654.2646556,-1000.0,-148.92578125,-812.01171875,-1000.0,0.0,0,0
1765394654.2881658,1765394654.2685518,-742.67578125,-47.8515625,26.3671875,-279.78515625,0.0,0,0
1765394654.375726,1765394654.2725194,457.03125,64.94140625,766.6015625,953.125,0.0,0,0
1765394654.375851,1765394654.2764156,-839.35546875,73.2421875,584.47265625,-919.43359375,0.0,0,0
1765394654.375894,1765394654.2803118,225.5859375,-54.6875,-430.6640625,74.70703125,0.0,0,0
1765394654.375934,1765394654.284208,-1000.0,-147.4609375,-828.61328125,-1000.0,0.0,0,0
1765394654.375971,1765394654.2881043,-875.9765625,-71.77734375,-119.140625,-472.16796875,0.0,0,0
1765394654.376009,1765394654.2920005,279.78515625,60.05859375,685.546875,866.2109375,0.0,0,0
1765394654.3760471,1765394654.2958968,-838.8671875,92.28515625,676.7578125,-876.953125,0.0,0,0
1765394654.376085,1765394654.299793,337.40234375,-45.41015625,-366.2109375,195.3125,0.0,0,0
1765394654.376122,1765394654.3036892,-966.796875,-153.80859375,-842.7734375,-1000.0,0.0,0,0
1765394654.376159,1765394654.3075855,-984.375,-92.28515625,-243.1640625,-698.2421875,0.0,0,0
1765394654.3761961,1765394654.3114817,126.953125,46.38671875,597.65625,688.96484375,0.0,0,0
1765394654.376232,1765394654.315378,-859.86328125,94.23828125,749.0234375,-833.0078125,0.0,0,0
1765394654.392429,1765394654.3194168,496.09375,-31.73828125,-278.3203125,170.41015625,0.0,0,0
1765394654.39253,1765394654.323313,-813.96484375,-142.08984375,-869.140625,-1000.0,0.0,0,0
1765394654.392571,1765394654.3272095,-1000.0,-97.16796875,-364.74609375,-921.875,0.0,0,0
1765394654.39261,1765394654.3311057,10.7421875,38.0859375,520.99609375,385.25390625,0.0,0,0
1765394654.392648,1765394654.335002,-895.5078125,101.5625,778.80859375,-784.1796875,0.0,0,0
1765394654.3926852,1765394654.3388982,647.94921875,0.48828125,-157.2265625,162.109375,0.0,0,0
1765394654.392724,1765394654.3427944,-630.859375,-120.60546875,-856.4453125,-1000.0,0.0,0,0
1765394654.392761,1765394654.3466907,-1000.0,-110.83984375,-483.3984375,-1000.0,0.0,0,0
1765394654.392797,1765394654.350587,-119.140625,20.01953125,464.84375,83.984375,0.0,0,0
1765394654.392834,1765394654.3544831,-944.82421875,94.23828125,792.96875,-770.5078125,0.0,0,0
1765394654.3928719,1765394654.3583794,780.76171875,10.25390625,-13.18359375,324.21875,0.0,0,0
1765394654.392909,1765394654.3622756,-454.1015625,-116.69921875,-798.828125,-953.61328125,0.0,0,0
1765394654.437134,1765394654.3663,-1000.0,-124.51171875,-585.44921875,-1000.0,0.0,0,0
1765394654.437271,1765394654.3701963,-238.28125,1.46484375,411.62109375,-106.93359375,0.0,0,0
1765394654.437315,1765394654.3740928,974.609375,88.8671875,798.33984375,-817.3828125,0.0,0,0
1765394654.437356,1765394654.377989,926.7578125,26.85546875,132.8125,514.6484375,0.0,0,0
1765394654.4373949,1765394654.3818853,-239.74609375,-112.3046875,-716.796875,-854.00390625,0.0,0,0
1765394654.4374359,1765394654.3857815,-1000.0,-135.7421875,-684.5703125,-1000.0,0.0,0,0
1765394654.437473,1765394654.3896778,-378.90625,-7.32421875,337.40234375,-208.49609375,0.0,0,0
1765394654.437522,1765394654.3935742,866.69921875,82.51953125,809.5703125,-911.1328125,0.0,0,0
1765394654.43756,1765394654.3974705,-966.30859375,42.96875,273.4375,775.390625,0.0,0,0
1765394654.437598,1765394654.4013667,-75.1953125,-95.21484375,-613.28125,-585.44921875,0.0,0,0
1765394654.437637,1765394654.405263,-1000.0,-144.53125,-762.20703125,-1000.0,0.0,0,0
1765394654.437828,1765394654.4091592,-542.96875,-27.34375,224.609375,-186.5234375,0.0,0,0
1765394654.483847,1765394654.4131744,705.56640625,69.82421875,812.5,-978.02734375,0.0,0,0
1765394654.483992,1765394654.4170706,-893.5546875,57.6171875,408.203125,984.86328125,0.0,0,0
1765394654.484053,1765394654.420967,44.921875,-80.078125,-524.4140625,-248.046875,0.0,0,0
1765394654.484106,1765394654.4248633,-1000.0,-147.94921875,-801.26953125,-1000.0,0.0,0,0
1765394654.484158,1765394654.4287596,-686.5234375,-40.52734375,90.8203125,-209.9609375,0.0,0,0
1765394654.484211,1765394654.4326558,533.203125,72.265625,786.62109375,983.88671875,0.0,0,0
1765394654.484263,1765394654.4365523,-847.65625,70.3125,521.97265625,-942.87109375,0.0,0,0
1765394654.4843142,1765394654.4404485,169.43359375,-70.3125,-464.35546875,-12.6953125,0.0,0,0
1765394654.484365,1765394654.4443448,-1000.0,-149.90234375,-817.87109375,-1000.0,0.0,0,0
1765394654.484416,1765394654.448241,-825.1953125,-67.3828125,-50.29296875,-384.765625,0.0,0,0
1765394654.4844658,1765394654.4521375,349.609375,53.22265625,733.3984375,905.76171875,0.0,0,0
1765394654.484517,1765394654.4560337,-834.9609375,83.984375,626.46484375,-894.04296875,0.0,0,0
1765394654.5259461,1765394654.4600375,274.90234375,-46.38671875,-344.7265625,166.015625,0.0,0,0
1765394654.526023,1765394654.4639337,-1000.0,-148.4375,-740.72265625,-1000.0,0.0,0,0
1765394654.526057,1765394654.4678302,-945.80078125,-84.9609375,-183.10546875,-605.95703125,0.0,0,0
1765394654.526088,1765394654.4717264,179.6875,44.43359375,639.16015625,777.83203125,0.0,0,0
1765394654.526121,1765394654.4756227,-846.6796875,84.9609375,723.6328125,-852.05078125,0.0,0,0
1765394654.526152,1765394654.4795191,418.45703125,-35.15625,-312.98828125,184.08203125,0.0,0,0
1765394654.5261838,1765394654.4834154,-893.5546875,-139.6484375,-847.16796875,-1000.0,0.0,0,0
1765394654.526214,1765394654.4873116,-1000.0,-98.6328125,-313.4765625,-830.56640625,0.0,0,0
1765394654.526237,1765394654.491208,61.5234375,29.78515625,543.9453125,521.97265625,0.0,0,0
1765394654.526262,1765394654.4951043,-876.46484375,90.8203125,769.53125,-803.7109375,0.0,0,0
1765394654.5262861,1765394654.4990005,573.73046875,-20.99609375,-207.51953125,151.85546875,0.0,0,0
1765394654.52631,1765394654.502897,-724.12109375,-138.18359375,-854.00390625,-1000.0,0.0,0,0
1765394654.5707252,1765394654.506892,-1000.0,-114.74609375,-418.45703125,-1000.0,0.0,0,0
1765394654.5707881,1765394654.5107884,-57.6171875,21.97265625,487.79296875,186.5234375,0.0,0,0
1765394654.570821,1765394654.5146847,-922.36328125,104.4921875,789.55078125,-767.578125,0.0,0,0
1765394654.5708532,1765394654.518581,729.00390625,10.25390625,-68.84765625,244.140625,0.0,0,0
1765394654.5708852,1765394654.5224774,-527.34375,-120.60546875,-821.77734375,-989.74609375,0.0,0,0
1765394654.5709171,1765394654.5263736,-1000.0,-119.62890625,-531.25,-1000.0,0.0,0,0
1765394654.570986,1765394654.53027,-177.734375,7.32421875,441.40625,-42.48046875,0.0,0,0
1765394654.571038,1765394654.5341663,-985.3515625,83.0078125,789.55078125,-793.9453125,0.0,0,0
1765394654.571071,1765394654.5380626,868.65234375,11.23046875,65.91796875,430.6640625,0.0,0,0
1765394654.5711029,1765394654.541959,-327.63671875,-120.1171875,-751.46484375,-899.90234375,0.0,0,0
1765394654.571136,1765394654.5458553,-1000.0,-135.25390625,-641.6015625,-1000.0,0.0,0,0
1765394654.571166,1765394654.5497518,-312.5,-2.44140625,375.9765625,-196.77734375,0.0,0,0
1765394654.618765,1765394654.5537379,915.52734375,84.9609375,802.24609375,-875.9765625,0.0,0,0
1765394654.618897,1765394654.557634,999.0234375,35.64453125,223.14453125,667.96875,0.0,0,0
1765394654.618956,1765394654.5615306,-130.859375,-100.5859375,-644.04296875,-713.37890625,0.0,0,0
1765394654.61901,1765394654.5654268,-1000.0,-146.484375,-726.5625,-1000.0,0.0,0,0
1765394654.619062,1765394654.569323,-459.47265625,-18.06640625,281.25,-201.66015625,0.0,0,0
1765394654.6191008,1765394654.5732195,786.1328125,87.890625,807.6171875,-949.70703125,0.0,0,0
1765394654.619139,1765394654.5771158,-918.9453125,57.6171875,340.8203125,897.4609375,0.0,0,0
1765394654.619176,1765394654.5810122,4.8828125,-86.9140625,-560.546875,-409.1796875,0.0,0,0
1765394654.619216,1765394654.5849085,-1000.0,-152.83203125,-779.296875,-1000.0,0.0,0,0
1765394654.6192708,1765394654.588805,-616.69921875,-40.0390625,145.5078125,-175.29296875,0.0,0,0
1765394654.619309,1765394654.5927012,618.1640625,67.3828125,798.33984375,-995.60546875,0.0,0,0
1765394654.6193652,1765394654.5965977,-861.328125,62.98828125,473.14453125,-966.796875,0.0,0,0
1765394654.675776,1765394654.6006477,127.44140625,-73.2421875,-490.234375,-108.3984375,0.0,0,0
1765394654.675849,1765394654.604544,-1000.0,-156.25,-810.546875,-1000.0,0.0,0,0
1765394654.6758761,1765394654.6084404,-752.44140625,-58.10546875,4.39453125,-310.546875,0.0,0,0
1765394654.675902,1765394654.6123366,445.80078125,66.40625,750.9765625,939.94140625,0.0,0,0
1765394654.675928,1765394654.616233,-838.8671875,79.1015625,590.8203125,-913.0859375,0.0,0,0
1765394654.675953,1765394654.6201293,237.3046875,-55.6640625,-423.828125,86.42578125,0.0,0,0
1765394654.675977,1765394654.6240258,-1000.0,-143.5546875,-831.54296875,-1000.0,0.0,0,0
1765394654.676,1765394654.627922,-881.34765625,-70.80078125,-136.71875,-487.79296875,0.0,0,0
1765394654.6760252,1765394654.6318185,269.53125,52.734375,679.6875,858.3984375,0.0,0,0
1765394654.6760478,1765394654.6357148,-841.30859375,83.0078125,687.98828125,-873.53515625,0.0,0,0
1765394654.676072,1765394654.6396112,366.69921875,-43.45703125,-358.3984375,199.21875,0.0,0,0
1765394654.676096,1765394654.6435075,-949.21875,-141.11328125,-847.65625,-1000.0,0.0,0,0
1765394654.722605,1765394654.6474876,-988.28125,-90.33203125,-261.71875,-740.72265625,0.0,0,0
1765394654.7227578,1765394654.6513839,127.9296875,42.48046875,584.47265625,639.6484375,0.0,0,0
1765394654.722817,1765394654.6552804,-864.2578125,97.16796875,754.8828125,-823.73046875,0.0,0,0
1765394654.7228742,1765394654.6591768,514.16015625,-22.4609375,-256.34765625,164.0625,0.0,0,0
1765394654.722928,1765394654.663073,-796.38671875,-133.30078125,-856.93359375,-1000.0,0.0,0,0
1765394654.7229812,1765394654.6669695,-1000.0,-102.5390625,-367.1875,-957.03125,0.0,0,0
1765394654.7230332,1765394654.6708658,13.671875,31.25,518.06640625,321.2890625,0.0,0,0
1765394654.723084,1765394654.6747622,-900.390625,95.703125,775.390625,-778.3203125,0.0,0,0
1765394654.723136,1765394654.6786587,663.0859375,-9.27734375,-148.4375,180.17578125,0.0,0,0
1765394654.723205,1765394654.682555,-611.81640625,-114.2578125,-848.6328125,-1000.0,0.0,0,0
1765394654.7232661,1765394654.6864514,-1000.0,-102.05078125,-485.83984375,-1000.0,0.0,0,0
1765394654.723326,1765394654.6903477,-114.2578125,17.08984375,468.75,77.1484375,0.0,0,0
1765394654.768162,1765394654.6943796,-969.7265625,92.7734375,772.4609375,-830.56640625,0.0,0,0
1765394654.768252,1765394654.698276,782.71484375,12.20703125,-19.04296875,266.6015625,0.0,0,0
1765394654.76829,1765394654.7021725,-412.59765625,-115.234375,-780.76171875,-927.24609375,0.0,0,0
1765394654.7683232,1765394654.7060688,-1000.0,-133.30078125,-601.5625,-1000.0,0.0,0,0
1765394654.768356,1765394654.7099652,-259.765625,-3.41796875,399.90234375,-125.0,0.0,0,0
1765394654.7683861,1765394654.7138617,966.796875,87.890625,796.875,-824.70703125,0.0,0,0
1765394654.768418,1765394654.717758,929.19921875,21.97265625,148.92578125,530.2734375,0.0,0,0
1765394654.768448,1765394654.7216544,-232.91015625,-110.83984375,-700.68359375,-839.84375,0.0,0,0
1765394654.768482,1765394654.725551,-1000.0,-142.578125,-697.265625,-1000.0,0.0,0,0
1765394654.768511,1765394654.7294471,-400.390625,-18.5546875,320.3125,-214.84375,0.0,0,0
1765394654.768544,1765394654.7333436,848.6328125,78.61328125,811.5234375,-919.43359375,0.0,0,0
1765394654.768575,1765394654.73724,-959.47265625,42.48046875,292.48046875,796.875,0.0,0,0
1765394654.810775,1765394654.7412615,-64.453125,-98.14453125,-601.07421875,-558.10546875,0.0,0,0
1765394654.810831,1765394654.745158,-1000.0,-152.83203125,-764.16015625,-1000.0,0.0,0,0
1765394654.810862,1765394654.7490542,-554.19921875,-32.2265625,216.796875,-183.59375,0.0,0,0
1765394654.810965,1765394654.7529507,690.91796875,72.75390625,817.87109375,-982.91015625,0.0,0,0
1765394654.8109992,1765394654.7568471,-883.7890625,66.89453125,424.31640625,-1000.0,0.0,0,0
1765394654.81103,1765394654.7607436,67.87109375,-73.2421875,-515.625,-216.796875,0.0,0,0
1765394654.811061,1765394654.7646399,-1000.0,-157.2265625,-797.8515625,-1000.0,0.0,0,0
1765394654.81109,1765394654.7685363,-706.54296875,-50.29296875,76.171875,-225.09765625,0.0,0,0
1765394654.81112,1765394654.7724328,508.7890625,70.80078125,779.78515625,979.00390625,0.0,0,0
1765394654.811151,1765394654.7763293,-848.6328125,81.54296875,542.96875,-939.453125,0.0,0,0
1765394654.811181,1765394654.7802255,171.38671875,-60.05859375,-456.0546875,-6.8359375,0.0,0,0
1765394654.811214,1765394654.784122,-1000.0,-147.4609375,-821.77734375,-1000.0,0.0,0,0
1765394654.85567,1765394654.7881348,-833.0078125,-56.15234375,-68.84765625,-390.13671875,0.0,0,0
1765394654.855766,1765394654.792031,334.9609375,69.3359375,722.16796875,901.3671875,0.0,0,0
1765394654.855799,1765394654.7959275,-836.9140625,86.9140625,648.92578125,-891.6015625,0.0,0,0
1765394654.85583,1765394654.799824,302.24609375,-51.26953125,-396.97265625,180.6640625,0.0,0,0
1765394654.855859,1765394654.8037205,-1000.0,-145.99609375,-840.33203125,-1000.0,0.0,0,0
1765394654.8558888,1765394654.807617,-939.453125,-75.1953125,-187.98828125,-598.6328125,0.0,0,0
1765394654.8559182,1765394654.8115132,190.4296875,55.17578125,611.328125,787.109375,0.0,0,0
1765394654.855947,1765394654.8154097,-852.05078125,92.28515625,697.265625,-853.515625,0.0,0,0
1765394654.855977,1765394654.8193061,441.40625,-28.3203125,-298.33984375,180.6640625,0.0,0,0
1765394654.856006,1765394654.8232026,-873.046875,-140.13671875,-854.00390625,-1000.0,0.0,0,0
1765394654.856043,1765394654.827099,-1000.0,-95.703125,-313.96484375,-868.65234375,0.0,0,0
1765394654.856071,1765394654.8309953,53.7109375,36.62109375,548.828125,467.7734375,0.0,0,0
1765394654.9038239,1765394654.8349998,-882.8125,94.23828125,770.01953125,-795.8984375,0.0,0,0
1765394654.903975,1765394654.8388963,594.23828125,-11.23046875,-192.87109375,148.4375,0.0,0,0
1765394654.904033,1765394654.8427927,-697.75390625,-124.0234375,-851.5625,-1000.0,0.0,0,0
1765394654.9040902,1765394654.8466892,-1000.0,-102.05078125,-424.8046875,-1000.0,0.0,0,0
1765394654.9041522,1765394654.8505857,-68.84765625,29.296875,490.234375,145.99609375,0.0,0,0
1765394654.904205,1765394654.8544822,-926.7578125,106.93359375,792.96875,-768.06640625,0.0,0,0
1765394654.9042602,1765394654.8583784,743.65234375,14.6484375,-48.33984375,279.78515625,0.0,0,0
1765394654.904313,1765394654.862275,-506.8359375,-118.65234375,-817.87109375,-978.515625,0.0,0,0
1765394654.904365,1765394654.8661714,-1000.0,-120.1171875,-553.22265625,-1000.0,0.0,0,0
1765394654.904429,1765394654.8700678,-199.21875,11.71875,430.17578125,-39.55078125,0.0,0,0
1765394654.904501,1765394654.8739643,-991.2109375,95.703125,796.38671875,-797.8515625,0.0,0,0
1765394654.904551,1765394654.8778608,874.51171875,26.3671875,91.30859375,457.03125,0.0,0,0
1765394654.976886,1765394654.882006,-315.4296875,-110.83984375,-741.69921875,-882.8125,0.0,0,0
1765394654.977025,1765394654.8859024,-1000.0,-135.7421875,-656.73828125,-1000.0,0.0,0,0
1765394654.9770691,1765394654.8897989,-341.796875,-9.27734375,359.375,-200.1953125,0.0,0,0
1765394654.977108,1765394654.8936954,905.2734375,86.9140625,811.5234375,-881.8359375,0.0,0,0
1765394654.9771461,1765394654.8975918,994.62890625,41.50390625,235.3515625,684.08203125,0.0,0,0
1765394654.9771829,1765394654.9014883,-137.20703125,-96.6796875,-648.92578125,-695.3125,0.0,0,0
1765394654.977221,1765394654.9053848,-1000.0,-140.13671875,-741.69921875,-1000.0,0.0,0,0
1765394654.977257,1765394654.9092813,-502.44140625,-23.4375,259.765625,-198.73046875,0.0,0,0
1765394654.9772959,1765394654.9131777,754.39453125,72.75390625,813.4765625,-955.56640625,0.0,0,0
1765394654.977333,1765394654.9170742,-914.55078125,45.8984375,364.74609375,916.015625,0.0,0,0
1765394654.977373,1765394654.9209707,1.953125,-91.30859375,-552.24609375,-377.9296875,0.0,0,0
1765394654.977414,1765394654.9248672,-1000.0,-154.296875,-786.1328125,-1000.0,0.0,0,0
1765394654.9927711,1765394654.9288573,-645.01953125,-37.109375,138.18359375,-174.31640625,0.0,0,0
1765394654.9929101,1765394654.9327538,588.37890625,76.66015625,803.22265625,-997.0703125,0.0,0,0
1765394654.9929721,1765394654.9366503,-862.79296875,71.77734375,491.69921875,-962.890625,0.0,0,0
1765394654.993027,1765394654.9405468,116.2109375,-66.40625,-479.4921875,-91.30859375,0.0,0,0
1765394654.9930801,1765394654.9444432,-1000.0,-149.90234375,-816.40625,-1000.0,0.0,0,0
1765394654.993131,1765394654.9483397,-788.57421875,-55.17578125,-9.27734375,-316.40625,0.0,0,0
