timestamp,lsl_timestamp,TP9,AF7,AF8,TP10,Right AUX,keypress_A,keypress_B
1765394732.170953,1765394732.1015997,8.7890625,-13.18359375,34.1796875,-925.78125,0.0,0,0
1765394732.171146,1765394732.1054947,-84.47265625,-23.4375,65.91796875,338.37890625,0.0,0,0
1765394732.1711721,1765394732.1093898,-91.30859375,-34.66796875,-32.71484375,-743.1640625,0.0,0,0
1765394732.171194,1765394732.1132848,-21.97265625,-17.08984375,-100.09765625,-892.578125,0.0,0,0
1765394732.171214,1765394732.1171799,14.16015625,-19.04296875,-88.37890625,-486.81640625,0.0,0,0
1765394732.1712341,1765394732.121075,-4.8828125,-20.99609375,41.9921875,993.1640625,0.0,0,0
1765394732.171254,1765394732.12497,-108.88671875,-31.25,73.73046875,390.625,0.0,0,0
1765394732.171275,1765394732.128865,-118.1640625,-22.4609375,-43.45703125,-703.61328125,0.0,0,0
1765394732.171295,1765394732.13276,-38.57421875,-19.53125,-114.74609375,-841.796875,0.0,0,0
1765394732.171315,1765394732.136655,24.4140625,-34.1796875,-106.4453125,-496.09375,0.0,0,0
1765394732.171335,1765394732.1405504,24.4140625,-16.6015625,18.06640625,885.7421875,0.0,0,0
1765394732.1713548,1765394732.1444454,-67.87109375,-20.5078125,77.63671875,767.578125,0.0,0,0
1765394732.2110221,1765394732.1484416,-95.21484375,-31.25,-9.765625,-446.77734375,0.0,0,0
1765394732.211335,1765394732.1523366,-43.45703125,-37.59765625,-97.16796875,-1000.0,0.0,0,0
1765394732.211345,1765394732.1562316,32.71484375,-28.80859375,-108.88671875,-617.1875,0.0,0,0
1765394732.211355,1765394732.1601267,30.2734375,-15.13671875,2.44140625,796.38671875,0.0,0,0
1765394732.211364,1765394732.1640217,-72.265625,-23.92578125,64.453125,730.95703125,0.0,0,0
1765394732.211373,1765394732.1679168,-90.8203125,-25.87890625,6.34765625,-168.9453125,0.0,0,0
1765394732.211381,1765394732.1718118,-24.4140625,-21.484375,-77.63671875,-464.35546875,0.0,0,0
1765394732.21139,1765394732.175707,-3.90625,-30.2734375,-132.8125,-984.375,0.0,0,0
1765394732.211398,1765394732.1796021,18.5546875,-24.4140625,-14.16015625,227.05078125,0.0,0,0
1765394732.2114072,1765394732.1834972,-37.59765625,-26.3671875,67.3828125,992.1875,0.0,0,0
1765394732.211415,1765394732.1873922,-98.6328125,-39.0625,8.30078125,-182.6171875,0.0,0,0
1765394732.211423,1765394732.1912873,-40.0390625,-43.45703125,-80.56640625,-856.4453125,0.0,0,0
1765394732.271376,1765394732.1952722,17.578125,-35.15625,-122.0703125,-793.45703125,0.0,0,0
1765394732.271471,1765394732.1991673,38.57421875,-16.6015625,-19.04296875,384.27734375,0.0,0,0
1765394732.271504,1765394732.2030625,-25.87890625,-21.97265625,69.3359375,-928.22265625,0.0,0,0
1765394732.2715352,1765394732.2069576,-106.4453125,-36.1328125,16.6015625,-111.328125,0.0,0,0
1765394732.271564,1765394732.2108526,-47.8515625,-36.62109375,-78.125,-793.45703125,0.0,0,0
1765394732.271594,1765394732.2147477,26.3671875,-26.3671875,-104.98046875,-867.67578125,0.0,0,0
1765394732.2716238,1765394732.2186427,34.1796875,-18.06640625,-40.0390625,25.390625,0.0,0,0
1765394732.2716532,1765394732.222538,-16.11328125,-20.99609375,39.55078125,-848.6328125,0.0,0,0
1765394732.271682,1765394732.226433,-103.02734375,-30.76171875,31.73828125,15.625,0.0,0,0
1765394732.271712,1765394732.230328,-67.3828125,-33.69140625,-60.05859375,-864.2578125,0.0,0,0
1765394732.271741,1765394732.2342231,7.8125,-28.3203125,-119.140625,-953.61328125,0.0,0,0
1765394732.271769,1765394732.2381182,28.80859375,-20.5078125,-66.89453125,-191.40625,0.0,0,0
1765394732.316281,1765394732.2421064,-9.765625,-18.06640625,42.96875,-839.35546875,0.0,0,0
1765394732.316362,1765394732.2460015,-103.515625,-32.71484375,41.015625,43.9453125,0.0,0,0
1765394732.316393,1765394732.2498965,-70.80078125,-29.296875,-51.26953125,-666.9921875,0.0,0,0
1765394732.31642,1765394732.2537918,2.9296875,-25.87890625,-105.95703125,-773.4375,0.0,0,0
1765394732.316467,1765394732.2576869,29.78515625,-22.4609375,-75.1953125,-496.58203125,0.0,0,0
1765394732.316492,1765394732.261582,15.625,-5.859375,46.38671875,-940.4296875,0.0,0,0
1765394732.316517,1765394732.2654772,-81.54296875,-16.6015625,65.91796875,296.875,0.0,0,0
1765394732.316541,1765394732.2693722,-65.91796875,-26.3671875,-36.62109375,-538.0859375,0.0,0,0
1765394732.316565,1765394732.2732673,-3.90625,-35.64453125,-124.51171875,-703.125,0.0,0,0
1765394732.316589,1765394732.2771623,21.97265625,-28.80859375,-114.2578125,-640.625,0.0,0,0
1765394732.31664,1765394732.2810576,22.94921875,-7.8125,23.92578125,953.61328125,0.0,0,0
1765394732.316664,1765394732.2849526,-80.56640625,-26.3671875,57.6171875,369.62890625,0.0,0,0
1765394732.361759,1765394732.2890046,-77.1484375,-36.62109375,-43.45703125,-639.6484375,0.0,0,0
1765394732.361856,1765394732.2928998,-3.90625,-25.390625,-112.79296875,-773.4375,0.0,0,0
1765394732.3618848,1765394732.296795,36.62109375,-10.25390625,-103.515625,-516.11328125,0.0,0,0
1765394732.36191,1765394732.30069,25.390625,-7.32421875,15.625,941.40625,0.0,0,0
1765394732.36196,1765394732.3045852,-72.265625,-19.04296875,70.3125,643.06640625,0.0,0,0
1765394732.361985,1765394732.3084803,-76.171875,-16.6015625,-5.37109375,-321.2890625,0.0,0,0
1765394732.36201,1765394732.3123755,-12.20703125,-20.99609375,-93.26171875,-814.453125,0.0,0,0
1765394732.3620338,1765394732.3162706,41.50390625,-20.5078125,-108.3984375,-660.15625,0.0,0,0
1765394732.362058,1765394732.3201656,35.64453125,-4.8828125,11.23046875,806.640625,0.0,0,0
1765394732.362082,1765394732.324061,-57.6171875,-7.8125,70.80078125,749.51171875,0.0,0,0
1765394732.362106,1765394732.327956,-82.03125,-27.83203125,-3.90625,-399.90234375,0.0,0,0
1765394732.36213,1765394732.331851,-20.5078125,-30.2734375,-84.47265625,-781.73828125,0.0,0,0
1765394732.407097,1765394732.3358936,27.34375,-23.92578125,-121.09375,-950.68359375,0.0,0,0
1765394732.4072351,1765394732.339789,36.1328125,-16.6015625,-18.06640625,259.765625,0.0,0,0
1765394732.407277,1765394732.343684,-41.50390625,-19.53125,60.546875,947.265625,0.0,0,0
1765394732.407315,1765394732.3475792,-103.02734375,-32.2265625,-6.8359375,-242.1875,0.0,0,0
1765394732.4073548,1765394732.3514743,-45.8984375,-32.2265625,-86.42578125,-845.703125,0.0,0,0
1765394732.4073951,1765394732.3553696,17.08984375,-28.3203125,-115.234375,-809.08203125,0.0,0,0
1765394732.4074318,1765394732.3592646,31.73828125,-18.06640625,-26.3671875,344.7265625,0.0,0,0
1765394732.407469,1765394732.36316,-33.69140625,-24.90234375,47.8515625,-989.74609375,0.0,0,0
1765394732.407506,1765394732.367055,-106.93359375,-15.13671875,-1.953125,-222.65625,0.0,0,0
1765394732.4075441,1765394732.3709502,-47.36328125,0.9765625,-80.078125,-879.8828125,0.0,0,0
1765394732.407582,1765394732.3748453,11.23046875,-26.85546875,-115.234375,-970.703125,0.0,0,0
1765394732.407619,1765394732.3787405,28.3203125,-25.390625,-33.69140625,33.203125,0.0,0,0
1765394732.452003,1765394732.382772,-20.01953125,-24.90234375,56.640625,-871.58203125,0.0,0,0
1765394732.4521458,1765394732.3866673,-111.81640625,-38.0859375,19.53125,-51.7578125,0.0,0,0
1765394732.45219,1765394732.3905623,-64.453125,-35.15625,-65.91796875,-751.46484375,0.0,0,0
1765394732.45223,1765394732.3944576,0.0,-36.62109375,-121.09375,-962.890625,0.0,0,0
1765394732.452283,1765394732.3983526,14.6484375,-32.2265625,-76.66015625,-349.12109375,0.0,0,0
1765394732.4523761,1765394732.402248,-15.625,-24.4140625,34.66796875,-879.39453125,0.0,0,0
1765394732.4524212,1765394732.4061432,-117.67578125,-36.1328125,32.71484375,49.31640625,0.0,0,0
1765394732.4524622,1765394732.4100382,-70.80078125,-40.0390625,-56.640625,-660.15625,0.0,0,0
1765394732.452501,1765394732.4139335,1.953125,-11.23046875,-113.76953125,-785.15625,0.0,0,0
1765394732.452538,1765394732.4178286,10.7421875,-3.90625,-78.125,-475.5859375,0.0,0,0
1765394732.452576,1765394732.4217238,-2.44140625,-22.94921875,44.43359375,-875.48828125,0.0,0,0
1765394732.452613,1765394732.425619,-105.95703125,-41.015625,49.8046875,173.828125,0.0,0,0
1765394732.497696,1765394732.42964,-68.84765625,-38.0859375,-47.36328125,-666.015625,0.0,0,0
1765394732.4978392,1765394732.433535,10.25390625,-34.1796875,-102.5390625,-774.90234375,0.0,0,0
1765394732.49789,1765394732.4374304,32.71484375,-25.87890625,-74.21875,-458.0078125,0.0,0,0
1765394732.498345,1765394732.4413254,15.625,-13.671875,42.96875,-873.53515625,0.0,0,0
1765394732.4983869,1765394732.4452207,-94.7265625,-34.66796875,61.5234375,239.74609375,0.0,0,0
1765394732.4984262,1765394732.449116,-75.68359375,-34.1796875,-28.80859375,-507.8125,0.0,0,0
1765394732.498464,1765394732.453011,1.46484375,-27.83203125,-92.7734375,-511.71875,0.0,0,0
1765394732.4985,1765394732.4569063,7.32421875,-30.76171875,-99.609375,-821.77734375,0.0,0,0
1765394732.4985359,1765394732.4608016,12.6953125,-16.11328125,17.08984375,660.15625,0.0,0,0
1765394732.498572,1765394732.4646966,-56.640625,-24.4140625,75.68359375,749.0234375,0.0,0,0
1765394732.498608,1765394732.468592,-92.7734375,-39.0625,-15.13671875,-535.64453125,0.0,0,0
1765394732.4986439,1765394732.4724872,-22.4609375,-35.15625,-88.8671875,-976.5625,0.0,0,0
1765394732.541125,1765394732.4764917,28.80859375,-27.34375,-99.12109375,-804.19921875,0.0,0,0
1765394732.541269,1765394732.480387,21.484375,-20.01953125,1.953125,556.15234375,0.0,0,0
1765394732.541313,1765394732.4842823,-58.10546875,-26.3671875,65.4296875,758.7890625,0.0,0,0
1765394732.541352,1765394732.4881775,-96.6796875,-35.64453125,-7.32421875,-482.91015625,0.0,0,0
1765394732.5413902,1765394732.4920726,-33.203125,-39.55078125,-94.23828125,-898.92578125,0.0,0,0
1765394732.541429,1765394732.4959679,24.90234375,-32.2265625,-106.4453125,-692.3828125,0.0,0,0
1765394732.541466,1765394732.4998631,42.48046875,-11.23046875,12.6953125,742.1875,0.0,0,0
1765394732.541503,1765394732.5037584,-54.19921875,-13.18359375,62.98828125,680.17578125,0.0,0,0
1765394732.5415418,1765394732.5076535,-114.74609375,-33.203125,-10.25390625,-492.67578125,0.0,0,0
1765394732.54158,1765394732.5115488,-42.48046875,-43.9453125,-90.33203125,-606.93359375,0.0,0,0
1765394732.541617,1765394732.515444,4.39453125,-42.48046875,-125.9765625,-1000.0,0.0,0,0
1765394732.541653,1765394732.5193393,26.85546875,-20.99609375,-21.97265625,78.125,0.0,0,0
1765394732.5862138,1765394732.5233326,-19.53125,-16.11328125,64.453125,-923.33984375,0.0,0,0
1765394732.586329,1765394732.5272279,-85.44921875,-30.76171875,17.08984375,-111.81640625,0.0,0,0
1765394732.586375,1765394732.531123,-38.57421875,-28.80859375,-70.80078125,-946.77734375,0.0,0,0
1765394732.586414,1765394732.5350182,27.83203125,-23.92578125,-108.88671875,-935.05859375,0.0,0,0
1765394732.586453,1765394732.5389135,48.33984375,-19.53125,-28.3203125,123.53515625,0.0,0,0
1765394732.5864902,1765394732.5428088,-6.8359375,-19.53125,62.01171875,-876.46484375,0.0,0,0
1765394732.5865269,1765394732.546704,-94.7265625,-24.90234375,32.2265625,7.32421875,0.0,0,0
1765394732.586564,1765394732.550599,-58.10546875,-24.4140625,-76.171875,-955.078125,0.0,0,0
1765394732.586601,1765394732.5544944,22.94921875,-26.85546875,-116.2109375,-780.76171875,0.0,0,0
1765394732.586638,1765394732.5583897,40.52734375,-23.4375,-47.8515625,51.7578125,0.0,0,0
1765394732.586676,1765394732.562285,-13.671875,-23.92578125,48.33984375,-958.0078125,0.0,0,0
1765394732.586713,1765394732.5661802,-90.8203125,-33.203125,43.9453125,174.31640625,0.0,0,0
1765394732.6443899,1765394732.570163,-67.87109375,-43.45703125,-62.5,-1000.0,0.0,0,0
1765394732.644563,1765394732.5740583,14.16015625,-29.78515625,-118.65234375,-1000.0,0.0,0,0
1765394732.644623,1765394732.5779536,55.17578125,-12.20703125,-56.15234375,-91.796875,0.0,0,0
1765394732.6446788,1765394732.5818489,10.25390625,-10.25390625,53.22265625,-815.4296875,0.0,0,0
1765394732.644734,1765394732.585744,-100.5859375,-23.92578125,55.17578125,157.2265625,0.0,0,0
1765394732.644786,1765394732.5896392,-61.5234375,-19.53125,-27.83203125,-551.7578125,0.0,0,0
1765394732.644833,1765394732.5935345,6.34765625,-18.06640625,-101.5625,-735.83984375,0.0,0,0
1765394732.644871,1765394732.5974298,22.94921875,-22.4609375,-84.47265625,-480.46875,0.0,0,0
1765394732.644911,1765394732.601325,17.08984375,-19.53125,36.1328125,-896.97265625,0.0,0,0
1765394732.644948,1765394732.6052203,-78.125,-27.83203125,64.453125,375.9765625,0.0,0,0
1765394732.6449869,1765394732.6091156,-79.58984375,-24.4140625,-27.34375,-680.17578125,0.0,0,0
1765394732.645025,1765394732.6130106,2.9296875,-24.4140625,-93.26171875,-825.68359375,0.0,0,0
1765394732.706045,1765394732.6171548,44.43359375,-28.3203125,-97.65625,-635.25390625,0.0,0,0
1765394732.706214,1765394732.6210501,22.94921875,-16.6015625,13.671875,825.1953125,0.0,0,0
1765394732.706256,1765394732.6249454,-65.4296875,-18.5546875,66.89453125,473.6328125,0.0,0,0
1765394732.706294,1765394732.6288407,-86.9140625,-31.73828125,-27.34375,-612.3046875,0.0,0,0
1765394732.7063308,1765394732.632736,-18.06640625,-31.73828125,-95.703125,-796.38671875,0.0,0,0
1765394732.706371,1765394732.6366313,45.41015625,-19.04296875,-83.984375,-409.1796875,0.0,0,0
1765394732.7064111,1765394732.6405265,19.53125,-9.27734375,35.64453125,-951.66015625,0.0,0,0
1765394732.7064488,1765394732.6444218,-98.6328125,-31.25,73.73046875,457.03125,0.0,0,0
1765394732.706486,1765394732.648317,-107.421875,-41.9921875,-24.90234375,-541.9921875,0.0,0,0
1765394732.706523,1765394732.6522124,-18.5546875,-31.25,-97.16796875,-627.44140625,0.0,0,0
1765394732.706559,1765394732.6561077,25.87890625,-24.4140625,-105.46875,-818.359375,0.0,0,0
1765394732.7065952,1765394732.660003,27.34375,-20.01953125,7.8125,523.4375,0.0,0,0
1765394732.736823,1765394732.6640496,-48.33984375,-23.92578125,76.171875,884.27734375,0.0,0,0
1765394732.736992,1765394732.667945,-101.07421875,-28.3203125,5.37109375,-361.328125,0.0,0,0
1765394732.73708,1765394732.6718402,-40.0390625,-32.2265625,-81.54296875,-850.5859375,0.0,0,0
1765394732.7372339,1765394732.6757357,18.06640625,-35.64453125,-121.58203125,-872.0703125,0.0,0,0
1765394732.737358,1765394732.679631,24.90234375,-23.4375,-12.6953125,271.484375,0.0,0,0
1765394732.7374,1765394732.6835263,-26.3671875,-16.11328125,86.42578125,-912.109375,0.0,0,0
1765394732.737431,1765394732.6874216,-90.33203125,-26.3671875,28.80859375,-187.01171875,0.0,0,0
1765394732.737489,1765394732.6913168,-41.9921875,-29.296875,-73.2421875,-1000.0,0.0,0,0
1765394732.7375271,1765394732.6952121,4.39453125,-33.69140625,-130.37109375,-1000.0,0.0,0,0
1765394732.737589,1765394732.6991074,16.6015625,-26.85546875,-35.15625,-39.0625,0.0,0,0
1765394732.737629,1765394732.703003,-14.6484375,-19.04296875,67.87109375,-905.76171875,0.0,0,0
1765394732.73766,1765394732.7068982,-85.9375,-29.296875,34.66796875,-40.0390625,0.0,0,0
1765394732.7800372,1765394732.71093,-33.69140625,-22.4609375,-47.36328125,-780.2734375,0.0,0,0
1765394732.780092,1765394732.7148254,10.25390625,-10.7421875,-107.91015625,-983.88671875,0.0,0,0
1765394732.780118,1765394732.718721,27.83203125,-6.34765625,-33.203125,-89.35546875,0.0,0,0
1765394732.780145,1765394732.7226162,-3.90625,-10.7421875,71.2890625,-808.59375,0.0,0,0
1765394732.780169,1765394732.7265115,-97.16796875,-30.76171875,44.43359375,20.5078125,0.0,0,0
1765394732.780193,1765394732.7304068,-59.08203125,-30.76171875,-44.921875,-763.18359375,0.0,0,0
1765394732.780216,1765394732.734302,13.18359375,-21.484375,-95.21484375,-882.8125,0.0,0,0
1765394732.780239,1765394732.7381976,38.57421875,-19.53125,-45.8984375,-255.37109375,0.0,0,0
1765394732.7802649,1765394732.7420928,1.46484375,-25.87890625,45.8984375,-841.30859375,0.0,0,0
1765394732.780289,1765394732.7459881,-105.95703125,-35.64453125,31.25,34.1796875,0.0,0,0
1765394732.780313,1765394732.7498834,-67.3828125,-26.3671875,-49.8046875,-708.49609375,0.0,0,0
1765394732.7803361,1765394732.753779,-0.9765625,-24.4140625,-112.79296875,-841.796875,0.0,0,0
1765394732.825165,1765394732.7578003,32.71484375,-20.5078125,-81.0546875,-460.9375,0.0,0,0
1765394732.825241,1765394732.7616956,26.3671875,-9.27734375,49.31640625,-903.80859375,0.0,0,0
1765394732.82527,1765394732.765591,-74.70703125,-15.625,62.5,475.5859375,0.0,0,0
1765394732.8252952,1765394732.7694864,-80.56640625,-23.92578125,-44.921875,-801.7578125,0.0,0,0
1765394732.82532,1765394732.7733817,-9.27734375,-22.4609375,-105.46875,-1000.0,0.0,0,0
1765394732.825343,1765394732.777277,56.640625,-10.7421875,-84.47265625,-266.6015625,0.0,0,0
1765394732.825372,1765394732.7811725,21.484375,-11.23046875,19.04296875,-858.3984375,0.0,0,0
1765394732.8254972,1765394732.7850678,-95.703125,-27.34375,48.828125,376.953125,0.0,0,0
1765394732.825525,1765394732.788963,-82.03125,-48.828125,-37.109375,-557.6171875,0.0,0,0
1765394732.825548,1765394732.7928586,-13.671875,-47.8515625,-106.93359375,-786.1328125,0.0,0,0
1765394732.825572,1765394732.796754,33.69140625,-21.97265625,-99.12109375,-486.328125,0.0,0,0
1765394732.8255959,1765394732.8006492,26.85546875,-15.13671875,18.06640625,-971.19140625,0.0,0,0
1765394732.87102,1765394732.8046608,-79.1015625,-29.78515625,62.5,526.3671875,0.0,0,0
1765394732.871147,1765394732.808556,-99.609375,-32.2265625,-22.94921875,-557.12890625,0.0,0,0
1765394732.871176,1765394732.8124514,-28.3203125,-31.73828125,-92.28515625,-683.59375,0.0,0,0
1765394732.871201,1765394732.816347,16.11328125,-35.64453125,-108.3984375,-810.546875,0.0,0,0
1765394732.871226,1765394732.8202422,16.6015625,-23.92578125,3.41796875,486.81640625,0.0,0,0
1765394732.871252,1765394732.8241377,-48.828125,-23.4375,78.125,962.40234375,0.0,0,0
1765394732.8712761,1765394732.828033,-95.21484375,-28.80859375,8.30078125,-335.9375,0.0,0,0
1765394732.8713,1765394732.8319283,-55.17578125,-31.73828125,-92.7734375,-1000.0,0.0,0,0
1765394732.871326,1765394732.8358238,18.06640625,-33.69140625,-130.37109375,-748.53515625,0.0,0,0
1765394732.871351,1765394732.839719,33.69140625,-17.08984375,-13.18359375,536.62109375,0.0,0,0
1765394732.871375,1765394732.8436146,-49.8046875,-22.4609375,62.5,960.9375,0.0,0,0
1765394732.871399,1765394732.8475099,-103.02734375,-37.59765625,1.46484375,-245.1171875,0.0,0,0
1765394732.915693,1765394732.8515115,-47.36328125,-38.57421875,-85.44921875,-1000.0,0.0,0,0
1765394732.9158468,1765394732.855407,25.87890625,-27.34375,-114.2578125,-817.87109375,0.0,0,0
1765394732.915891,1765394732.8593023,45.41015625,-7.8125,-19.53125,394.53125,0.0,0,0
1765394732.91593,1765394732.8631978,-15.13671875,-6.34765625,56.640625,-916.9921875,0.0,0,0
1765394732.915968,1765394732.867093,-104.4921875,-26.3671875,14.6484375,-168.45703125,0.0,0,0
1765394732.9160068,1765394732.8709886,-53.22265625,-23.4375,-58.10546875,-813.96484375,0.0,0,0
1765394732.916045,1765394732.874884,25.87890625,-14.16015625,-105.46875,-922.36328125,0.0,0,0
1765394732.916081,1765394732.8787794,31.25,-20.01953125,-45.8984375,-123.53515625,0.0,0,0
1765394732.916119,1765394732.8826747,-14.6484375,-16.6015625,56.15234375,-848.14453125,0.0,0,0
1765394732.916157,1765394732.8865702,-103.515625,-18.06640625,31.25,10.7421875,0.0,0,0
1765394732.916194,1765394732.8904655,-64.453125,-16.11328125,-70.3125,-815.91796875,0.0,0,0
1765394732.91623,1765394732.894361,-8.7890625,-13.671875,-121.58203125,-977.05078125,0.0,0,0
1765394732.960382,1765394732.8983517,17.08984375,-8.7890625,-68.84765625,-230.95703125,0.0,0,0
1765394732.960531,1765394732.9022472,-5.37109375,-0.48828125,34.1796875,-811.5234375,0.0,0,0
1765394732.960576,1765394732.9061425,-105.95703125,-10.25390625,27.83203125,147.94921875,0.0,0,0
1765394732.960615,1765394732.910038,-77.1484375,-12.6953125,-70.3125,-867.1875,0.0,0,0
1765394732.9606552,1765394732.9139333,-8.7890625,-12.20703125,-129.39453125,-949.70703125,0.0,0,0
1765394732.960693,1765394732.9178288,20.99609375,-13.18359375,-83.0078125,-252.9296875,0.0,0,0
1765394732.96073,1765394732.921724,3.41796875,8.7890625,31.25,-825.68359375,0.0,0,0
1765394732.960767,1765394732.9256196,-97.16796875,5.859375,35.15625,187.01171875,0.0,0,0
1765394732.960803,1765394732.929515,-93.26171875,-19.53125,-64.94140625,-848.14453125,0.0,0,0
1765394732.960853,1765394732.9334104,-27.83203125,-23.4375,-129.39453125,-972.65625,0.0,0,0
1765394732.960889,1765394732.9373057,30.2734375,-12.6953125,-99.609375,-429.6875,0.0,0,0
1765394732.960929,1765394732.9412012,16.11328125,-0.48828125,16.11328125,-905.2734375,0.0,0,0
1765394733.006075,1765394732.9451818,-102.5390625,-20.99609375,41.50390625,334.9609375,0.0,0,0
1765394733.006221,1765394732.9490774,-91.796875,-24.90234375,-45.41015625,-494.140625,0.0,0,0
1765394733.006264,1765394732.9529727,-25.87890625,-19.04296875,-106.93359375,-653.80859375,0.0,0,0
1765394733.006304,1765394732.9568682,12.20703125,-20.01953125,-104.98046875,-562.98828125,0.0,0,0
1765394733.006343,1765394732.9607635,1.953125,-15.13671875,5.37109375,845.21484375,0.0,0,0
1765394733.0063848,1765394732.964659,-79.58984375,-18.06640625,62.5,830.56640625,0.0,0,0
1765394733.0065238,1765394732.9685545,-97.65625,-12.6953125,-18.5546875,-431.15234375,0.0,0,0
1765394733.00661,1765394732.9724498,-54.19921875,-24.4140625,-100.09765625,-1000.0,0.0,0,0
1765394733.006649,1765394732.9763453,13.671875,-33.203125,-112.3046875,-549.31640625,0.0,0,0
1765394733.0066829,1765394732.9802406,4.8828125,-19.04296875,-0.9765625,914.55078125,0.0,0,0
1765394733.0067148,1765394732.984136,-101.5625,-24.90234375,48.33984375,562.01171875,0.0,0,0
1765394733.006745,1765394732.9880316,-110.83984375,-30.2734375,-28.3203125,-389.16015625,0.0,0,0
1765394733.065897,1765394732.9920049,-31.73828125,-32.71484375,-98.14453125,-465.8203125,0.0,0,0
1765394733.0659919,1765394732.9959004,-17.08984375,-36.62109375,-122.55859375,-877.44140625,0.0,0,0
1765394733.0660229,1765394732.9997957,-8.7890625,-23.4375,-9.765625,388.671875,0.0,0,0
1765394733.066048,1765394733.0036912,-68.84765625,-21.97265625,61.03515625,896.97265625,0.0,0,0
1765394733.0660741,1765394733.0075867,-119.140625,-39.55078125,-15.13671875,-399.4140625,0.0,0,0
1765394733.066098,1765394733.011482,-36.1328125,-28.80859375,-91.30859375,-848.6328125,0.0,0,0
1765394733.0661209,1765394733.0153775,17.08984375,-8.7890625,-113.76953125,-887.20703125,0.0,0,0
1765394733.0661461,1765394733.0192728,20.5078125,-16.11328125,-21.484375,273.92578125,0.0,0,0
1765394733.0661702,1765394733.0231683,-34.66796875,-21.484375,55.6640625,948.73046875,0.0,0,0
1765394733.0661929,1765394733.0270638,-104.98046875,-31.73828125,0.9765625,-260.25390625,0.0,0,0
1765394733.066218,1765394733.0309591,-48.828125,-37.59765625,-83.49609375,-708.0078125,0.0,0,0
1765394733.066241,1765394733.0348547,4.39453125,-35.64453125,-124.0234375,-943.359375,0.0,0,0
1765394733.110081,1765394733.038902,22.94921875,-23.4375,-38.57421875,41.9921875,0.0,0,0
1765394733.11022,1765394733.0427976,-20.01953125,-23.92578125,53.7109375,-832.51953125,0.0,0,0
1765394733.110254,1765394733.046693,-100.5859375,-34.66796875,22.4609375,-15.625,0.0,0,0
1765394733.110284,1765394733.0505884,-60.546875,-38.0859375,-69.82421875,-929.19921875,0.0,0,0
1765394733.110314,1765394733.054484,6.34765625,-34.66796875,-124.0234375,-997.0703125,0.0,0,0
1765394733.110398,1765394733.0583794,36.62109375,-12.6953125,-46.875,-47.8515625,0.0,0,0
1765394733.110471,1765394733.062275,-8.30078125,-11.23046875,51.26953125,-838.37890625,0.0,0,0
1765394733.110508,1765394733.0661702,-114.2578125,-35.15625,21.97265625,-10.25390625,0.0,0,0
1765394733.11054,1765394733.0700657,-78.61328125,-36.62109375,-68.359375,-830.078125,0.0,0,0
1765394733.110571,1765394733.0739613,-13.18359375,-17.578125,-120.1171875,-932.12890625,0.0,0,0
1765394733.110602,1765394733.0778568,3.90625,-18.5546875,-78.125,-363.76953125,0.0,0,0
1765394733.110633,1765394733.081752,-15.13671875,-22.94921875,42.96875,-915.52734375,0.0,0,0
1765394733.155256,1765394733.0857878,-99.609375,-19.53125,56.640625,280.76171875,0.0,0,0
1765394733.155332,1765394733.0896833,-97.16796875,-30.76171875,-53.7109375,-900.390625,0.0,0,0
1765394733.15536,1765394733.0935786,-28.80859375,-39.0625,-114.74609375,-1000.0,0.0,0,0
1765394733.1553888,1765394733.097474,16.11328125,-29.78515625,-89.35546875,-420.8984375,0.0,0,0
1765394733.155416,1765394733.1013696,7.32421875,-14.6484375,33.69140625,-945.3125,0.0,0,0
1765394733.155444,1765394733.1052651,-88.8671875,-28.3203125,64.94140625,419.921875,0.0,0,0
1765394733.1554701,1765394733.1091607,-94.23828125,-40.52734375,-41.50390625,-789.55078125,0.0,0,0
1765394733.155495,1765394733.1130562,-18.06640625,-41.015625,-115.72265625,-1000.0,0.0,0,0
1765394733.15552,1765394733.1169517,38.0859375,-30.76171875,-94.7265625,-479.00390625,0.0,0,0
1765394733.155545,1765394733.120847,22.94921875,-12.6953125,34.66796875,976.5625,0.0,0,0
1765394733.15557,1765394733.1247425,-80.078125,-31.25,71.2890625,527.34375,0.0,0,0
1765394733.155689,1765394733.128638,-81.0546875,-38.57421875,-21.97265625,-489.74609375,0.0,0,0
1765394733.231016,1765394733.13283,-17.578125,-31.25,-92.7734375,-817.87109375,0.0,0,0
1765394733.23105,1765394733.1367254,30.76171875,-28.3203125,-96.6796875,-564.453125,0.0,0,0
1765394733.231061,1765394733.140621,37.109375,-19.04296875,22.4609375,908.203125,0.0,0,0
1765394733.23107,1765394733.1445165,-63.96484375,-25.87890625,74.21875,644.04296875,0.0,0,0
1765394733.2310789,1765394733.1484122,-102.05078125,-35.15625,-19.53125,-575.1953125,0.0,0,0
1765394733.2310882,1765394733.1523077,-34.66796875,-33.203125,-89.35546875,-835.9375,0.0,0,0
1765394733.231097,1765394733.1562033,3.90625,-35.15625,-112.79296875,-896.97265625,0.0,0,0
1765394733.231106,1765394733.1600988,14.6484375,-31.73828125,-13.18359375,400.390625,0.0,0,0
1765394733.231114,1765394733.1639943,-50.29296875,6.34765625,60.05859375,872.55859375,0.0,0,0
1765394733.231137,1765394733.1678898,-103.515625,0.0,-5.37109375,-403.3203125,0.0,0,0
1765394733.231158,1765394733.1717854,-40.0390625,-37.59765625,-86.42578125,-892.08984375,0.0,0,0
1765394733.231169,1765394733.1756809,5.37109375,-40.0390625,-110.83984375,-776.85546875,0.0,0,0
1765394733.2617521,1765394733.1797051,7.8125,-26.85546875,-9.765625,459.47265625,0.0,0,0
1765394733.261792,1765394733.1836007,-67.3828125,-21.484375,60.05859375,918.45703125,0.0,0,0
1765394733.261806,1765394733.1874962,-120.60546875,-25.390625,13.671875,-191.89453125,0.0,0,0
1765394733.261819,1765394733.191392,-54.19921875,-34.1796875,-72.75390625,-680.6640625,0.0,0,0
1765394733.2618308,1765394733.1952875,-3.41796875,-33.69140625,-120.1171875,-938.96484375,0.0,0,0
1765394733.2618449,1765394733.199183,23.4375,-13.671875,-21.97265625,146.97265625,0.0,0,0
1765394733.261857,1765394733.2030785,-22.94921875,-13.18359375,62.5,-893.06640625,0.0,0,0
1765394733.261868,1765394733.206974,-107.91015625,-35.15625,21.484375,-60.546875,0.0,0,0
1765394733.261879,1765394733.2108696,-69.82421875,-44.43359375,-75.1953125,-928.7109375,0.0,0,0
1765394733.2618911,1765394733.214765,-1.46484375,-39.55078125,-128.41796875,-1000.0,0.0,0,0
1765394733.261902,1765394733.2186606,35.15625,-24.4140625,-45.41015625,-31.73828125,0.0,0,0
1765394733.261913,1765394733.2225564,-0.9765625,-17.08984375,54.19921875,-839.84375,0.0,0,0
1765394733.290304,1765394733.2265663,-100.5859375,-37.59765625,24.90234375,-5.37109375,0.0,0,0
1765394733.2903318,1765394733.2304618,-60.05859375,-38.57421875,-58.10546875,-744.62890625,0.0,0,0
1765394733.2903419,1765394733.2343574,14.16015625,-30.2734375,-107.421875,-871.09375,0.0,0,0
1765394733.2903502,1765394733.2382529,30.76171875,-20.99609375,-58.10546875,-325.1953125,0.0,0,0
1765394733.290359,1765394733.2421484,5.859375,-8.30078125,52.734375,-845.703125,0.0,0,0
1765394733.290368,1765394733.2460442,-96.19140625,-19.53125,53.7109375,174.8046875,0.0,0,0
1765394733.290376,1765394733.2499397,-82.03125,-29.296875,-48.33984375,-817.3828125,0.0,0,0
1765394733.290424,1765394733.2538352,3.41796875,-30.2734375,-112.79296875,-934.5703125,0.0,0,0
1765394733.290435,1765394733.2577307,37.109375,-20.5078125,-83.0078125,-501.46484375,0.0,0,0
1765394733.290443,1765394733.2616262,8.7890625,-13.671875,30.2734375,971.6796875,0.0,0,0
1765394733.290473,1765394733.265522,-91.796875,-30.2734375,55.6640625,306.640625,0.0,0,0
1765394733.290494,1765394733.2694175,-79.58984375,-45.41015625,-38.57421875,-617.1875,0.0,0,0
1765394733.3362172,1765394733.2734091,-8.30078125,-36.1328125,-103.02734375,-793.9453125,0.0,0,0
1765394733.336254,1765394733.2773046,22.94921875,-29.296875,-88.37890625,-490.72265625,0.0,0,0
1765394733.33627,1765394733.2812002,14.6484375,-19.04296875,32.2265625,-950.68359375,0.0,0,0
1765394733.3362849,1765394733.2850957,-85.9375,-31.25,64.94140625,417.48046875,0.0,0,0
1765394733.3363001,1765394733.2889915,-94.23828125,-45.41015625,-34.1796875,-703.125,0.0,0,0
1765394733.336315,1765394733.292887,-16.11328125,-35.15625,-96.19140625,-865.234375,0.0,0,0
1765394733.336329,1765394733.2967825,41.9921875,-28.3203125,-85.44921875,-553.7109375,0.0,0,0
1765394733.3363469,1765394733.300678,31.73828125,-33.203125,20.5078125,922.8515625,0.0,0,0
1765394733.336362,1765394733.3045738,-63.96484375,-32.2265625,62.5,562.98828125,0.0,0,0
1765394733.336376,1765394733.3084693,-78.125,-27.34375,-14.6484375,-578.61328125,0.0,0,0
1765394733.3363898,1765394733.3123648,-6.34765625,-19.53125,-82.03125,-714.35546875,0.0,0,0
1765394733.336405,1765394733.3162606,28.3203125,-19.04296875,-103.02734375,-826.171875,0.0,0,0
1765394733.381941,1765394733.3202405,23.92578125,-15.13671875,2.9296875,434.08203125,0.0,0,0
1765394733.381966,1765394733.3241363,-46.38671875,-18.06640625,70.80078125,823.73046875,0.0,0,0
1765394733.381977,1765394733.3280318,-79.1015625,-22.4609375,5.859375,-198.73046875,0.0,0,0
1765394733.3819861,1765394733.3319273,-20.01953125,-18.06640625,-76.66015625,-648.4375,0.0,0,0
1765394733.381995,1765394733.335823,10.7421875,-14.16015625,-117.67578125,-895.99609375,0.0,0,0
1765394733.382005,1765394733.3397186,25.390625,1.953125,-0.9765625,379.39453125,0.0,0,0
1765394733.3820128,1765394733.343614,-46.38671875,-21.97265625,65.4296875,890.625,0.0,0,0
1765394733.3820229,1765394733.3475096,-110.83984375,-34.1796875,-2.9296875,-305.17578125,0.0,0,0
1765394733.382032,1765394733.3514054,-46.875,-23.92578125,-85.9375,-722.65625,0.0,0,0
1765394733.382041,1765394733.355301,14.16015625,-28.3203125,-127.9296875,-866.69921875,0.0,0,0
1765394733.38205,1765394733.3591964,31.73828125,-13.671875,-19.04296875,239.74609375,0.0,0,0
1765394733.3820748,1765394733.3630922,-31.25,-12.6953125,69.3359375,-917.48046875,0.0,0,0
1765394733.441588,1765394733.3670614,-100.09765625,-23.4375,22.94921875,-83.0078125,0.0,0,0
1765394733.441661,1765394733.370957,-53.7109375,-21.97265625,-68.359375,-780.76171875,0.0,0,0
1765394733.441689,1765394733.3748524,-2.44140625,-24.90234375,-130.37109375,-990.72265625,0.0,0,0
1765394733.441718,1765394733.3787482,20.01953125,-20.01953125,-49.31640625,-82.03125,0.0,0,0
1765394733.4417439,1765394733.3826437,-16.6015625,-15.625,55.17578125,-841.30859375,0.0,0,0
1765394733.441769,1765394733.3865392,-96.19140625,-17.578125,27.83203125,83.0078125,0.0,0,0
1765394733.441793,1765394733.390435,-49.31640625,-8.30078125,-66.89453125,-815.91796875,0.0,0,0
1765394733.441817,1765394733.3943305,8.30078125,-19.04296875,-125.9765625,-1000.0,0.0,0,0
1765394733.441841,1765394733.3982263,22.4609375,-20.99609375,-55.17578125,-155.76171875,0.0,0,0
1765394733.441865,1765394733.4021218,-1.46484375,-15.625,60.05859375,-826.66015625,0.0,0,0
1765394733.441888,1765394733.4060173,-98.14453125,-24.90234375,49.8046875,147.4609375,0.0,0,0
1765394733.4419122,1765394733.409913,-78.125,-28.3203125,-44.43359375,-682.6171875,0.0,0,0
1765394733.5169432,1765394733.414128,-12.6953125,-32.71484375,-109.86328125,-918.9453125,0.0,0,0
1765394733.5170681,1765394733.4180236,22.4609375,-21.484375,-66.89453125,-303.7109375,0.0,0,0
1765394733.517112,1765394733.4219193,4.39453125,-9.765625,51.26953125,-817.3828125,0.0,0,0
1765394733.51715,1765394733.4258149,-104.00390625,-27.34375,48.828125,155.76171875,0.0,0,0
1765394733.517191,1765394733.4297106,-85.44921875,-28.80859375,-42.96875,-631.34765625,0.0,0,0
1765394733.5172281,1765394733.4336061,-4.39453125,-23.4375,-87.890625,-697.75390625,0.0,0,0
1765394733.5172648,1765394733.437502,21.484375,-20.01953125,-83.49609375,-666.015625,0.0,0,0
1765394733.517302,1765394733.4413977,6.8359375,-12.6953125,25.390625,900.87890625,0.0,0,0
1765394733.517339,1765394733.4452932,-92.28515625,-25.390625,56.640625,432.12890625,0.0,0,0
1765394733.517375,1765394733.449189,-101.5625,-48.33984375,-47.8515625,-742.67578125,0.0,0,0
1765394733.5174122,1765394733.4530845,-20.99609375,-46.38671875,-112.3046875,-911.62109375,0.0,0,0
1765394733.51745,1765394733.4569802,27.83203125,-25.87890625,-105.46875,-560.546875,0.0,0,0
1765394733.532402,1765394733.4610212,9.765625,-19.53125,13.18359375,886.23046875,0.0,0,0
1765394733.532587,1765394733.464917,-86.9140625,-30.76171875,69.3359375,622.0703125,0.0,0,0
1765394733.532651,1765394733.4688125,-83.984375,-31.73828125,-13.671875,-355.46875,0.0,0,0
1765394733.5329401,1765394733.4727082,-23.4375,-29.78515625,-98.6328125,-812.98828125,0.0,0,0
1765394733.532982,1765394733.476604,29.296875,-29.296875,-110.3515625,-599.12109375,0.0,0,0
1765394733.53302,1765394733.4804995,27.83203125,-20.01953125,11.23046875,836.42578125,0.0,0,0
1765394733.533066,1765394733.4843953,-70.80078125,-27.34375,69.3359375,713.8671875,0.0,0,0
1765394733.533103,1765394733.488291,-97.65625,-37.109375,-8.30078125,-461.42578125,0.0,0,0
1765394733.53314,1765394733.4921865,-33.69140625,-37.109375,-99.12109375,-871.09375,0.0,0,0
1765394733.5331771,1765394733.4960823,19.53125,-34.1796875,-126.953125,-652.34375,0.0,0,0
1765394733.533213,1765394733.499978,20.5078125,-21.484375,-1.953125,625.48828125,0.0,0,0
1765394733.53326,1765394733.5038738,-56.640625,-22.94921875,69.82421875,935.05859375,0.0,0,0
1765394733.576353,1765394733.507898,-114.2578125,-35.64453125,-0.9765625,-267.08984375,0.0,0,0
1765394733.576488,1765394733.5117939,-56.15234375,-34.66796875,-83.49609375,-944.82421875,0.0,0,0
1765394733.576531,1765394733.5156894,19.53125,-22.94921875,-106.4453125,-802.24609375,0.0,0,0
1765394733.57657,1765394733.5195851,29.296875,-13.671875,-9.765625,432.6171875,0.0,0,0
1765394733.576712,1765394733.523481,-45.41015625,-9.765625,64.94140625,966.30859375,0.0,0,0
1765394733.576763,1765394733.5273767,-101.5625,-15.13671875,22.94921875,-141.6015625,0.0,0,0
1765394733.576803,1765394733.5312722,-40.52734375,-25.390625,-67.87109375,-732.421875,0.0,0,0
1765394733.5768409,1765394733.535168,13.18359375,-23.92578125,-116.2109375,-944.82421875,0.0,0,0
1765394733.5768802,1765394733.5390637,27.83203125,-3.41796875,-33.203125,104.00390625,0.0,0,0
1765394733.576923,1765394733.5429595,-28.80859375,-5.859375,58.59375,-867.1875,0.0,0,0
1765394733.57696,1765394733.546855,-104.00390625,-25.390625,29.78515625,-40.52734375,0.0,0,0
1765394733.576998,1765394733.5507507,-57.6171875,-21.97265625,-61.03515625,-867.67578125,0.0,0,0
1765394733.622956,1765394733.554768,6.8359375,-20.01953125,-121.58203125,-1000.0,0.0,0,0
1765394733.6230872,1765394733.5586638,41.9921875,-12.6953125,-53.22265625,-56.15234375,0.0,0,0
1765394733.623132,1765394733.5625596,2.44140625,-6.8359375,55.6640625,-832.51953125,0.0,0,0
1765394733.623174,1765394733.5664554,-98.6328125,-19.53125,33.203125,-14.16015625,0.0,0,0
1765394733.623212,1765394733.5703511,-53.7109375,-20.01953125,-54.6875,-684.08203125,0.0,0,0
1765394733.6232908,1765394733.574247,13.18359375,-18.5546875,-101.07421875,-863.28125,0.0,0,0
1765394733.623424,1765394733.5781424,34.66796875,-10.25390625,-57.12890625,-299.31640625,0.0,0,0
1765394733.623491,1765394733.5820382,4.8828125,-19.53125,42.48046875,-825.68359375,0.0,0,0
1765394733.623533,1765394733.585934,-98.6328125,-50.29296875,41.015625,138.18359375,0.0,0,0
1765394733.6235719,1765394733.5898297,-69.3359375,-35.64453125,-53.7109375,-761.23046875,0.0,0,0
1765394733.623611,1765394733.5937254,7.32421875,-21.97265625,-107.91015625,-850.5859375,0.0,0,0
1765394733.623654,1765394733.5976212,36.62109375,-14.16015625,-80.56640625,-424.31640625,0.0,0,0
1765394733.6673322,1765394733.6016243,6.8359375,-6.8359375,32.71484375,-958.0078125,0.0,0,0
1765394733.6677299,1765394733.60552,-99.609375,-17.578125,57.6171875,367.67578125,0.0,0,0
1765394733.667809,1765394733.6094158,-94.7265625,-23.92578125,-44.921875,-775.390625,0.0,0,0
1765394733.6679602,1765394733.6133115,-27.34375,-24.90234375,-113.28125,-999.0234375,0.0,0,0
1765394733.668176,1765394733.6172073,27.83203125,-21.97265625,-103.02734375,-547.8515625,0.0,0,0
1765394733.6682491,1765394733.6211028,16.6015625,-9.27734375,27.83203125,967.28515625,0.0,0,0
1765394733.6685472,1765394733.6249986,-94.23828125,-24.90234375,67.3828125,400.390625,0.0,0,0
1765394733.6686459,1765394733.6288943,-100.5859375,-26.3671875,-40.52734375,-581.54296875,0.0,0,0
1765394733.668685,1765394733.63279,-20.01953125,-20.5078125,-104.4921875,-673.828125,0.0,0,0
1765394733.668716,1765394733.6366858,25.87890625,-23.92578125,-101.07421875,-668.45703125,0.0,0,0
1765394733.668747,1765394733.6405816,18.5546875,-16.11328125,16.6015625,772.94921875,0.0,0,0
1765394733.668777,1765394733.6444774,-72.75390625,-26.3671875,72.265625,697.75390625,0.0,0,0
1765394733.709739,1765394733.6484666,-94.23828125,-30.76171875,-7.8125,-349.609375,0.0,0,0
1765394733.709784,1765394733.6523623,-20.5078125,-31.25,-92.28515625,-782.2265625,0.0,0,0
1765394733.709802,1765394733.656258,38.57421875,-25.87890625,-108.3984375,-611.328125,0.0,0,0
1765394733.7098181,1765394733.6601539,28.3203125,-12.20703125,5.37109375,825.1953125,0.0,0,0
1765394733.709833,1765394733.6640496,-71.2890625,-22.94921875,62.01171875,721.19140625,0.0,0,0
1765394733.7098482,1765394733.6679454,-100.09765625,-26.3671875,-1.953125,-306.15234375,0.0,0,0
1765394733.709864,1765394733.6718411,-23.4375,-23.92578125,-87.890625,-569.3359375,0.0,0,0
1765394733.709878,1765394733.675737,14.6484375,-34.1796875,-126.46484375,-952.63671875,0.0,0,0
1765394733.7099981,1765394733.6796327,21.484375,-29.296875,-19.53125,196.77734375,0.0,0,0
1765394733.710028,1765394733.6835282,-33.69140625,-27.83203125,66.40625,-980.46875,0.0,0,0
1765394733.710043,1765394733.687424,-92.28515625,-36.62109375,20.5078125,-98.6328125,0.0,0,0
1765394733.710058,1765394733.6913197,-29.296875,-36.1328125,-61.03515625,-756.8359375,0.0,0,0
1765394733.768407,1765394733.6952937,19.53125,-34.66796875,-103.515625,-1000.0,0.0,0,0
1765394733.768438,1765394733.6991894,23.92578125,-29.78515625,-15.625,11.71875,0.0,0,0
1765394733.768449,1765394733.7030852,-16.11328125,-26.3671875,73.73046875,-900.87890625,0.0,0,0
1765394733.768458,1765394733.706981,-96.19140625,-40.52734375,26.3671875,-102.5390625,0.0,0,0
1765394733.768468,1765394733.7108767,-62.01171875,-42.96875,-76.66015625,-1000.0,0.0,0,0
1765394733.768523,1765394733.7147725,25.87890625,-27.83203125,-112.79296875,-800.78125,0.0,0,0
1765394733.768534,1765394733.7186682,46.38671875,-24.4140625,-34.66796875,184.5703125,0.0,0,0
1765394733.768543,1765394733.722564,-17.578125,-26.85546875,60.05859375,-921.875,0.0,0,0
1765394733.7685518,1765394733.7264597,-103.02734375,-33.69140625,41.015625,9.27734375,0.0,0,0
1765394733.768592,1765394733.7303555,-65.4296875,-40.0390625,-61.03515625,-788.57421875,0.0,0,0
1765394733.7686038,1765394733.7342513,-6.34765625,-41.015625,-122.55859375,-977.5390625,0.0,0,0
1765394733.7686248,1765394733.738147,24.90234375,-32.2265625,-60.05859375,-285.64453125,0.0,0,0
1765394733.830934,1765394733.7422004,5.859375,-19.04296875,58.59375,-822.265625,0.0,0,0
1765394733.83097,1765394733.7460961,-114.2578125,-32.2265625,47.8515625,116.2109375,0.0,0,0
1765394733.8309839,1765394733.749992,-86.9140625,-35.15625,-54.6875,-724.609375,0.0,0,0
1765394733.8309948,1765394733.753888,-10.7421875,-38.0859375,-113.76953125,-836.9140625,0.0,0,0
1765394733.8310049,1765394733.7577837,22.4609375,-34.1796875,-77.63671875,-355.95703125,0.0,0,0
1765394733.8310149,1765394733.7616794,10.25390625,-21.97265625,46.38671875,-893.5546875,0.0,0,0
1765394733.831025,1765394733.7655752,-85.9375,-28.80859375,65.91796875,423.33984375,0.0,0,0
1765394733.831037,1765394733.769471,-98.6328125,-39.55078125,-60.05859375,-883.7890625,0.0,0,0
1765394733.8310468,1765394733.7733667,-31.25,-41.50390625,-128.90625,-1000.0,0.0,0,0
1765394733.8310568,1765394733.7772624,35.15625,-27.83203125,-102.5390625,-420.8984375,0.0,0,0
1765394733.8310668,1765394733.7811582,18.5546875,-15.625,27.34375,-994.140625,0.0,0,0
1765394733.8310761,1765394733.7850542,-90.33203125,-32.71484375,70.80078125,398.92578125,0.0,0,0
1765394733.8604312,1765394733.789103,-93.26171875,-46.38671875,-33.69140625,-717.7734375,0.0,0,0
1765394733.860468,1765394733.7929988,-17.08984375,-39.55078125,-100.5859375,-916.9921875,0.0,0,0
1765394733.860482,1765394733.7968948,38.57421875,-22.4609375,-87.40234375,-465.33203125,0.0,0,0
1765394733.860495,1765394733.8007905,41.9921875,-9.765625,27.34375,987.3046875,0.0,0,0
1765394733.8605068,1765394733.8046863,-62.5,-21.484375,76.66015625,528.80859375,0.0,0,0
1765394733.860519,1765394733.808582,-77.1484375,-24.90234375,-2.9296875,-325.1953125,0.0,0,0
1765394733.8605309,1765394733.812478,-15.625,-26.85546875,-87.40234375,-666.50390625,0.0,0,0
1765394733.8606038,1765394733.8163738,22.4609375,-27.34375,-105.46875,-735.83984375,0.0,0,0
1765394733.860619,1765394733.8202696,31.25,-17.08984375,8.30078125,738.76953125,0.0,0,0
1765394733.86063,1765394733.8241653,-59.5703125,-28.80859375,62.5,731.93359375,0.0,0,0
1765394733.860642,1765394733.8280613,-95.21484375,-33.69140625,-0.9765625,-249.0234375,0.0,0,0
1765394733.860654,1765394733.831957,-30.76171875,-30.2734375,-79.58984375,-534.66796875,0.0,0,0
1765394733.906632,1765394733.8359864,10.25390625,-38.57421875,-121.58203125,-897.4609375,0.0,0,0
1765394733.906711,1765394733.8398824,23.92578125,-22.4609375,-3.90625,311.03515625,0.0,0,0
1765394733.906744,1765394733.8437781,-30.2734375,-18.5546875,82.03125,-996.09375,0.0,0,0
1765394733.9067771,1765394733.847674,-86.42578125,-29.296875,14.16015625,-210.9375,0.0,0,0
1765394733.9067929,1765394733.85157,-41.015625,-27.83203125,-75.68359375,-974.12109375,0.0,0,0
1765394733.906807,1765394733.8554657,35.15625,-20.01953125,-102.05078125,-732.421875,0.0,0,0
1765394733.90682,1765394733.8593614,52.24609375,-13.671875,-10.25390625,501.953125,0.0,0,0
1765394733.906834,1765394733.8632574,-18.5546875,-20.5078125,69.3359375,-906.73828125,0.0,0,0
1765394733.906847,1765394733.8671532,-99.12109375,-35.64453125,20.99609375,-124.51171875,0.0,0,0
1765394733.90686,1765394733.871049,-53.7109375,-39.0625,-66.89453125,-845.21484375,0.0,0,0
1765394733.906872,1765394733.874945,13.18359375,-33.69140625,-111.81640625,-988.76953125,0.0,0,0
1765394733.9068851,1765394733.8788407,31.25,-22.4609375,-35.64453125,-90.8203125,0.0,0,0
1765394733.9498088,1765394733.882861,-6.34765625,-20.01953125,58.59375,-884.765625,0.0,0,0
1765394733.9498649,1765394733.8867567,-82.51953125,-31.73828125,32.2265625,125.0,0.0,0,0
1765394733.949887,1765394733.8906524,-50.29296875,-33.69140625,-62.01171875,-774.90234375,0.0,0,0
1765394733.9499059,1765394733.8945484,6.34765625,-31.73828125,-115.72265625,-966.30859375,0.0,0,0
1765394733.949923,1765394733.8984442,49.31640625,-13.671875,-54.6875,46.38671875,0.0,0,0
1765394733.94994,1765394733.9023402,9.27734375,-11.23046875,50.29296875,-792.48046875,0.0,0,0
1765394733.9499571,1765394733.906236,-101.07421875,-32.2265625,35.64453125,36.1328125,0.0,0,0
1765394733.949973,1765394733.9101317,-78.61328125,-40.0390625,-66.40625,-722.65625,0.0,0,0
1765394733.9499898,1765394733.9140277,-8.30078125,-41.50390625,-120.1171875,-860.83984375,0.0,0,0
1765394733.950007,1765394733.9179235,30.76171875,-32.2265625,-72.265625,-335.44921875,0.0,0,0
1765394733.950023,1765394733.9218194,7.8125,-19.04296875,53.22265625,-832.03125,0.0,0,0
1765394733.95005,1765394733.9257152,-104.00390625,-34.66796875,63.96484375,259.765625,0.0,0,0
1765394733.994941,1765394733.9297254,-100.5859375,-43.45703125,-42.48046875,-954.58984375,0.0,0,0
1765394733.995043,1765394733.9336212,-29.296875,-33.69140625,-110.83984375,-1000.0,0.0,0,0
1765394733.995067,1765394733.9375172,26.3671875,-22.4609375,-81.0546875,-227.5390625,0.0,0,0
1765394733.9950862,1765394733.941413,0.48828125,-18.06640625,40.52734375,-836.9140625,0.0,0,0
1765394733.9951081,1765394733.9453087,-110.83984375,-25.390625,65.4296875,301.7578125,0.0,0,0
1765394733.995126,1765394733.9492047,-88.37890625,-27.83203125,-26.85546875,-454.58984375,0.0,0,0
1765394733.995143,1765394733.9531004,-24.90234375,-37.59765625,-100.09765625,-668.45703125,0.0,0,0
1765394733.995234,1765394733.9569964,7.32421875,-27.83203125,-95.21484375,-444.82421875,0.0,0,0
1765394733.995279,1765394733.9608922,-9.765625,-17.578125,15.13671875,-924.31640625,0.0,0,0
1765394733.995299,1765394733.9647882,-112.79296875,-43.45703125,56.640625,524.90234375,0.0,0,0
1765394733.995317,1765394733.968684,-112.79296875,-44.43359375,-21.484375,-477.5390625,0.0,0,0
1765394733.995334,1765394733.97258,-45.8984375,-34.66796875,-98.6328125,-800.78125,0.0,0,0
1765394734.041724,1765394733.9765804,8.30078125,-30.2734375,-105.95703125,-592.7734375,0.0,0,0
1765394734.041777,1765394733.9804764,8.30078125,-17.08984375,13.18359375,899.90234375,0.0,0,0
1765394734.0418031,1765394733.9843724,-94.7265625,-26.85546875,60.05859375,639.6484375,0.0,0,0
1765394734.041823,1765394733.9882681,-116.69921875,-34.1796875,-23.4375,-361.328125,0.0,0,0
1765394734.041842,1765394733.9921641,-45.8984375,-36.1328125,-103.02734375,-610.83984375,0.0,0,0
1765394734.0418618,1765394733.99606,6.34765625,-29.296875,-117.67578125,-640.625,0.0,0,0
1765394734.041881,1765394733.999956,17.578125,-13.671875,-5.859375,706.54296875,0.0,0,0
1765394734.041901,1765394734.0038517,-79.1015625,-22.4609375,49.8046875,826.171875,0.0,0,0
1765394734.04192,1765394734.0077477,-122.0703125,-28.3203125,-4.8828125,-281.25,0.0,0,0
1765394734.0419688,1765394734.0116434,-61.03515625,-26.3671875,-86.9140625,-788.0859375,0.0,0,0
1765394734.042013,1765394734.0155394,0.0,-21.97265625,-117.1875,-680.6640625,0.0,0,0
1765394734.0420349,1765394734.0194352,11.71875,-14.16015625,-14.16015625,462.890625,0.0,0,0
1765394734.117207,1765394734.0235872,-55.6640625,-13.671875,64.453125,977.05078125,0.0,0,0
1765394734.1172621,1765394734.027483,-108.88671875,-21.484375,14.6484375,-171.38671875,0.0,0,0
1765394734.117287,1765394734.031379,-60.546875,-20.01953125,-72.75390625,-899.90234375,0.0,0,0
1765394734.117311,1765394734.035275,-3.90625,-16.6015625,-112.79296875,-812.98828125,0.0,0,0
1765394734.1173341,1765394734.039171,28.80859375,-10.25390625,-31.25,296.875,0.0,0,0
1765394734.1173608,1765394734.0430667,-24.90234375,-14.16015625,55.17578125,-866.2109375,0.0,0,0
1765394734.117385,1765394734.0469627,-104.98046875,-24.90234375,33.69140625,51.7578125,0.0,0,0
1765394734.117408,1765394734.0508587,-61.5234375,-27.83203125,-62.98828125,-831.54296875,0.0,0,0
1765394734.117432,1765394734.0547545,-10.7421875,-38.0859375,-135.7421875,-1000.0,0.0,0,0
1765394734.117455,1765394734.0586505,29.296875,-29.296875,-59.5703125,-151.3671875,0.0,0,0
1765394734.1174788,1765394734.0625465,0.48828125,-15.625,55.17578125,-819.3359375,0.0,0,0
1765394734.1175308,1765394734.0664425,-90.33203125,-28.3203125,37.109375,113.28125,0.0,0,0
1765394734.1310039,1765394734.0704288,-54.19921875,-33.203125,-61.03515625,-803.22265625,0.0,0,0
1765394734.131053,1765394734.0743246,8.7890625,-31.25,-119.140625,-973.14453125,0.0,0,0
1765394734.131079,1765394734.0782206,42.48046875,-15.13671875,-69.82421875,-260.7421875,0.0,0,0
1765394734.131103,1765394734.0821166,6.34765625,-7.8125,43.9453125,-814.453125,0.0,0,0
1765394734.131127,1765394734.0860126,-106.4453125,-29.296875,55.6640625,165.0390625,0.0,0,0
1765394734.1311512,1765394734.0899084,-64.453125,-20.99609375,-32.71484375,-581.0546875,0.0,0,0
1765394734.1312199,1765394734.0938044,1.46484375,-20.99609375,-108.3984375,-735.3515625,0.0,0,0
1765394734.131278,1765394734.0977004,13.18359375,-26.85546875,-91.30859375,-552.24609375,0.0,0,0
1765394734.131308,1765394734.1015964,-3.41796875,-15.625,30.2734375,-947.265625,0.0,0,0
1765394734.1313338,1765394734.105492,-101.07421875,-30.76171875,60.546875,316.89453125,0.0,0,0
1765394734.131358,1765394734.109388,-91.30859375,-36.62109375,-32.2265625,-746.09375,0.0,0,0
1765394734.131382,1765394734.113284,-25.390625,-31.73828125,-102.5390625,-871.09375,0.0,0,0
1765394734.1908429,1765394734.117252,13.671875,-24.90234375,-97.16796875,-493.1640625,0.0,0,0
1765394734.190911,1765394734.1211479,7.8125,-16.11328125,15.625,-998.53515625,0.0,0,0
1765394734.190944,1765394734.1250439,-89.84375,-30.76171875,58.10546875,473.6328125,0.0,0,0
1765394734.190975,1765394734.1289399,-95.21484375,-38.57421875,-30.76171875,-493.65234375,0.0,0,0
1765394734.191006,1765394734.1328359,-20.01953125,-29.296875,-88.8671875,-683.10546875,0.0,0,0
1765394734.191037,1765394734.1367319,22.4609375,-29.296875,-91.30859375,-668.9453125,0.0,0,0
1765394734.191067,1765394734.1406276,25.87890625,-20.01953125,27.83203125,802.734375,0.0,0,0
1765394734.191097,1765394734.1445236,-71.2890625,-22.94921875,73.73046875,563.4765625,0.0,0,0
1765394734.191128,1765394734.1484196,-98.6328125,-36.1328125,-14.16015625,-463.8671875,0.0,0,0
1765394734.191191,1765394734.1523156,-16.6015625,-32.2265625,-91.30859375,-593.26171875,0.0,0,0
1765394734.1912699,1765394734.1562116,16.11328125,-28.3203125,-109.86328125,-820.80078125,0.0,0,0
1765394734.191433,1765394734.1601076,14.6484375,-12.6953125,11.23046875,527.34375,0.0,0,0
1765394734.236052,1765394734.1641498,-55.17578125,-15.13671875,70.3125,763.671875,0.0,0,0
1765394734.236115,1765394734.1680458,-96.6796875,-23.92578125,-3.41796875,-403.3203125,0.0,0,0
1765394734.236141,1765394734.1719418,-33.203125,-23.4375,-83.984375,-737.3046875,0.0,0,0
1765394734.236166,1765394734.1758378,19.53125,-22.4609375,-112.79296875,-796.38671875,0.0,0,0
1765394734.236192,1765394734.1797338,30.76171875,-6.8359375,-13.18359375,408.69140625,0.0,0,0
1765394734.2362182,1765394734.1836298,-33.203125,-6.34765625,62.98828125,-935.05859375,0.0,0,0
1765394734.236244,1765394734.1875255,-102.05078125,-26.85546875,7.32421875,-162.59765625,0.0,0,0
1765394734.236269,1765394734.1914215,-49.31640625,-34.1796875,-80.078125,-930.6640625,0.0,0,0
1765394734.2362938,1765394734.1953175,20.5078125,-31.25,-130.859375,-974.12109375,0.0,0,0
1765394734.236319,1765394734.1992135,30.2734375,-18.5546875,-37.59765625,18.5546875,0.0,0,0
1765394734.236344,1765394734.2031095,-18.5546875,-16.11328125,70.80078125,-826.171875,0.0,0,0
1765394734.2363698,1765394734.2070055,-102.05078125,-25.390625,33.69140625,51.7578125,0.0,0,0
1765394734.280659,1765394734.2110376,-73.73046875,-30.2734375,-69.82421875,-1000.0,0.0,0,0
1765394734.280735,1765394734.2149336,-0.9765625,-28.3203125,-124.0234375,-1000.0,0.0,0,0
1765394734.28077,1765394734.2188296,39.0625,-14.16015625,-40.52734375,33.203125,0.0,0,0
1765394734.280807,1765394734.2227256,-6.8359375,-13.18359375,56.640625,-832.03125,0.0,0,0
1765394734.280839,1765394734.2266216,-115.234375,-26.3671875,23.92578125,-26.3671875,0.0,0,0
1765394734.28087,1765394734.2305176,-61.03515625,-23.4375,-56.15234375,-561.5234375,0.0,0,0
1765394734.2809,1765394734.2344134,0.9765625,-29.78515625,-117.1875,-747.55859375,0.0,0,0
1765394734.280931,1765394734.2383094,7.8125,-22.4609375,-78.125,-375.48828125,0.0,0,0
1765394734.280962,1765394734.2422054,-10.25390625,-33.69140625,32.2265625,-846.6796875,0.0,0,0
1765394734.280992,1765394734.2461014,-108.88671875,-54.19921875,34.1796875,178.7109375,0.0,0,0
1765394734.281023,1765394734.2499974,-73.2421875,-22.94921875,-47.36328125,-587.890625,0.0,0,0
1765394734.2810519,1765394734.2538934,-5.37109375,-24.90234375,-113.76953125,-833.49609375,0.0,0,0
1765394734.326719,1765394734.257912,22.4609375,-20.5078125,-80.078125,-379.8828125,0.0,0,0
1765394734.326765,1765394734.261808,3.41796875,-4.8828125,45.8984375,-839.35546875,0.0,0,0
1765394734.3267891,1765394734.265704,-98.6328125,-18.06640625,57.12890625,270.01953125,0.0,0,0
1765394734.326813,1765394734.2696,-64.94140625,-22.94921875,-40.52734375,-571.77734375,0.0,0,0
1765394734.3268359,1765394734.273496,2.9296875,-27.34375,-103.515625,-777.34375,0.0,0,0
1765394734.326918,1765394734.277392,36.1328125,-17.578125,-82.51953125,-435.05859375,0.0,0,0
1765394734.326964,1765394734.281288,27.83203125,-0.9765625,41.9921875,-875.0,0.0,0,0
1765394734.3269901,1765394734.285184,-83.49609375,-22.94921875,67.3828125,364.74609375,0.0,0,0
1765394734.327014,1765394734.28908,-87.40234375,-11.71875,-40.0390625,-683.59375,0.0,0,0
1765394734.32708,1765394734.292976,-6.34765625,-7.32421875,-103.515625,-758.30078125,0.0,0,0
1765394734.327142,1765394734.296872,34.1796875,-25.390625,-98.14453125,-665.52734375,0.0,0,0
1765394734.3271732,1765394734.300768,11.23046875,-17.08984375,15.625,814.453125,0.0,0,0
1765394734.3703501,1765394734.3047774,-85.44921875,-33.69140625,59.08203125,578.61328125,0.0,0,0
1765394734.370403,1765394734.3086734,-85.9375,-39.0625,-20.5078125,-397.4609375,0.0,0,0
1765394734.3704221,1765394734.3125694,-20.01953125,-37.109375,-93.75,-640.625,0.0,0,0
1765394734.37044,1765394734.3164654,16.6015625,-29.296875,-109.86328125,-668.9453125,0.0,0,0
1765394734.3704572,1765394734.3203614,17.578125,-12.6953125,13.18359375,708.984375,0.0,0,0
1765394734.370476,1765394734.3242574,-51.26953125,-19.04296875,81.0546875,969.7265625,0.0,0,0
1765394734.370493,1765394734.3281536,-101.07421875,-31.25,3.41796875,-338.8671875,0.0,0,0
1765394734.37051,1765394734.3320496,-51.26953125,-37.109375,-93.75,-1000.0,0.0,0,0
1765394734.3705258,1765394734.3359456,9.27734375,-38.0859375,-126.46484375,-938.4765625,0.0,0,0
1765394734.370543,1765394734.3398416,17.578125,-26.85546875,-18.06640625,232.421875,0.0,0,0
1765394734.3705611,1765394734.3437376,-28.3203125,-23.4375,58.10546875,-996.58203125,0.0,0,0
1765394734.3705778,1765394734.3476336,-98.6328125,-33.69140625,8.30078125,-232.421875,0.0,0,0
1765394734.4164941,1765394734.351631,-48.33984375,-32.71484375,-78.61328125,-922.8515625,0.0,0,0
1765394734.416624,1765394734.355527,14.6484375,-29.78515625,-120.1171875,-882.8125,0.0,0,0
1765394734.4166842,1765394734.3594232,29.78515625,-16.6015625,-17.578125,246.58203125,0.0,0,0
1765394734.4167411,1765394734.3633192,-22.94921875,-14.16015625,78.125,-911.62109375,0.0,0,0
1765394734.416796,1765394734.3672152,-100.09765625,-29.78515625,31.73828125,-114.2578125,0.0,0,0
1765394734.416847,1765394734.3711112,-47.8515625,-31.25,-64.94140625,-898.92578125,0.0,0,0
1765394734.416901,1765394734.3750072,13.671875,-25.390625,-112.79296875,-1000.0,0.0,0,0
1765394734.4169521,1765394734.3789034,34.66796875,-24.4140625,-47.8515625,-129.8828125,0.0,0,0
1765394734.417004,1765394734.3827994,2.44140625,-20.99609375,51.26953125,-877.9296875,0.0,0,0
1765394734.417054,1765394734.3866954,-83.984375,-23.4375,38.0859375,-11.71875,0.0,0,0
1765394734.417106,1765394734.3905914,-48.33984375,-27.34375,-62.01171875,-816.40625,0.0,0,0
1765394734.417156,1765394734.3944876,7.32421875,-27.83203125,-129.8828125,-1000.0,0.0,0,0
1765394734.4775748,1765394734.3985667,41.50390625,-14.6484375,-69.82421875,-244.140625,0.0,0,0
1765394734.4776661,1765394734.4024627,7.32421875,-14.16015625,43.9453125,-815.4296875,0.0,0,0
1765394734.4777,1765394734.406359,-95.703125,-31.25,45.41015625,224.12109375,0.0,0,0
1765394734.47773,1765394734.410255,-67.3828125,-30.76171875,-50.29296875,-812.01171875,0.0,0,0
1765394734.47776,1765394734.414151,0.9765625,-32.2265625,-116.69921875,-983.3984375,0.0,0,0
1765394734.4777899,1765394734.4180472,42.48046875,-22.94921875,-74.70703125,-257.32421875,0.0,0,0
1765394734.477819,1765394734.4219432,10.25390625,-8.30078125,39.0625,-828.61328125,0.0,0,0
1765394734.477847,1765394734.4258392,-94.23828125,-19.04296875,38.57421875,268.5546875,0.0,0,0
1765394734.477876,1765394734.4297354,-90.33203125,-40.0390625,-61.5234375,-874.0234375,0.0,0,0
1765394734.4779048,1765394734.4336314,-15.625,-34.66796875,-103.515625,-999.51171875,0.0,0,0
1765394734.4779332,1765394734.4375274,40.52734375,-21.97265625,-70.3125,-266.11328125,0.0,0,0
1765394734.477962,1765394734.4414237,15.13671875,-16.11328125,37.59765625,-861.81640625,0.0,0,0
1765394734.507137,1765394734.4454079,-90.33203125,-25.390625,60.05859375,247.55859375,0.0,0,0
1765394734.507275,1765394734.4493039,-74.21875,-29.296875,-34.1796875,-603.515625,0.0,0,0
1765394734.5073202,1765394734.4531999,11.23046875,-20.99609375,-86.42578125,-689.453125,0.0,0,0
1765394734.5073652,1765394734.457096,55.6640625,-18.5546875,-81.0546875,-525.87890625,0.0,0,0
1765394734.507415,1765394734.460992,29.78515625,-15.625,22.94921875,897.94921875,0.0,0,0
1765394734.5074592,1765394734.4648883,-54.6875,-19.04296875,77.63671875,806.15234375,0.0,0,0
1765394734.507502,1765394734.4687843,-71.77734375,-26.85546875,-7.8125,-528.3203125,0.0,0,0
1765394734.5075462,1765394734.4726803,-16.6015625,-27.34375,-88.37890625,-1000.0,0.0,0,0
1765394734.507587,1765394734.4765766,48.828125,-23.92578125,-111.81640625,-654.78515625,0.0,0,0
1765394734.50763,1765394734.4804726,47.36328125,-8.7890625,4.8828125,744.62890625,0.0,0,0
1765394734.507672,1765394734.4843686,-60.546875,-60.546875,66.40625,538.57421875,0.0,0,0
1765394734.507714,1765394734.4882648,-93.75,-70.3125,-25.390625,-473.6328125,0.0,0,0
1765394734.56799,1765394734.4922354,-0.9765625,-20.99609375,-98.6328125,-527.83203125,0.0,0,0
1765394734.568149,1765394734.4961314,27.83203125,-23.4375,-118.65234375,-843.26171875,0.0,0,0
1765394734.568208,1765394734.5000277,21.484375,-7.32421875,3.41796875,435.05859375,0.0,0,0
1765394734.568576,1765394734.5039237,-50.29296875,-8.7890625,79.1015625,877.44140625,0.0,0,0
1765394734.568633,1765394734.50782,-97.65625,-10.7421875,6.34765625,-335.44921875,0.0,0,0
1765394734.568684,1765394734.511716,-30.76171875,-30.2734375,-72.75390625,-681.640625,0.0,0,0
1765394734.568735,1765394734.515612,3.90625,-74.21875,-116.2109375,-909.66796875,0.0,0,0
1765394734.568785,1765394734.5195081,13.18359375,-31.73828125,-35.15625,114.74609375,0.0,0,0
1765394734.568835,1765394734.5234041,-37.109375,-9.27734375,43.45703125,963.37890625,0.0,0,0
1765394734.568885,1765394734.5273004,-107.421875,-25.390625,8.30078125,-199.21875,0.0,0,0
1765394734.568934,1765394734.5311964,-49.8046875,-20.01953125,-73.73046875,-771.484375,0.0,0,0
1765394734.5689862,1765394734.5350926,4.8828125,-15.13671875,-120.1171875,-940.91796875,0.0,0,0
1765394734.612139,1765394734.5391338,27.83203125,-4.8828125,-30.2734375,117.1875,0.0,0,0
1765394734.6123111,1765394734.54303,-17.578125,-12.20703125,60.546875,-875.48828125,0.0,0,0
1765394734.6123688,1765394734.546926,-99.12109375,-27.83203125,35.15625,-54.19921875,0.0,0,0
1765394734.612424,1765394734.5508223,-60.05859375,-24.4140625,-55.6640625,-780.2734375,0.0,0,0
1765394734.612479,1765394734.5547183,-9.765625,-21.484375,-122.0703125,-1000.0,0.0,0,0
1765394734.612533,1765394734.5586145,16.6015625,-12.6953125,-47.8515625,-119.140625,0.0,0,0
1765394734.6125839,1765394734.5625105,-18.06640625,-13.18359375,54.19921875,-816.89453125,0.0,0,0
1765394734.612637,1765394734.5664067,-114.74609375,-26.3671875,25.390625,5.37109375,0.0,0,0
1765394734.61269,1765394734.5703027,-87.40234375,-31.73828125,-68.84765625,-807.12890625,0.0,0,0
1765394734.61274,1765394734.574199,-13.671875,-28.80859375,-119.140625,-914.0625,0.0,0,0
1765394734.61279,1765394734.578095,34.66796875,-12.6953125,-61.5234375,-270.99609375,0.0,0,0
1765394734.61284,1765394734.5819912,-6.8359375,-8.30078125,51.26953125,-840.8203125,0.0,0,0
1765394734.655901,1765394734.5860236,-112.79296875,-18.06640625,55.17578125,179.6875,0.0,0,0
1765394734.656019,1765394734.5899198,-84.47265625,-18.06640625,-45.41015625,-732.421875,0.0,0,0
1765394734.656049,1765394734.5938158,-17.08984375,-21.484375,-114.2578125,-870.60546875,0.0,0,0
1765394734.656075,1765394734.597712,24.4140625,-11.71875,-78.125,-350.5859375,0.0,0,0
1765394734.6561,1765394734.6016083,6.8359375,-6.34765625,49.31640625,-860.83984375,0.0,0,0
1765394734.6561248,1765394734.6055043,-91.796875,-17.08984375,73.2421875,358.3984375,0.0,0,0
1765394734.65615,1765394734.6094005,-75.68359375,-19.53125,-25.390625,-705.56640625,0.0,0,0
1765394734.656173,1765394734.6132965,-10.25390625,-25.390625,-103.02734375,-911.62109375,0.0,0,0
1765394734.6561978,1765394734.6171927,23.4375,-29.78515625,-94.7265625,-506.8359375,0.0,0,0
1765394734.656221,1765394734.621089,15.13671875,-17.578125,26.85546875,-995.60546875,0.0,0,0
1765394734.656245,1765394734.624985,-85.9375,-22.94921875,61.03515625,472.65625,0.0,0,0
1765394734.656269,1765394734.6288812,-88.8671875,-34.1796875,-32.71484375,-516.11328125,0.0,0,0
1765394734.7182028,1765394734.6329806,-12.6953125,-31.73828125,-107.91015625,-691.89453125,0.0,0,0
1765394734.718372,1765394734.6368768,24.90234375,-26.85546875,-115.234375,-673.33984375,0.0,0,0
1765394734.71843,1765394734.6407728,24.4140625,-14.6484375,11.71875,760.7421875,0.0,0,0
1765394734.7184901,1765394734.644669,-58.10546875,-14.6484375,72.75390625,705.078125,0.0,0,0
1765394734.718542,1765394734.6485653,-80.078125,-22.4609375,-8.7890625,-311.5234375,0.0,0,0
1765394734.718594,1765394734.6524615,-17.08984375,-28.3203125,-85.9375,-743.1640625,0.0,0,0
1765394734.718644,1765394734.6563575,35.64453125,-22.94921875,-107.421875,-751.953125,0.0,0,0
1765394734.7186959,1765394734.6602538,40.0390625,-13.671875,-5.859375,621.09375,0.0,0,0
1765394734.71875,1765394734.66415,-54.6875,-34.66796875,56.640625,819.3359375,0.0,0,0
1765394734.7187998,1765394734.6680462,-97.65625,-40.52734375,-2.9296875,-305.6640625,0.0,0,0
1765394734.7188501,1765394734.6719422,-30.76171875,-27.34375,-85.44921875,-783.69140625,0.0,0,0
1765394734.718903,1765394734.6758385,27.34375,-21.484375,-115.72265625,-828.125,0.0,0,0
1765394734.747455,1765394734.6798542,35.64453125,-14.6484375,-23.4375,390.625,0.0,0,0
1765394734.7475688,1765394734.6837504,-36.62109375,-20.01953125,53.7109375,-989.2578125,0.0,0,0
1765394734.7476108,1765394734.6876466,-107.421875,-25.87890625,2.44140625,-192.87109375,0.0,0,0
1765394734.747653,1765394734.6915429,-35.15625,-23.92578125,-83.984375,-767.578125,0.0,0,0
1765394734.747721,1765394734.6954389,17.08984375,-28.80859375,-131.34765625,-982.91015625,0.0,0,0
1765394734.74777,1765394734.699335,27.83203125,-20.5078125,-34.66796875,-16.11328125,0.0,0,0
1765394734.747809,1765394734.7032313,2.9296875,-11.23046875,70.3125,-884.27734375,0.0,0,0
1765394734.747846,1765394734.7071276,-94.23828125,-28.80859375,17.08984375,-96.6796875,0.0,0,0
1765394734.747884,1765394734.7110238,-74.70703125,-40.52734375,-92.7734375,-1000.0,0.0,0,0
1765394734.747921,1765394734.7149198,15.625,-28.80859375,-125.48828125,-841.30859375,0.0,0,0
1765394734.747958,1765394734.718816,41.9921875,-17.578125,-40.0390625,191.40625,0.0,0,0
1765394734.7479942,1765394734.7227123,-18.5546875,-18.06640625,45.8984375,-881.34765625,0.0,0,0
1765394734.7899299,1765394734.7267034,-87.890625,-25.390625,29.78515625,109.86328125,0.0,0,0
1765394734.7899919,1765394734.7305996,-54.6875,-34.1796875,-53.7109375,-750.9765625,0.0,0,0
1765394734.79002,1765394734.7344956,-8.30078125,-27.34375,-116.2109375,-991.2109375,0.0,0,0
1765394734.790045,1765394734.7383919,14.6484375,-21.97265625,-75.1953125,-357.421875,0.0,0,0
1765394734.790069,1765394734.742288,-12.6953125,-16.11328125,31.25,-871.09375,0.0,0,0
1765394734.790093,1765394734.7461843,-100.5859375,-15.625,35.64453125,218.75,0.0,0,0
1765394734.790116,1765394734.7500806,-92.7734375,-25.87890625,-60.05859375,-886.23046875,0.0,0,0
1765394734.79014,1765394734.7539768,-33.203125,-32.71484375,-123.53515625,-1000.0,0.0,0,0
1765394734.790164,1765394734.757873,27.83203125,-16.11328125,-83.0078125,-297.36328125,0.0,0,0
1765394734.790188,1765394734.7617693,9.27734375,-7.32421875,35.64453125,-823.2421875,0.0,0,0
1765394734.790211,1765394734.7656653,-113.76953125,-29.296875,45.41015625,133.7890625,0.0,0,0
1765394734.7902348,1765394734.7695615,-85.44921875,-30.76171875,-46.875,-551.7578125,0.0,0,0
1765394734.835469,1765394734.7735438,1.953125,-20.5078125,-98.14453125,-614.2578125,0.0,0,0
1765394734.835553,1765394734.77744,23.92578125,-23.4375,-85.9375,-544.43359375,0.0,0,0
1765394734.835582,1765394734.7813363,8.30078125,-14.16015625,26.85546875,-983.3984375,0.0,0,0
1765394734.835607,1765394734.7852325,-92.28515625,-20.99609375,63.96484375,510.25390625,0.0,0,0
1765394734.8356311,1765394734.7891285,-91.30859375,-34.66796875,-28.3203125,-583.0078125,0.0,0,0
1765394734.835655,1765394734.7930248,-17.578125,-37.59765625,-97.16796875,-866.69921875,0.0,0,0
1765394734.8356779,1765394734.796921,39.55078125,-9.27734375,-96.19140625,-479.00390625,0.0,0,0
1765394734.835702,1765394734.8008173,29.296875,22.4609375,11.23046875,963.37890625,0.0,0,0
1765394734.835728,1765394734.8047135,-81.0546875,-21.97265625,52.734375,521.484375,0.0,0,0
1765394734.835752,1765394734.8086097,-88.37890625,-41.9921875,-22.94921875,-439.94140625,0.0,0,0
1765394734.835775,1765394734.812506,-4.8828125,-29.78515625,-95.703125,-592.7734375,0.0,0,0
1765394734.835799,1765394734.8164022,18.5546875,-32.71484375,-113.76953125,-843.75,0.0,0,0
1765394734.8833869,1765394734.8203754,12.20703125,-25.87890625,0.0,562.98828125,0.0,0,0
1765394734.88357,1765394734.8242717,-58.59375,-27.83203125,63.4765625,750.9765625,0.0,0,0
1765394734.8836842,1765394734.828168,-83.49609375,-30.2734375,5.37109375,-254.8828125,0.0,0,0
1765394734.883782,1765394734.8320642,-8.30078125,-23.92578125,-63.4765625,-485.3515625,0.0,0,0
1765394734.88387,1765394734.8359604,8.30078125,-32.2265625,-108.3984375,-1000.0,0.0,0,0
1765394734.8839538,1765394734.8398564,14.6484375,-26.3671875,-3.90625,81.0546875,0.0,0,0
1765394734.8840399,1765394734.8437526,-38.57421875,-9.765625,76.171875,992.67578125,0.0,0,0
1765394734.884247,1765394734.8476489,-113.28125,-18.5546875,10.25390625,-257.8125,0.0,0,0
1765394734.884453,1765394734.851545,-62.5,-36.62109375,-74.21875,-933.59375,0.0,0,0
1765394734.884531,1765394734.8554413,19.04296875,-25.87890625,-106.93359375,-865.234375,0.0,0,0
1765394734.884567,1765394734.8593376,50.29296875,-2.9296875,-9.27734375,309.08203125,0.0,0,0
1765394734.884598,1765394734.8632338,-24.90234375,-16.6015625,63.4765625,-969.7265625,0.0,0,0
1765394734.941059,1765394734.8671992,-101.5625,-34.1796875,24.4140625,-151.3671875,0.0,0,0
1765394734.941205,1765394734.8710954,-36.62109375,-27.83203125,-49.31640625,-703.61328125,0.0,0,0
1765394734.9412658,1765394734.8749917,19.53125,-22.4609375,-99.12109375,-947.265625,0.0,0,0
1765394734.9413178,1765394734.878888,37.109375,-17.578125,-36.1328125,-78.125,0.0,0,0
1765394734.94137,1765394734.8827841,-8.7890625,-15.13671875,47.36328125,-881.34765625,0.0,0,0
1765394734.941421,1765394734.8866804,-80.56640625,-32.2265625,41.015625,333.0078125,0.0,0,0
1765394734.941472,1765394734.8905766,-59.08203125,-59.5703125,-48.33984375,-715.8203125,0.0,0,0
1765394734.941532,1765394734.8944728,-5.859375,-43.45703125,-111.328125,-1000.0,0.0,0,0
1765394734.9415839,1765394734.898369,34.66796875,-20.5078125,-59.5703125,26.3671875,0.0,0,0
1765394734.941628,1765394734.9022653,-9.27734375,-18.06640625,30.76171875,-842.28515625,0.0,0,0
1765394734.941664,1765394734.9061615,-110.83984375,-32.2265625,28.3203125,59.08203125,0.0,0,0
1765394734.9417012,1765394734.9100578,-77.1484375,-37.59765625,-65.4296875,-726.07421875,0.0,0,0
1765394735.0162718,1765394734.9142563,5.859375,-31.73828125,-123.046875,-836.9140625,0.0,0,0
1765394735.016376,1765394734.9181526,41.9921875,-20.5078125,-77.63671875,-283.203125,0.0,0,0
1765394735.0164092,1765394734.9220488,11.71875,-14.6484375,35.15625,-830.078125,0.0,0,0
1765394735.016439,1765394734.925945,-101.07421875,-32.71484375,43.9453125,143.06640625,0.0,0,0
1765394735.016469,1765394734.9298413,-74.70703125,-33.69140625,-53.22265625,-683.10546875,0.0,0,0
1765394735.016499,1765394734.9337378,-4.39453125,-27.83203125,-105.95703125,-811.03515625,0.0,0,0
1765394735.016528,1765394734.937634,32.71484375,-16.6015625,-84.47265625,-333.49609375,0.0,0,0
1765394735.016556,1765394734.9415302,9.27734375,-9.27734375,24.4140625,-839.84375,0.0,0,0
1765394735.016588,1765394734.9454265,-104.4921875,-24.4140625,57.12890625,327.1484375,0.0,0,0
1765394735.0166159,1765394734.9493227,-77.1484375,-20.01953125,-32.71484375,-409.1796875,0.0,0,0
1765394735.0166452,1765394734.9532192,1.953125,-16.6015625,-103.02734375,-531.73828125,0.0,0,0
1765394735.016674,1765394734.9571154,17.578125,-18.06640625,-109.375,-653.80859375,0.0,0,0
1765394735.031359,1765394734.9611464,2.44140625,-16.6015625,6.8359375,862.79296875,0.0,0,0
1765394735.0314171,1765394734.9650426,-98.6328125,-36.1328125,59.5703125,524.4140625,0.0,0,0
1765394735.0320692,1765394734.9689388,-101.5625,-32.2265625,-23.4375,-429.6875,0.0,0,0
1765394735.0321238,1765394734.972835,-24.4140625,-28.3203125,-95.21484375,-571.77734375,0.0,0,0
1765394735.0321548,1765394734.9767315,-2.9296875,-34.66796875,-118.1640625,-818.359375,0.0,0,0
1765394735.032182,1765394734.9806278,-6.34765625,-22.4609375,0.9765625,554.6875,0.0,0,0
1765394735.032208,1765394734.984524,-68.359375,-23.92578125,76.66015625,823.73046875,0.0,0,0
1765394735.032234,1765394734.9884205,-111.81640625,-35.64453125,-11.71875,-416.50390625,0.0,0,0
1765394735.032259,1765394734.9923167,-49.8046875,-35.15625,-93.75,-927.24609375,0.0,0,0
1765394735.032284,1765394734.996213,23.4375,-31.73828125,-106.4453125,-664.55078125,0.0,0,0
1765394735.032931,1765394735.0001092,28.80859375,-22.4609375,-1.953125,680.17578125,0.0,0,0
1765394735.032976,1765394735.0040057,-60.05859375,-26.3671875,64.453125,878.41796875,0.0,0,0
1765394735.076703,1765394735.0080206,-114.2578125,-35.64453125,-0.48828125,-302.24609375,0.0,0,0
1765394735.076776,1765394735.011917,-43.9453125,-33.203125,-89.84375,-868.65234375,0.0,0,0
1765394735.076803,1765394735.0158134,25.390625,-22.94921875,-119.140625,-819.3359375,0.0,0,0
1765394735.076829,1765394735.0197096,33.203125,-13.671875,-20.01953125,373.046875,0.0,0,0
1765394735.076857,1765394735.023606,-32.71484375,-12.20703125,62.98828125,-954.1015625,0.0,0,0
1765394735.0768828,1765394735.0275023,-84.47265625,-17.08984375,24.90234375,3.41796875,0.0,0,0
1765394735.076938,1765394735.0313985,-46.875,-26.85546875,-72.265625,-839.35546875,0.0,0,0
1765394735.077067,1765394735.035295,11.23046875,-29.78515625,-128.90625,-955.56640625,0.0,0,0
1765394735.077101,1765394735.0391912,40.0390625,-25.390625,-38.0859375,215.33203125,0.0,0,0
1765394735.0771258,1765394735.0430875,-28.3203125,-27.83203125,46.38671875,-922.8515625,0.0,0,0
1765394735.0771499,1765394735.046984,-116.2109375,-32.2265625,13.18359375,-124.0234375,0.0,0,0
1765394735.0771751,1765394735.0508802,-59.08203125,-29.296875,-70.3125,-818.359375,0.0,0,0
1765394735.120179,1765394735.0548875,20.99609375,-28.80859375,-116.69921875,-925.29296875,0.0,0,0
1765394735.12022,1765394735.0587838,41.9921875,-13.18359375,-56.15234375,-23.4375,0.0,0,0
1765394735.120234,1765394735.0626802,-9.765625,-11.23046875,35.15625,-832.51953125,0.0,0,0
1765394735.1202471,1765394735.0665765,-94.23828125,-24.90234375,36.62109375,205.56640625,0.0,0,0
1765394735.12026,1765394735.070473,-76.171875,-31.25,-58.59375,-846.19140625,0.0,0,0
1765394735.1202729,1765394735.0743692,-10.7421875,-31.73828125,-118.1640625,-1000.0,0.0,0,0
1765394735.120286,1765394735.0782657,39.55078125,-12.20703125,-62.01171875,-240.72265625,0.0,0,0
1765394735.120299,1765394735.082162,-1.46484375,-12.20703125,37.109375,-849.609375,0.0,0,0
1765394735.120312,1765394735.0860581,-123.53515625,-46.875,39.55078125,96.19140625,0.0,0,0
1765394735.120325,1765394735.0899546,-83.0078125,-31.25,-50.29296875,-658.69140625,0.0,0,0
1765394735.120338,1765394735.0938509,-1.46484375,-15.625,-104.00390625,-705.078125,0.0,0,0
1765394735.1203709,1765394735.0977473,10.7421875,-17.578125,-73.2421875,-488.76953125,0.0,0,0
1765394735.165744,1765394735.1017435,2.9296875,-9.27734375,35.15625,-958.49609375,0.0,0,0
1765394735.1657789,1765394735.10564,-85.44921875,-18.5546875,61.5234375,321.77734375,0.0,0,0
1765394735.165795,1765394735.1095362,-91.30859375,-26.85546875,-36.1328125,-795.8984375,0.0,0,0
1765394735.1658099,1765394735.1134326,-30.2734375,-30.76171875,-99.12109375,-915.52734375,0.0,0,0
1765394735.1658251,1765394735.117329,20.99609375,-22.4609375,-87.890625,-545.8984375,0.0,0,0
1765394735.1658392,1765394735.1212254,19.04296875,-1.953125,35.64453125,944.3359375,0.0,0,0
1765394735.165854,1765394735.1251216,-95.703125,-18.06640625,79.58984375,425.78125,0.0,0,0
1765394735.165869,1765394735.129018,-99.12109375,-29.78515625,-26.85546875,-647.4609375,0.0,0,0
1765394735.165884,1765394735.1329143,-15.625,-27.34375,-102.5390625,-794.43359375,0.0,0,0
1765394735.165899,1765394735.1368108,34.66796875,-23.4375,-95.703125,-598.6328125,0.0,0,0
1765394735.165914,1765394735.140707,37.109375,-6.34765625,25.87890625,891.11328125,0.0,0,0
1765394735.165928,1765394735.1446035,-62.5,-20.01953125,73.73046875,588.8671875,0.0,0,0
1765394735.209791,1765394735.1485832,-82.51953125,-27.83203125,0.48828125,-416.50390625,0.0,0,0
1765394735.2098382,1765394735.1524796,-16.11328125,-22.94921875,-78.61328125,-618.1640625,0.0,0,0
1765394735.209857,1765394735.156376,27.34375,-18.06640625,-98.6328125,-743.65234375,0.0,0,0
1765394735.2098749,1765394735.1602724,37.59765625,-7.8125,17.578125,649.4140625,0.0,0,0
1765394735.209892,1765394735.1641686,-49.31640625,-21.97265625,71.77734375,798.33984375,0.0,0,0
1765394735.209909,1765394735.168065,-81.54296875,-18.06640625,12.6953125,-143.5546875,0.0,0,0
1765394735.209926,1765394735.1719613,-0.48828125,-12.20703125,-64.453125,-391.11328125,0.0,0,0
1765394735.209943,1765394735.1758578,19.04296875,-28.3203125,-123.53515625,-1000.0,0.0,0,0
1765394735.210006,1765394735.179754,21.97265625,-19.04296875,-31.25,-29.296875,0.0,0,0
1765394735.210034,1765394735.1836505,-19.53125,-12.20703125,67.87109375,-883.7890625,0.0,0,0
1765394735.210052,1765394735.187547,-100.09765625,-28.3203125,17.08984375,-127.9296875,0.0,0,0
1765394735.210146,1765394735.1914432,-58.59375,-36.1328125,-87.40234375,-1000.0,0.0,0,0
1765394735.255305,1765394735.1954134,28.3203125,-29.296875,-123.046875,-862.79296875,0.0,0,0
1765394735.25534,1765394735.1993098,52.734375,-17.578125,-32.71484375,271.484375,0.0,0,0
1765394735.2553642,1765394735.203206,-12.20703125,-13.18359375,55.6640625,-893.06640625,0.0,0,0
1765394735.255389,1765394735.2071025,-93.75,-25.390625,26.85546875,-45.41015625,0.0,0,0
1765394735.2554119,1765394735.210999,-60.546875,-33.69140625,-70.80078125,-971.19140625,0.0,0,0
1765394735.255436,1765394735.2148952,8.7890625,-31.73828125,-116.2109375,-874.0234375,0.0,0,0
1765394735.25546,1765394735.2187917,39.55078125,-21.484375,-44.43359375,71.77734375,0.0,0,0
1765394735.2554839,1765394735.222688,-14.6484375,-23.4375,46.38671875,-905.2734375,0.0,0,0
1765394735.255507,1765394735.2265844,-106.93359375,-37.109375,23.4375,13.671875,0.0,0,0
1765394735.2555451,1765394735.230481,-64.453125,-31.73828125,-72.75390625,-774.90234375,0.0,0,0
1765394735.255571,1765394735.2343771,3.90625,-28.80859375,-129.39453125,-942.3828125,0.0,0,0
1765394735.255616,1765394735.2382736,33.69140625,-20.99609375,-76.66015625,-322.75390625,0.0,0,0
1765394735.315249,1765394735.2423127,9.765625,-9.27734375,42.96875,-837.40234375,0.0,0,0
1765394735.315306,1765394735.246209,-98.14453125,-24.4140625,40.0390625,183.10546875,0.0,0,0
1765394735.3153338,1765394735.2501054,-82.03125,-36.1328125,-59.08203125,-785.15625,0.0,0,0
1765394735.3153632,1765394735.2540019,-4.39453125,-33.203125,-112.79296875,-909.1796875,0.0,0,0
1765394735.315388,1765394735.257898,34.66796875,-20.5078125,-83.984375,-403.80859375,0.0,0,0
1765394735.315412,1765394735.2617946,18.06640625,-5.37109375,49.31640625,-916.015625,0.0,0,0
1765394735.315435,1765394735.265691,-86.9140625,-24.90234375,71.2890625,323.2421875,0.0,0,0
1765394735.315459,1765394735.2695873,-85.44921875,-35.64453125,-40.0390625,-936.5234375,0.0,0,0
1765394735.3154829,1765394735.2734838,-7.32421875,-27.83203125,-110.83984375,-1000.0,0.0,0,0
1765394735.315547,1765394735.2773802,50.78125,-14.16015625,-93.75,-381.8359375,0.0,0,0
1765394735.315583,1765394735.2812765,28.3203125,-7.32421875,24.90234375,-947.75390625,0.0,0,0
1765394735.315607,1765394735.285173,-89.35546875,-23.92578125,55.17578125,378.41796875,0.0,0,0
1765394735.360245,1765394735.2892041,-98.14453125,-36.1328125,-41.50390625,-748.53515625,0.0,0,0
1765394735.3603442,1765394735.2931004,-11.71875,-32.71484375,-101.5625,-816.40625,0.0,0,0
1765394735.36038,1765394735.2969968,24.90234375,-29.78515625,-104.98046875,-725.09765625,0.0,0,0
1765394735.360412,1765394735.3008933,19.04296875,-16.6015625,15.625,720.703125,0.0,0,0
1765394735.360441,1765394735.3047898,-73.2421875,-26.85546875,71.77734375,498.046875,0.0,0,0
1765394735.3604732,1765394735.308686,-86.9140625,-28.3203125,-13.18359375,-338.37890625,0.0,0,0
1765394735.360502,1765394735.3125825,-3.41796875,-19.04296875,-87.890625,-404.296875,0.0,0,0
1765394735.360533,1765394735.316479,26.85546875,-21.97265625,-102.5390625,-830.078125,0.0,0,0
1765394735.360566,1765394735.3203754,27.83203125,-10.7421875,7.8125,568.359375,0.0,0,0
1765394735.360594,1765394735.324272,-58.10546875,-52.24609375,59.5703125,792.48046875,0.0,0,0
1765394735.3606222,1765394735.3281682,-103.02734375,-55.6640625,-5.859375,-429.19921875,0.0,0,0
1765394735.360655,1765394735.3320646,-28.3203125,-21.97265625,-88.37890625,-772.94921875,0.0,0,0
1765394735.4061382,1765394735.3360858,24.4140625,-27.34375,-123.046875,-865.72265625,0.0,0,0
1765394735.4062889,1765394735.3399823,39.55078125,-10.7421875,-13.18359375,373.046875,0.0,0,0
1765394735.406431,1765394735.3438787,-26.85546875,-6.34765625,62.5,950.1953125,0.0,0,0
1765394735.406487,1765394735.3477752,-106.93359375,-19.53125,6.34765625,-286.1328125,0.0,0,0
1765394735.406542,1765394735.3516715,-56.640625,-27.83203125,-81.54296875,-836.42578125,0.0,0,0
1765394735.4065962,1765394735.355568,10.7421875,-23.4375,-121.09375,-846.19140625,0.0,0,0
1765394735.406656,1765394735.3594644,38.0859375,-3.90625,-23.92578125,276.3671875,0.0,0,0
1765394735.406708,1765394735.363361,-36.1328125,-8.7890625,54.6875,-968.75,0.0,0,0
1765394735.406759,1765394735.3672574,-116.69921875,-31.73828125,5.37109375,-157.2265625,0.0,0,0
1765394735.406811,1765394735.3711538,-61.03515625,-40.52734375,-83.49609375,-844.23828125,0.0,0,0
1765394735.406862,1765394735.37505,3.90625,-26.85546875,-125.0,-941.40625,0.0,0,0
1765394735.406911,1765394735.3789465,27.34375,-7.8125,-40.0390625,91.796875,0.0,0,0
1765394735.451602,1765394735.3829587,-34.1796875,-17.08984375,48.33984375,-961.9140625,0.0,0,0
1765394735.451766,1765394735.3868551,-104.98046875,-27.83203125,35.64453125,130.859375,0.0,0,0
1765394735.4518259,1765394735.3907516,-57.6171875,-27.34375,-48.33984375,-549.31640625,0.0,0,0
1765394735.45188,1765394735.394648,-4.8828125,-34.66796875,-110.83984375,-1000.0,0.0,0,0
1765394735.4519339,1765394735.3985445,34.1796875,-20.01953125,-54.6875,-184.08203125,0.0,0,0
1765394735.4519858,1765394735.402441,1.953125,-8.30078125,54.6875,-827.1484375,0.0,0,0
1765394735.4520378,1765394735.4063375,-107.91015625,-31.25,40.52734375,59.5703125,0.0,0,0
1765394735.452088,1765394735.410234,-74.21875,-38.57421875,-66.40625,-751.953125,0.0,0,0
1765394735.452138,1765394735.4141302,-0.48828125,-52.24609375,-118.1640625,-880.37109375,0.0,0,0
1765394735.4521909,1765394735.4180267,33.69140625,-41.9921875,-66.40625,-209.47265625,0.0,0,0
1765394735.452241,1765394735.4219232,6.34765625,-12.6953125,36.62109375,-791.9921875,0.0,0,0
1765394735.452291,1765394735.4258196,-107.421875,-29.78515625,41.50390625,106.93359375,0.0,0,0
1765394735.49564,1765394735.4298217,-73.2421875,-31.25,-49.8046875,-650.390625,0.0,0,0
1765394735.495765,1765394735.4337182,-3.41796875,-27.83203125,-108.3984375,-789.0625,0.0,0,0
1765394735.49581,1765394735.4376147,38.57421875,-16.6015625,-78.125,-457.51953125,0.0,0,0
1765394735.495848,1765394735.4415112,30.2734375,-7.8125,32.71484375,-879.39453125,0.0,0,0
1765394735.495887,1765394735.4454076,-88.37890625,-23.92578125,57.6171875,289.55078125,0.0,0,0
1765394735.495928,1765394735.449304,-76.66015625,-26.3671875,-26.3671875,-524.90234375,0.0,0,0
1765394735.495966,1765394735.4532006,-5.859375,-27.83203125,-99.12109375,-615.234375,0.0,0,0
1765394735.496002,1765394735.457097,23.92578125,-42.96875,-105.95703125,-757.32421875,0.0,0,0
1765394735.496041,1765394735.4609935,20.5078125,-44.921875,8.7890625,797.8515625,0.0,0,0
1765394735.4960792,1765394735.46489,-82.03125,-32.2265625,62.5,472.16796875,0.0,0,0
1765394735.496115,1765394735.4687865,-85.9375,-28.3203125,-20.99609375,-475.5859375,0.0,0,0
1765394735.4961522,1765394735.472683,-1.953125,-22.94921875,-87.890625,-497.0703125,0.0,0,0
1765394735.541043,1765394735.476675,27.34375,-26.85546875,-101.5625,-789.0625,0.0,0,0
1765394735.541172,1765394735.4805715,27.34375,-20.99609375,-1.953125,575.68359375,0.0,0,0
1765394735.541215,1765394735.484468,-56.15234375,-23.4375,62.5,750.0,0.0,0,0
1765394735.5412521,1765394735.4883645,-91.796875,-32.71484375,-6.8359375,-412.59765625,0.0,0,0
1765394735.541294,1765394735.492261,-28.80859375,-42.48046875,-90.8203125,-812.5,0.0,0,0
1765394735.541332,1765394735.4961574,35.64453125,-33.203125,-104.98046875,-597.16796875,0.0,0,0
1765394735.5413692,1765394735.500054,44.43359375,-10.7421875,2.9296875,781.25,0.0,0,0
1765394735.541405,1765394735.5039504,-59.5703125,-82.03125,61.03515625,828.61328125,0.0,0,0
1765394735.541443,1765394735.5078468,-105.95703125,-89.84375,6.34765625,-303.22265625,0.0,0,0
1765394735.5414798,1765394735.5117435,-35.15625,-23.4375,-69.82421875,-729.98046875,0.0,0,0
1765394735.541517,1765394735.51564,20.5078125,-20.5078125,-104.00390625,-889.6484375,0.0,0,0
1765394735.541557,1765394735.5195365,34.1796875,-13.671875,-18.06640625,290.52734375,0.0,0,0
1765394735.6157272,1765394735.523673,-34.1796875,-20.01953125,51.26953125,-989.74609375,0.0,0,0
1765394735.615843,1765394735.5275695,-103.515625,-29.78515625,11.23046875,-138.18359375,0.0,0,0
1765394735.615886,1765394735.531466,-39.55078125,-31.25,-71.2890625,-730.95703125,0.0,0,0
1765394735.6159282,1765394735.5353625,15.625,-30.2734375,-117.1875,-965.8203125,0.0,0,0
1765394735.616117,1765394735.539259,20.99609375,-28.80859375,-49.31640625,2.9296875,0.0,0,0
1765394735.616158,1765394735.5431557,-20.01953125,-17.08984375,43.9453125,-829.58984375,0.0,0,0
1765394735.6161962,1765394735.5470521,-98.14453125,-35.15625,31.25,30.2734375,0.0,0,0
1765394735.6162329,1765394735.5509486,-67.87109375,-76.66015625,-62.98828125,-979.98046875,0.0,0,0
1765394735.616271,1765394735.554845,1.953125,-44.43359375,-112.79296875,-977.5390625,0.0,0,0
1765394735.616307,1765394735.5587416,40.0390625,-7.32421875,-44.921875,49.8046875,0.0,0,0
1765394735.616344,1765394735.5626383,-5.859375,-17.578125,52.24609375,-844.23828125,0.0,0,0
1765394735.61638,1765394735.5665348,-89.35546875,-28.80859375,41.50390625,128.41796875,0.0,0,0
1765394735.631388,1765394735.5705123,-48.828125,-34.66796875,-55.17578125,-716.30859375,0.0,0,0
1765394735.631486,1765394735.574409,11.23046875,-28.80859375,-106.93359375,-950.68359375,0.0,0,0
1765394735.631519,1765394735.5783055,40.0390625,-14.6484375,-66.89453125,-242.1875,0.0,0,0
1765394735.6315498,1765394735.582202,17.08984375,-9.27734375,40.0390625,-817.3828125,0.0,0,0
1765394735.631579,1765394735.5860984,-87.40234375,-18.06640625,53.22265625,149.90234375,0.0,0,0
1765394735.6316092,1765394735.589995,-60.546875,-17.578125,-32.71484375,-514.6484375,0.0,0,0
1765394735.631638,1765394735.5938916,19.04296875,-13.18359375,-101.07421875,-540.52734375,0.0,0,0
1765394735.631667,1765394735.597788,23.4375,-20.5078125,-100.09765625,-690.91796875,0.0,0,0
1765394735.631714,1765394735.6016846,6.8359375,-11.71875,19.53125,884.765625,0.0,0,0
1765394735.631783,1765394735.605581,-74.70703125,-18.06640625,53.7109375,473.6328125,0.0,0,0
1765394735.6318452,1765394735.6094778,-67.3828125,-21.97265625,-28.80859375,-559.08203125,0.0,0,0
1765394735.6318989,1765394735.6133742,2.44140625,-19.53125,-94.23828125,-849.12109375,0.0,0,0
1765394735.692841,1765394735.6173396,62.5,-7.32421875,-89.84375,-440.4296875,0.0,0,0
1765394735.692986,1765394735.621236,52.734375,-3.41796875,32.2265625,-909.1796875,0.0,0,0
1765394735.6930418,1765394735.6251326,-63.4765625,-64.94140625,74.21875,358.88671875,0.0,0,0
1765394735.6930969,1765394735.6290293,-62.01171875,-52.24609375,-17.08984375,-525.87890625,0.0,0,0
1765394735.69315,1765394735.6329257,17.08984375,-3.90625,-83.984375,-574.70703125,0.0,0,0
1765394735.693203,1765394735.6368222,50.78125,-24.90234375,-86.42578125,-607.91015625,0.0,0,0
1765394735.693254,1765394735.640719,36.1328125,-46.875,28.3203125,904.78515625,0.0,0,0
1765394735.693305,1765394735.6446154,-76.66015625,-31.25,71.77734375,510.7421875,0.0,0,0
1765394735.693367,1765394735.648512,-96.19140625,-16.6015625,-7.8125,-547.36328125,0.0,0,0
1765394735.693418,1765394735.6524084,-16.11328125,-21.484375,-78.125,-590.8203125,0.0,0,0
1765394735.6934679,1765394735.656305,17.578125,-22.94921875,-108.88671875,-809.08203125,0.0,0,0
1765394735.6935208,1765394735.6602015,26.3671875,0.48828125,2.44140625,522.4609375,0.0,0,0
1765394735.7519438,1765394735.664313,-43.45703125,-1.46484375,70.80078125,875.9765625,0.0,0,0
1765394735.7520692,1765394735.6682098,-84.47265625,-20.01953125,7.8125,-104.98046875,0.0,0,0
1765394735.7521122,1765394735.6721063,-21.97265625,-27.83203125,-63.96484375,-548.33984375,0.0,0,0
1765394735.752151,1765394735.6760027,13.18359375,-30.2734375,-105.95703125,-885.25390625,0.0,0,0
1765394735.752189,1765394735.6798995,26.85546875,-13.671875,-9.27734375,333.0078125,0.0,0,0
1765394735.752226,1765394735.683796,-37.59765625,-43.9453125,63.96484375,-994.62890625,0.0,0,0
1765394735.7522628,1765394735.6876926,-109.86328125,-59.08203125,2.9296875,-237.3046875,0.0,0,0
1765394735.7523,1765394735.691589,-33.203125,-19.04296875,-72.75390625,-681.640625,0.0,0,0
1765394735.752337,1765394735.6954856,10.7421875,-18.5546875,-118.1640625,-926.26953125,0.0,0,0
1765394735.7523751,1765394735.6993823,13.671875,-29.78515625,-30.76171875,6.34765625,0.0,0,0
1765394735.7524118,1765394735.7032788,-24.90234375,-19.53125,62.01171875,-960.9375,0.0,0,0
1765394735.752448,1765394735.7071755,-104.98046875,-14.6484375,23.92578125,-143.5546875,0.0,0,0
1765394735.7811332,1765394735.7112026,-50.29296875,-21.484375,-67.3828125,-725.5859375,0.0,0,0
1765394735.781215,1765394735.7150993,10.25390625,-25.390625,-125.0,-983.3984375,0.0,0,0
1765394735.781253,1765394735.7189958,36.62109375,-8.30078125,-45.41015625,-114.2578125,0.0,0,0
1765394735.781286,1765394735.7228925,-10.25390625,-4.39453125,48.828125,-851.07421875,0.0,0,0
1765394735.781318,1765394735.726789,-115.234375,-18.06640625,25.390625,-21.484375,0.0,0,0
1765394735.781348,1765394735.7306857,-63.96484375,-14.16015625,-54.19921875,-570.80078125,0.0,0,0
1765394735.781404,1765394735.7345822,0.9765625,-16.11328125,-104.98046875,-807.6171875,0.0,0,0
1765394735.781439,1765394735.738479,27.34375,-10.7421875,-61.03515625,-253.90625,0.0,0,0
1765394735.781512,1765394735.7423754,2.9296875,-7.32421875,32.71484375,-791.9921875,0.0,0,0
1765394735.781554,1765394735.746272,-104.00390625,-21.97265625,40.52734375,122.55859375,0.0,0,0
1765394735.781585,1765394735.7501686,-72.265625,-21.484375,-37.59765625,-609.375,0.0,0,0
1765394735.781614,1765394735.7540653,-10.7421875,-18.5546875,-104.4921875,-773.92578125,0.0,0,0
1765394735.8256772,1765394735.758081,16.6015625,-40.0390625,-80.078125,-395.01953125,0.0,0,0
1765394735.825741,1765394735.7619774,1.46484375,-41.50390625,41.9921875,-872.55859375,0.0,0,0
1765394735.825772,1765394735.7658741,-102.05078125,-19.53125,67.3828125,314.94140625,0.0,0,0
1765394735.82594,1765394735.7697706,-81.0546875,-17.578125,-32.2265625,-610.83984375,0.0,0,0
1765394735.826029,1765394735.7736673,-15.625,-24.4140625,-109.86328125,-885.25390625,0.0,0,0
1765394735.826057,1765394735.7775638,44.921875,-8.7890625,-84.9609375,-352.05078125,0.0,0,0
1765394735.8260832,1765394735.7814605,23.92578125,-2.44140625,33.203125,-875.48828125,0.0,0,0
1765394735.826157,1765394735.785357,-93.26171875,-22.4609375,69.3359375,431.640625,0.0,0,0
1765394735.826192,1765394735.7892537,-79.1015625,-16.11328125,-24.90234375,-467.7734375,0.0,0,0
1765394735.826218,1765394735.7931504,-22.94921875,-17.578125,-107.91015625,-823.2421875,0.0,0,0
1765394735.826242,1765394735.797047,24.90234375,-22.4609375,-100.09765625,-582.03125,0.0,0,0
1765394735.826266,1765394735.8009436,28.80859375,-11.71875,21.484375,938.4765625,0.0,0,0
1765394735.871211,1765394735.8049483,-76.66015625,-24.90234375,74.21875,490.72265625,0.0,0,0
1765394735.871369,1765394735.808845,-104.4921875,-34.1796875,-18.5546875,-507.8125,0.0,0,0
1765394735.8714108,1765394735.8127415,-31.73828125,-33.203125,-104.00390625,-614.2578125,0.0,0,0
1765394735.871451,1765394735.8166382,10.7421875,-30.76171875,-120.1171875,-779.296875,0.0,0,0
1765394735.871488,1765394735.820535,13.671875,-15.625,-9.765625,526.3671875,0.0,0,0
1765394735.871524,1765394735.8244314,-51.26953125,-13.18359375,69.82421875,904.78515625,0.0,0,0
1765394735.871562,1765394735.8283281,-91.30859375,-17.578125,10.25390625,-266.6015625,0.0,0,0
1765394735.871594,1765394735.8322248,-42.96875,-30.2734375,-84.47265625,-845.703125,0.0,0,0
1765394735.8716218,1765394735.8361213,9.765625,-40.0390625,-131.8359375,-899.4140625,0.0,0,0
1765394735.8716538,1765394735.840018,21.484375,-19.04296875,-22.4609375,298.33984375,0.0,0,0
1765394735.8716831,1765394735.8439145,-45.41015625,-12.20703125,63.96484375,995.1171875,0.0,0,0
1765394735.871712,1765394735.8478112,-103.02734375,-17.08984375,3.41796875,-219.23828125,0.0,0,0
1765394735.916231,1765394735.8518023,-44.43359375,-20.5078125,-83.984375,-877.44140625,0.0,0,0
1765394735.916342,1765394735.8556988,16.6015625,-26.3671875,-121.58203125,-814.94140625,0.0,0,0
1765394735.916429,1765394735.8595955,27.34375,-18.06640625,-30.76171875,300.78125,0.0,0,0
1765394735.916482,1765394735.8634923,-33.203125,-12.6953125,52.24609375,-891.6015625,0.0,0,0
1765394735.916522,1765394735.8673887,-111.328125,-25.87890625,13.18359375,-68.84765625,0.0,0,0
1765394735.91661,1765394735.8712854,-60.546875,-31.73828125,-67.3828125,-853.02734375,0.0,0,0
1765394735.916652,1765394735.8751822,16.6015625,-32.2265625,-114.2578125,-923.33984375,0.0,0,0
1765394735.916849,1765394735.8790786,33.69140625,11.23046875,-42.48046875,48.828125,0.0,0,0
1765394735.9168901,1765394735.8829753,-9.765625,22.4609375,62.98828125,-853.02734375,0.0,0,0
1765394735.9169269,1765394735.886872,-95.703125,-33.203125,35.64453125,-38.57421875,0.0,0,0
1765394735.916964,1765394735.8907685,-55.17578125,-35.64453125,-66.40625,-770.99609375,0.0,0,0
1765394735.9169998,1765394735.8946652,7.32421875,-34.1796875,-120.60546875,-917.48046875,0.0,0,0
1765394735.960873,1765394735.8986466,38.57421875,-28.3203125,-57.6171875,-185.05859375,0.0,0,0
1765394735.961015,1765394735.902543,12.20703125,-17.578125,48.828125,-803.7109375,0.0,0,0
1765394735.9610538,1765394735.9064398,-91.30859375,-31.25,41.50390625,134.765625,0.0,0,0
1765394735.961092,1765394735.9103365,-65.4296875,-39.55078125,-55.17578125,-828.125,0.0,0,0
1765394735.96113,1765394735.9142332,11.23046875,-34.1796875,-112.79296875,-906.73828125,0.0,0,0
1765394735.9611678,1765394735.9181297,57.6171875,-27.83203125,-62.5,-161.1328125,0.0,0,0
1765394735.961204,1765394735.9220264,21.97265625,-0.9765625,49.8046875,-797.36328125,0.0,0,0
1765394735.961243,1765394735.925923,-103.02734375,19.04296875,39.55078125,124.0234375,0.0,0,0
1765394735.961279,1765394735.9298198,-78.125,-28.80859375,-62.01171875,-701.171875,0.0,0,0
1765394735.9613152,1765394735.9337163,2.44140625,-49.8046875,-119.140625,-799.8046875,0.0,0,0
1765394735.961351,1765394735.937613,42.48046875,-16.6015625,-97.16796875,-452.1484375,0.0,0,0
1765394735.961388,1765394735.9415097,29.78515625,-7.8125,33.203125,-885.7421875,0.0,0,0
1765394736.00513,1765394735.9454784,-86.9140625,-41.50390625,57.6171875,316.40625,0.0,0,0
1765394736.0052211,1765394735.9493752,-80.56640625,-49.31640625,-43.9453125,-625.48828125,0.0,0,0
1765394736.00525,1765394735.9532716,6.34765625,-33.203125,-102.5390625,-689.94140625,0.0,0,0
1765394736.0052748,1765394735.9571683,30.76171875,-30.76171875,-102.5390625,-617.67578125,0.0,0,0
1765394736.0053,1765394735.961065,13.671875,-25.87890625,18.5546875,812.98828125,0.0,0,0
1765394736.0053241,1765394735.9649618,-57.12890625,-43.45703125,83.0078125,754.8828125,0.0,0,0
1765394736.0053482,1765394735.9688585,-83.984375,40.0390625,-17.08984375,-560.546875,0.0,0,0
1765394736.0053709,1765394735.972755,-27.34375,61.03515625,-99.609375,-1000.0,0.0,0,0
1765394736.005395,1765394735.9766517,37.109375,-42.96875,-104.98046875,-654.296875,0.0,0,0
1765394736.005419,1765394735.9805484,31.73828125,-34.66796875,6.8359375,668.9453125,0.0,0,0
1765394736.0054421,1765394735.984445,-51.7578125,-28.3203125,72.265625,764.16015625,0.0,0,0
1765394736.0054662,1765394735.9883416,-84.47265625,-41.015625,-2.9296875,-361.328125,0.0,0,0
1765394736.064946,1765394735.992301,-15.13671875,-45.8984375,-93.75,-782.2265625,0.0,0,0
1765394736.065053,1765394735.9961977,36.1328125,-39.0625,-121.58203125,-784.1796875,0.0,0,0
1765394736.065092,1765394736.0000944,27.83203125,-20.01953125,-4.8828125,518.06640625,0.0,0,0
1765394736.0651252,1765394736.0039911,-68.359375,-33.203125,62.01171875,849.12109375,0.0,0,0
1765394736.065156,1765394736.0078876,-112.79296875,-57.6171875,2.44140625,-373.046875,0.0,0,0
1765394736.0651882,1765394736.0117843,-31.73828125,-26.3671875,-69.82421875,-693.84765625,0.0,0,0
1765394736.065218,1765394736.015681,9.27734375,20.01953125,-104.00390625,-919.921875,0.0,0,0
1765394736.065249,1765394736.0195777,10.7421875,-19.53125,-11.71875,194.82421875,0.0,0,0
1765394736.065279,1765394736.0234745,-52.734375,-54.6875,53.7109375,976.07421875,0.0,0,0
1765394736.065311,1765394736.027371,-120.1171875,-45.41015625,7.32421875,-215.33203125,0.0,0,0
1765394736.065342,1765394736.0312676,-62.01171875,-42.48046875,-76.66015625,-696.2890625,0.0,0,0
1765394736.065372,1765394736.0351644,-6.34765625,-47.8515625,-122.55859375,-925.78125,0.0,0,0
1765394736.1106749,1765394736.039191,20.99609375,-35.15625,-37.109375,104.4921875,0.0,0,0
1765394736.1107562,1765394736.0430877,-30.2734375,-28.80859375,49.31640625,-893.06640625,0.0,0,0
1765394736.110794,1765394736.0469844,-109.375,-36.62109375,24.4140625,3.90625,0.0,0,0
1765394736.110828,1765394736.0508811,-49.8046875,-45.8984375,-59.5703125,-658.203125,0.0,0,0
1765394736.110859,1765394736.0547779,4.8828125,-51.26953125,-128.90625,-1000.0,0.0,0,0
1765394736.11089,1765394736.0586746,39.0625,-22.94921875,-54.19921875,-153.80859375,0.0,0,0
1765394736.110923,1765394736.0625713,4.8828125,-12.6953125,58.59375,-849.12109375,0.0,0,0
1765394736.110954,1765394736.0664678,-110.3515625,-43.45703125,31.25,-64.94140625,0.0,0,0
1765394736.110987,1765394736.0703645,-62.98828125,-50.29296875,-61.03515625,-595.703125,0.0,0,0
1765394736.111018,1765394736.0742612,6.8359375,-2.9296875,-105.46875,-802.734375,0.0,0,0
1765394736.111049,1765394736.078158,31.73828125,5.859375,-61.03515625,-294.43359375,0.0,0,0
1765394736.11108,1765394736.0820546,0.9765625,-34.1796875,33.203125,-824.70703125,0.0,0,0
1765394736.1549098,1765394736.0860708,-117.1875,-47.8515625,34.1796875,59.5703125,0.0,0,0
1765394736.154964,1765394736.0899675,-70.80078125,-41.50390625,-63.4765625,-637.6953125,0.0,0,0
1765394736.1549828,1765394736.0938642,12.20703125,-34.66796875,-107.421875,-715.33203125,0.0,0,0
1765394736.155,1765394736.097761,20.5078125,-31.73828125,-70.3125,-442.3828125,0.0,0,0
1765394736.155017,1765394736.1016576,-2.9296875,-22.94921875,42.48046875,-903.80859375,0.0,0,0
1765394736.155033,1765394736.1055543,-99.609375,-28.3203125,67.3828125,375.48828125,0.0,0,0
1765394736.15505,1765394736.109451,-94.7265625,-24.90234375,-30.2734375,-701.171875,0.0,0,0
1765394736.155067,1765394736.1133478,-19.04296875,-47.36328125,-94.7265625,-894.53125,0.0,0,0
1765394736.155083,1765394736.1172445,23.4375,7.8125,-85.44921875,-504.8828125,0.0,0,0
1765394736.1550999,1765394736.1211412,7.8125,99.12109375,24.4140625,-965.33203125,0.0,0,0
1765394736.155117,1765394736.125038,-100.5859375,-9.27734375,61.03515625,360.3515625,0.0,0,0
1765394736.155137,1765394736.1289346,-99.609375,-60.05859375,-26.85546875,-549.31640625,0.0,0,0
1765394736.215743,1765394736.133016,-12.6953125,-38.0859375,-87.890625,-587.40234375,0.0,0,0
1765394736.2158358,1765394736.136913,15.13671875,-40.52734375,-91.30859375,-710.9375,0.0,0,0
1765394736.215872,1765394736.1408098,7.32421875,-36.1328125,18.5546875,757.32421875,0.0,0,0
1765394736.215903,1765394736.1447065,-81.0546875,-40.0390625,74.21875,651.3671875,0.0,0,0
1765394736.2159371,1765394736.1486032,-104.98046875,-46.875,-6.34765625,-422.36328125,0.0,0,0
1765394736.215968,1765394736.1525,-29.296875,-41.9921875,-72.265625,-688.4765625,0.0,0,0
1765394736.215997,1765394736.1563966,15.13671875,-41.50390625,-97.16796875,-821.2890625,0.0,0,0
1765394736.2160268,1765394736.1602933,23.92578125,-37.109375,-3.90625,521.97265625,0.0,0,0
1765394736.216058,1765394736.16419,-62.5,11.71875,63.96484375,759.27734375,0.0,0,0
1765394736.216091,1765394736.1680868,-103.02734375,13.671875,9.27734375,-286.62109375,0.0,0,0
1765394736.2161222,1765394736.1719835,-30.2734375,-34.66796875,-69.3359375,-627.44140625,0.0,0,0
1765394736.216152,1765394736.1758802,21.97265625,-31.25,-100.09765625,-784.66796875,0.0,0,0
1765394736.245752,1765394736.1798828,40.0390625,-15.13671875,-6.34765625,466.30859375,0.0,0,0
1765394736.245836,1765394736.1837797,-33.203125,-23.4375,72.265625,-964.35546875,0.0,0,0
1765394736.245863,1765394736.1876764,-93.75,-34.66796875,30.76171875,-45.41015625,0.0,0,0
1765394736.245888,1765394736.1915731,-49.31640625,-36.1328125,-61.5234375,-830.56640625,0.0,0,0
1765394736.245912,1765394736.1954699,13.671875,-32.2265625,-110.3515625,-887.20703125,0.0,0,0
1765394736.2459362,1765394736.1993666,41.015625,-22.94921875,-22.4609375,275.390625,0.0,0,0
1765394736.24596,1765394736.2032633,-20.99609375,-19.04296875,71.2890625,-867.67578125,0.0,0,0
1765394736.245984,1765394736.20716,-107.91015625,-33.69140625,24.4140625,-76.171875,0.0,0,0
1765394736.246007,1765394736.211057,-60.546875,-42.96875,-73.2421875,-915.52734375,0.0,0,0
1765394736.246031,1765394736.2149537,8.7890625,-35.15625,-120.60546875,-968.75,0.0,0,0
1765394736.246145,1765394736.2188504,30.2734375,-29.296875,-47.36328125,-27.83203125,0.0,0,0
1765394736.246312,1765394736.222747,-10.25390625,6.34765625,50.29296875,-828.61328125,0.0,0,0
1765394736.290106,1765394736.226734,-104.4921875,12.6953125,23.92578125,32.71484375,0.0,0,0
1765394736.290166,1765394736.2306306,-70.80078125,-36.62109375,-69.82421875,-886.71875,0.0,0,0
1765394736.2902,1765394736.2345276,10.25390625,-38.57421875,-117.67578125,-935.05859375,0.0,0,0
1765394736.290231,1765394736.2384243,45.8984375,-22.94921875,-67.87109375,-163.0859375,0.0,0,0
1765394736.290266,1765394736.242321,6.8359375,-19.04296875,32.71484375,-896.484375,0.0,0,0
1765394736.290297,1765394736.2462177,-73.2421875,-23.92578125,53.22265625,436.03515625,0.0,0,0
1765394736.290327,1765394736.2501144,-69.3359375,-46.875,-41.015625,-709.47265625,0.0,0,0
1765394736.290478,1765394736.2540112,-8.7890625,5.859375,-117.67578125,-1000.0,0.0,0,0
1765394736.290532,1765394736.257908,42.48046875,29.78515625,-79.1015625,-326.171875,0.0,0,0
1765394736.290565,1765394736.2618048,11.71875,-31.25,32.2265625,-924.31640625,0.0,0,0
1765394736.2906299,1765394736.2657015,-88.8671875,-42.96875,47.8515625,217.28515625,0.0,0,0
1765394736.290671,1765394736.2695982,-66.40625,-39.0625,-35.64453125,-599.609375,0.0,0,0
1765394736.335593,1765394736.2735767,4.8828125,-44.43359375,-101.5625,-687.98828125,0.0,0,0
1765394736.335674,1765394736.2774737,38.0859375,-42.96875,-87.890625,-456.0546875,0.0,0,0
1765394736.335708,1765394736.2813704,23.4375,-24.90234375,30.2734375,-926.7578125,0.0,0,0
1765394736.335739,1765394736.285267,-90.8203125,-35.15625,65.91796875,473.14453125,0.0,0,0
1765394736.3357701,1765394736.2891638,-100.5859375,-41.015625,-29.78515625,-710.44921875,0.0,0,0
1765394736.3358011,1765394736.2930608,-19.04296875,-50.78125,-93.26171875,-884.765625,0.0,0,0
1765394736.335831,1765394736.2969575,33.203125,-0.48828125,-87.40234375,-567.3828125,0.0,0,0
1765394736.335863,1765394736.3008542,23.92578125,85.9375,15.13671875,875.9765625,0.0,0,0
1765394736.335892,1765394736.304751,-86.42578125,-5.37109375,55.6640625,441.40625,0.0,0,0
1765394736.335943,1765394736.3086479,-104.00390625,-63.4765625,-30.76171875,-513.18359375,0.0,0,0
1765394736.335977,1765394736.3125446,-16.11328125,-41.9921875,-107.91015625,-631.34765625,0.0,0,0
1765394736.3360069,1765394736.3164413,29.296875,-42.48046875,-112.79296875,-651.85546875,0.0,0,0
1765394736.3809972,1765394736.3204114,29.296875,-36.1328125,7.32421875,747.0703125,0.0,0,0
1765394736.3811789,1765394736.3243082,-55.6640625,-34.1796875,81.0546875,861.328125,0.0,0,0
1765394736.381239,1765394736.3282049,-107.91015625,-37.109375,0.9765625,-423.828125,0.0,0,0
1765394736.381294,1765394736.3321016,-44.921875,-42.48046875,-96.19140625,-989.74609375,0.0,0,0
1765394736.381345,1765394736.3359985,26.3671875,-35.15625,-116.2109375,-812.5,0.0,0,0
1765394736.381401,1765394736.3398952,38.57421875,-29.78515625,3.90625,412.59765625,0.0,0,0
1765394736.381613,1765394736.343792,-30.2734375,61.5234375,79.58984375,970.21484375,0.0,0,0
1765394736.3817868,1765394736.347689,-102.5390625,68.359375,11.71875,-228.02734375,0.0,0,0
1765394736.381833,1765394736.3515856,-37.109375,-35.15625,-71.2890625,-801.7578125,0.0,0,0
1765394736.38187,1765394736.3554823,19.04296875,-37.59765625,-117.67578125,-989.74609375,0.0,0,0
1765394736.381908,1765394736.359379,38.0859375,-23.4375,-22.94921875,63.4765625,0.0,0,0
1765394736.3819451,1765394736.363276,-12.6953125,-23.92578125,67.87109375,-934.5703125,0.0,0,0
1765394736.440722,1765394736.3672364,-103.515625,-40.52734375,23.4375,-108.88671875,0.0,0,0
1765394736.4408698,1765394736.371133,-53.22265625,-33.69140625,-62.01171875,-760.7421875,0.0,0,0
1765394736.4409301,1765394736.3750298,10.25390625,-27.83203125,-105.95703125,-943.359375,0.0,0,0
1765394736.4409852,1765394736.3789268,31.73828125,-22.94921875,-33.69140625,-2.44140625,0.0,0,0
1765394736.4410381,1765394736.3828235,-11.71875,-34.1796875,54.6875,-849.609375,0.0,0,0
1765394736.441091,1765394736.3867202,-96.19140625,-25.87890625,36.1328125,119.62890625,0.0,0,0
1765394736.441142,1765394736.3906171,-72.265625,2.9296875,-64.94140625,-865.234375,0.0,0,0
1765394736.4411929,1765394736.3945138,-3.90625,-32.71484375,-122.55859375,-973.6328125,0.0,0,0
1765394736.4412448,1765394736.3984106,44.921875,-40.52734375,-65.4296875,-25.390625,0.0,0,0
1765394736.4412951,1765394736.4023075,-1.46484375,-23.4375,36.62109375,-830.56640625,0.0,0,0
1765394736.441346,1765394736.4062042,-97.65625,-32.71484375,44.921875,150.390625,0.0,0,0
1765394736.441396,1765394736.410101,-54.19921875,-38.57421875,-45.8984375,-750.9765625,0.0,0,0
1765394736.5154939,1765394736.414277,5.37109375,-43.45703125,-113.28125,-922.8515625,0.0,0,0
1765394736.515638,1765394736.4181738,28.80859375,-31.73828125,-72.75390625,-320.3125,0.0,0,0
1765394736.5156941,1765394736.4220707,15.625,-13.671875,45.41015625,-834.9609375,0.0,0,0
1765394736.5157492,1765394736.4259675,-90.33203125,-32.2265625,56.15234375,229.98046875,0.0,0,0
1765394736.515806,1765394736.4298644,-68.359375,-41.015625,-42.96875,-634.765625,0.0,0,0
1765394736.5158558,1765394736.4337611,4.8828125,-1.953125,-101.07421875,-784.1796875,0.0,0,0
1765394736.515907,1765394736.437658,27.34375,4.39453125,-85.44921875,-588.37890625,0.0,0,0
1765394736.5159621,1765394736.4415548,18.5546875,-22.4609375,30.76171875,969.7265625,0.0,0,0
1765394736.516012,1765394736.4454517,-87.40234375,-37.109375,65.4296875,287.109375,0.0,0,0
1765394736.516062,1765394736.4493484,-74.70703125,-25.390625,-38.0859375,-574.70703125,0.0,0,0
1765394736.516116,1765394736.4532454,8.7890625,-15.625,-98.6328125,-586.42578125,0.0,0,0
1765394736.516165,1765394736.457142,24.90234375,-32.2265625,-99.12109375,-696.77734375,0.0,0,0
1765394736.531635,1765394736.4611645,25.87890625,-20.01953125,13.671875,835.9375,0.0,0,0
1765394736.531764,1765394736.4650614,-73.2421875,-24.4140625,61.03515625,527.34375,0.0,0,0
1765394736.53187,1765394736.4689581,-82.03125,-34.1796875,-22.94921875,-381.8359375,0.0,0,0
1765394736.531948,1765394736.472855,-2.9296875,-36.1328125,-97.65625,-539.0625,0.0,0,0
1765394736.5320032,1765394736.4767518,24.4140625,-33.203125,-106.93359375,-713.8671875,0.0,0,0
1765394736.532046,1765394736.4806488,26.3671875,-10.7421875,15.625,718.75,0.0,0,0
1765394736.532083,1765394736.4845455,-53.7109375,-20.01953125,72.75390625,813.96484375,0.0,0,0
1765394736.5321221,1765394736.4884424,-98.6328125,-40.52734375,-18.5546875,-513.18359375,0.0,0,0
1765394736.532159,1765394736.4923394,-35.64453125,-41.015625,-97.16796875,-994.62890625,0.0,0,0
1765394736.532196,1765394736.496236,33.203125,-34.1796875,-110.3515625,-693.84765625,0.0,0,0
1765394736.532232,1765394736.500133,31.25,-24.90234375,-5.37109375,622.0703125,0.0,0,0
1765394736.532269,1765394736.5040298,-49.31640625,-27.34375,69.3359375,857.91015625,0.0,0,0
1765394736.575624,1765394736.5080364,-103.515625,-39.55078125,1.46484375,-374.51171875,0.0,0,0
1765394736.5757592,1765394736.5119333,-42.48046875,-39.0625,-82.51953125,-822.265625,0.0,0,0
1765394736.575809,1765394736.5158303,18.5546875,-30.76171875,-107.91015625,-864.74609375,0.0,0,0
1765394736.575847,1765394736.519727,31.25,-26.85546875,-12.20703125,254.8828125,0.0,0,0
1765394736.5758898,1765394736.523624,-25.87890625,0.9765625,67.3828125,-950.1953125,0.0,0,0
1765394736.57593,1765394736.527521,-92.28515625,-3.41796875,21.97265625,55.6640625,0.0,0,0
1765394736.575967,1765394736.5314176,-46.38671875,-38.57421875,-63.4765625,-742.1875,0.0,0,0
1765394736.576004,1765394736.5353146,7.8125,-47.36328125,-115.72265625,-1000.0,0.0,0,0
1765394736.576046,1765394736.5392113,36.62109375,17.578125,-34.66796875,74.70703125,0.0,0,0
1765394736.576083,1765394736.5431082,-4.8828125,25.87890625,60.546875,-863.28125,0.0,0,0
1765394736.576118,1765394736.5470052,-98.6328125,-40.52734375,31.73828125,-36.1328125,0.0,0,0
1765394736.576155,1765394736.550902,-61.03515625,-39.0625,-56.640625,-796.38671875,0.0,0,0
1765394736.6199622,1765394736.5548978,8.30078125,-34.1796875,-105.46875,-950.1953125,0.0,0,0
1765394736.620061,1765394736.5587945,37.109375,-28.80859375,-49.8046875,-125.0,0.0,0,0
1765394736.620088,1765394736.5626915,2.9296875,-22.4609375,54.6875,-801.7578125,0.0,0,0
1765394736.620283,1765394736.5665884,-104.00390625,-35.64453125,44.43359375,85.9375,0.0,0,0
1765394736.6203089,1765394736.5704854,-79.58984375,-42.96875,-59.08203125,-842.7734375,0.0,0,0
1765394736.620336,1765394736.574382,-3.41796875,-40.52734375,-115.234375,-954.1015625,0.0,0,0
1765394736.620363,1765394736.578279,41.015625,-29.78515625,-71.2890625,-260.25390625,0.0,0,0
1765394736.6203861,1765394736.582176,19.53125,-5.37109375,41.015625,-817.87109375,0.0,0,0
1765394736.6204119,1765394736.5860727,-90.33203125,0.9765625,44.921875,174.31640625,0.0,0,0
1765394736.620439,1765394736.5899696,-63.4765625,-29.78515625,-44.921875,-731.93359375,0.0,0,0
1765394736.6204622,1765394736.5938666,6.34765625,-41.015625,-100.5859375,-844.7265625,0.0,0,0
1765394736.620485,1765394736.5977633,30.2734375,-20.5078125,-86.9140625,-434.5703125,0.0,0,0
1765394736.666143,1765394736.6017516,17.08984375,-16.11328125,24.90234375,-885.7421875,0.0,0,0
1765394736.666294,1765394736.6056485,-91.796875,-37.59765625,55.17578125,250.48828125,0.0,0,0
1765394736.666354,1765394736.6095455,-75.1953125,-36.62109375,-38.0859375,-554.19921875,0.0,0,0
1765394736.666409,1765394736.6134422,-6.8359375,-29.296875,-101.07421875,-596.6796875,0.0,0,0
1765394736.666462,1765394736.6173391,8.7890625,-29.296875,-99.609375,-677.734375,0.0,0,0
1765394736.666517,1765394736.621236,16.6015625,-16.6015625,13.671875,840.33203125,0.0,0,0
1765394736.666569,1765394736.6251328,-70.3125,-31.73828125,60.546875,511.23046875,0.0,0,0
1765394736.6666188,1765394736.6290298,-94.23828125,-16.6015625,-33.203125,-583.49609375,0.0,0,0
1765394736.666671,1765394736.6329267,-15.625,-3.41796875,-101.5625,-739.74609375,0.0,0,0
1765394736.66672,1765394736.6368237,26.85546875,-31.73828125,-108.3984375,-621.58203125,0.0,0,0
1765394736.666771,1765394736.6407204,20.99609375,-18.5546875,9.765625,803.7109375,0.0,0,0
1765394736.66682,1765394736.6446173,-61.03515625,-28.80859375,65.91796875,638.18359375,0.0,0,0
1765394736.710598,1765394736.6485958,-91.796875,-46.38671875,-21.484375,-464.84375,0.0,0,0
1765394736.71072,1765394736.6524928,-20.5078125,-41.9921875,-100.5859375,-684.5703125,0.0,0,0
1765394736.710762,1765394736.6563897,27.34375,-30.76171875,-114.74609375,-769.53125,0.0,0,0
1765394736.710801,1765394736.6602864,36.62109375,-13.18359375,0.0,530.76171875,0.0,0,0
1765394736.7108412,1765394736.6641834,-41.50390625,-18.06640625,61.03515625,801.26953125,0.0,0,0
1765394736.710881,1765394736.6680803,-71.77734375,-29.78515625,4.39453125,-55.17578125,0.0,0,0
1765394736.710919,1765394736.6719773,-15.625,-5.37109375,-74.70703125,-428.22265625,0.0,0,0
1765394736.710957,1765394736.675874,3.41796875,12.6953125,-126.46484375,-1000.0,0.0,0,0
1765394736.7109928,1765394736.679771,15.625,-22.94921875,-35.15625,108.88671875,0.0,0,0
1765394736.711029,1765394736.683668,-34.66796875,-35.64453125,52.734375,-938.96484375,0.0,0,0
1765394736.711066,1765394736.6875648,-95.703125,-32.2265625,10.25390625,-111.328125,0.0,0,0
1765394736.711102,1765394736.6914618,-43.9453125,-30.2734375,-82.03125,-835.9375,0.0,0,0
1765394736.757775,1765394736.6954315,15.625,-34.66796875,-128.90625,-990.72265625,0.0,0,0
1765394736.757848,1765394736.6993282,27.34375,-28.3203125,-38.57421875,47.8515625,0.0,0,0
1765394736.7578828,1765394736.7032251,-25.87890625,-20.99609375,52.734375,-930.6640625,0.0,0,0
1765394736.7579148,1765394736.707122,-95.703125,-30.2734375,15.13671875,-108.3984375,0.0,0,0
1765394736.757946,1765394736.711019,-44.43359375,-33.203125,-67.87109375,-821.2890625,0.0,0,0
1765394736.757977,1765394736.714916,23.92578125,-31.73828125,-102.5390625,-910.64453125,0.0,0,0
1765394736.758007,1765394736.718813,46.38671875,-7.8125,-39.55078125,0.0,0.0,0,0
1765394736.758037,1765394736.7227097,5.37109375,-5.859375,49.31640625,-824.70703125,0.0,0,0
1765394736.758069,1765394736.7266066,-82.51953125,-40.52734375,37.109375,85.9375,0.0,0,0
1765394736.7580988,1765394736.7305036,-68.359375,-49.31640625,-68.359375,-903.3203125,0.0,0,0
1765394736.758167,1765394736.7344005,-5.37109375,-42.96875,-127.9296875,-1000.0,0.0,0,0
1765394736.75821,1765394736.7382975,30.76171875,-30.76171875,-75.68359375,-161.62109375,0.0,0,0
1765394736.815294,1765394736.74233,-1.46484375,-27.34375,36.1328125,-836.9140625,0.0,0,0
1765394736.815352,1765394736.746227,-106.93359375,-39.0625,33.203125,16.11328125,0.0,0,0
1765394736.815378,1765394736.750124,-68.84765625,-39.0625,-62.01171875,-629.39453125,0.0,0,0
1765394736.815485,1765394736.7540207,-4.39453125,-34.1796875,-120.60546875,-762.6953125,0.0,0,0
1765394736.8155131,1765394736.7579176,12.20703125,-41.015625,-92.28515625,-507.32421875,0.0,0,0
1765394736.815537,1765394736.7618146,4.39453125,5.859375,35.64453125,-950.1953125,0.0,0,0
1765394736.815613,1765394736.7657115,-99.609375,77.1484375,62.5,351.5625,0.0,0,0
1765394736.8156428,1765394736.7696085,-111.328125,-5.37109375,-57.12890625,-877.9296875,0.0,0,0
1765394736.815667,1765394736.7735054,-30.2734375,-62.98828125,-129.39453125,-1000.0,0.0,0,0
1765394736.815691,1765394736.7774024,31.25,-31.25,-98.6328125,-310.546875,0.0,0,0
1765394736.8157299,1765394736.7812994,12.20703125,-22.4609375,21.97265625,-899.90234375,0.0,0,0
1765394736.815755,1765394736.7851963,-91.796875,-43.9453125,61.5234375,485.3515625,0.0,0,0
1765394736.865358,1765394736.7892232,-101.07421875,-47.8515625,-35.64453125,-708.984375,0.0,0,0
1765394736.865679,1765394736.7931201,-32.2265625,-43.45703125,-108.3984375,-1000.0,0.0,0,0
1765394736.8659148,1765394736.797017,29.296875,-29.78515625,-96.19140625,-524.90234375,0.0,0,0
1765394736.8664021,1765394736.800914,27.34375,-16.11328125,20.01953125,927.734375,0.0,0,0
1765394736.866506,1765394736.804811,-82.51953125,-30.2734375,62.98828125,489.74609375,0.0,0,0
1765394736.866533,1765394736.808708,-83.0078125,-34.1796875,-8.7890625,-352.05078125,0.0,0,0
1765394736.86656,1765394736.8126047,-1.953125,-29.78515625,-80.078125,-461.9140625,0.0,0,0
1765394736.866622,1765394736.8165016,11.23046875,-36.62109375,-107.421875,-811.03515625,0.0,0,0
1765394736.866888,1765394736.8203986,16.11328125,-28.3203125,6.8359375,592.28515625,0.0,0,0
1765394736.866933,1765394736.8242955,-56.15234375,-19.04296875,71.2890625,731.93359375,0.0,0,0
1765394736.8670661,1765394736.8281925,-86.9140625,-21.484375,8.7890625,-326.171875,0.0,0,0
1765394736.86709,1765394736.8320894,-18.5546875,-31.25,-78.61328125,-626.46484375,0.0,0,0
1765394736.905149,1765394736.8361022,26.85546875,-29.296875,-114.74609375,-862.79296875,0.0,0,0
1765394736.9052339,1765394736.8399992,42.96875,-11.71875,-0.9765625,322.265625,0.0,0,0
1765394736.905267,1765394736.8438962,-13.671875,-10.25390625,81.54296875,-912.109375,0.0,0,0
1765394736.9052968,1765394736.847793,-86.42578125,-28.80859375,19.53125,-156.25,0.0,0,0
1765394736.9053261,1765394736.85169,-47.36328125,-32.71484375,-75.68359375,-1000.0,0.0,0,0
1765394736.905355,1765394736.855587,36.1328125,-22.4609375,-110.83984375,-834.47265625,0.0,0,0
1765394736.9053829,1765394736.859484,49.31640625,-21.97265625,-19.53125,379.39453125,0.0,0,0
1765394736.9054122,1765394736.863381,-27.83203125,-34.1796875,60.546875,952.63671875,0.0,0,0
1765394736.905443,1765394736.8672779,-107.421875,-55.6640625,20.01953125,-223.14453125,0.0,0,0
1765394736.905472,1765394736.8711748,-47.8515625,-63.96484375,-68.359375,-679.6875,0.0,0,0
1765394736.9055,1765394736.8750718,2.44140625,-40.52734375,-109.375,-882.32421875,0.0,0,0
1765394736.905528,1765394736.8789687,29.296875,-17.08984375,-26.3671875,86.9140625,0.0,0,0
1765394736.9508429,1765394736.8829737,-14.6484375,-23.4375,53.22265625,-841.796875,0.0,0,0
1765394736.950974,1765394736.8868706,-104.98046875,-36.62109375,28.3203125,-71.2890625,0.0,0,0
1765394736.951031,1765394736.8907676,-64.453125,-31.25,-56.640625,-703.125,0.0,0,0
1765394736.9510841,1765394736.8946645,-3.90625,-31.25,-117.1875,-895.99609375,0.0,0,0
1765394736.951135,1765394736.8985615,30.2734375,-20.01953125,-60.546875,-227.05078125,0.0,0,0
1765394736.951186,1765394736.9024584,4.8828125,-10.25390625,52.734375,-796.875,0.0,0,0
1765394736.9512372,1765394736.9063554,-92.7734375,-29.78515625,47.8515625,121.09375,0.0,0,0
1765394736.951287,1765394736.9102523,-61.03515625,-35.15625,-50.78125,-804.6875,0.0,0,0
1765394736.951469,1765394736.9141493,11.71875,-39.55078125,-114.2578125,-930.6640625,0.0,0,0
1765394736.951523,1765394736.9180465,44.43359375,-25.87890625,-67.87109375,-338.37890625,0.0,0,0
1765394736.951574,1765394736.9219434,26.85546875,-6.8359375,55.6640625,-841.796875,0.0,0,0
1765394736.9516249,1765394736.9258404,-83.49609375,-29.296875,59.5703125,245.60546875,0.0,0,0
1765394736.995719,1765394736.929838,-65.91796875,-37.109375,-41.015625,-770.5078125,0.0,0,0
1765394736.995868,1765394736.933735,13.671875,-32.2265625,-102.5390625,-897.4609375,0.0,0,0
1765394736.99591,1765394736.9376318,59.08203125,-16.6015625,-82.03125,-318.359375,0.0,0,0
1765394736.9959512,1765394736.9415288,33.203125,-11.23046875,23.92578125,-873.046875,0.0,0,0
1765394736.995989,1765394736.945426,-76.171875,-29.296875,61.5234375,373.53515625,0.0,0,0
1765394736.996026,1765394736.949323,-66.40625,-28.3203125,-21.484375,-596.19140625,0.0,0,0
1765394736.996064,1765394736.95322,2.44140625,-19.04296875,-95.703125,-751.953125,0.0,0,0
1765394736.9961019,1765394736.9571168,26.85546875,-42.48046875,-99.609375,-682.12890625,0.0,0,0
1765394736.996139,1765394736.9610138,22.4609375,-62.98828125,19.04296875,772.4609375,0.0,0,0
1765394736.9961758,1765394736.9649107,-62.5,-31.73828125,70.3125,524.90234375,0.0,0,0
1765394736.996214,1765394736.968808,-74.21875,-21.97265625,-16.11328125,-401.3671875,0.0,0,0
1765394736.9962502,1765394736.972705,-4.39453125,-28.3203125,-95.21484375,-586.9140625,0.0,0,0
1765394737.042444,1765394736.9766908,32.71484375,-24.90234375,-111.328125,-759.27734375,0.0,0,0
1765394737.0425222,1765394736.9805877,41.50390625,-5.859375,7.32421875,662.59765625,0.0,0,0
1765394737.042558,1765394736.9844847,-49.8046875,-13.671875,64.94140625,680.17578125,0.0,0,0
1765394737.042593,1765394736.9883819,-80.078125,-28.3203125,-13.18359375,-372.0703125,0.0,0,0
1765394737.04263,1765394736.9922788,-4.39453125,-23.4375,-87.40234375,-597.16796875,0.0,0,0
1765394737.0426612,1765394736.9961758,29.296875,-22.4609375,-116.69921875,-768.06640625,0.0,0,0
1765394737.0426922,1765394737.0000727,32.2265625,-1.46484375,-13.671875,527.83203125,0.0,0,0
1765394737.042722,1765394737.00397,-37.109375,-54.6875,57.12890625,856.93359375,0.0,0,0
1765394737.042754,1765394737.0078669,-83.49609375,-79.1015625,-4.39453125,-281.73828125,0.0,0,0
1765394737.042785,1765394737.0117638,-15.625,-25.390625,-76.66015625,-674.31640625,0.0,0,0
1765394737.042815,1765394737.0156608,41.015625,-19.53125,-106.93359375,-843.75,0.0,0,0
1765394737.0428438,1765394737.0195577,51.26953125,-3.90625,-17.08984375,323.73046875,0.0,0,0
1765394737.115416,1765394737.023681,-17.578125,-10.7421875,61.03515625,-933.59375,0.0,0,0
1765394737.11548,1765394737.0275779,-84.47265625,-16.6015625,22.4609375,-89.84375,0.0,0,0
1765394737.115504,1765394737.0314748,-39.0625,-15.625,-73.73046875,-768.5546875,0.0,0,0
1765394737.1155279,1765394737.035372,13.671875,-22.4609375,-125.48828125,-949.21875,0.0,0,0
1765394737.115552,1765394737.039269,48.33984375,-15.625,-34.66796875,94.7265625,0.0,0,0
1765394737.115576,1765394737.0431662,-2.44140625,-5.37109375,64.453125,-879.39453125,0.0,0,0
1765394737.1155999,1765394737.047063,-96.19140625,-29.78515625,33.69140625,-73.2421875,0.0,0,0
1765394737.1156569,1765394737.05096,-62.98828125,-58.10546875,-65.91796875,-867.1875,0.0,0,0
1765394737.115703,1765394737.0548573,-2.44140625,-37.59765625,-122.55859375,-1000.0,0.0,0,0
1765394737.1157289,1765394737.0587542,26.3671875,-9.765625,-58.10546875,-146.484375,0.0,0,0
1765394737.115753,1765394737.0626512,-6.8359375,-3.41796875,42.96875,-818.359375,0.0,0,0
1765394737.115776,1765394737.0665483,-111.81640625,-19.53125,29.296875,11.23046875,0.0,0,0
1765394737.1298392,1765394737.0705202,-65.91796875,-18.06640625,-56.15234375,-600.5859375,0.0,0,0
1765394737.129874,1765394737.074417,6.34765625,-21.484375,-106.93359375,-762.20703125,0.0,0,0
1765394737.129898,1765394737.0783143,25.390625,-23.4375,-57.12890625,-314.94140625,0.0,0,0
1765394737.1299222,1765394737.0822113,4.39453125,-15.13671875,47.36328125,-801.7578125,0.0,0,0
1765394737.129946,1765394737.0861084,-115.234375,-31.73828125,39.55078125,126.953125,0.0,0,0
1765394737.129976,1765394737.0900054,-81.54296875,-30.2734375,-48.33984375,-499.0234375,0.0,0,0
1765394737.1299999,1765394737.0939023,-4.8828125,-24.4140625,-105.46875,-617.1875,0.0,0,0
1765394737.13006,1765394737.0977995,26.85546875,-18.5546875,-86.9140625,-395.01953125,0.0,0,0
1765394737.130115,1765394737.1016965,20.99609375,-9.765625,28.80859375,-826.171875,0.0,0,0
1765394737.1301491,1765394737.1055937,-89.84375,-26.3671875,50.29296875,272.94921875,0.0,0,0
