timestamp,lsl_timestamp,TP9,AF7,AF8,TP10,Right AUX,keypress_A,keypress_B
1772032950.113578,1772032950.0036795,-249.0234375,-31.73828125,259.27734375,-246.58203125,0.0,0,0
1772032950.113711,1772032950.007563,967.7734375,53.7109375,996.09375,969.23828125,0.0,0,0
1772032950.113753,1772032950.0114465,-934.5703125,38.57421875,510.25390625,-935.05859375,0.0,0,0
1772032950.113787,1772032950.01533,6.34765625,-62.98828125,-575.68359375,4.39453125,0.0,0,0
1772032950.113819,1772032950.0192134,-1000.0,-143.06640625,-933.10546875,-1000.0,0.0,0,0
1772032950.1138492,1772032950.023097,-433.59375,-43.9453125,104.98046875,-425.29296875,0.0,0,0
1772032950.113878,1772032950.0269806,880.859375,61.5234375,-978.02734375,886.71875,0.0,0,0
1772032950.1139069,1772032950.030864,-884.765625,104.98046875,605.95703125,-886.23046875,0.0,0,0
1772032950.113935,1772032950.0347476,179.19921875,19.04296875,-517.08984375,168.9453125,0.0,0,0
1772032950.113976,1772032950.038631,-1000.0,-123.046875,-948.73046875,-1000.0,0.0,0,0
1772032950.114003,1772032950.0425146,-683.10546875,-79.58984375,-85.44921875,-677.734375,0.0,0,0
1772032950.114032,1772032950.0463982,704.58984375,25.87890625,916.9921875,705.56640625,0.0,0,0
1772032950.115604,1772032950.0505257,-835.44921875,46.875,732.91015625,-835.44921875,0.0,0,0
1772032950.1156669,1772032950.0544093,169.43359375,-69.82421875,-391.11328125,169.921875,0.0,0,0
1772032950.115701,1772032950.0582929,-1000.0,-138.671875,-959.47265625,-1000.0,0.0,0,0
1772032950.1157289,1772032950.0621765,-931.15234375,-65.91796875,-245.1171875,-928.7109375,0.0,0,0
1772032950.11576,1772032950.06606,374.51171875,12.20703125,774.90234375,374.51171875,0.0,0,0
1772032950.1157892,1772032950.0699437,-783.69140625,42.96875,862.79296875,-783.69140625,0.0,0,0
1772032950.115817,1772032950.0738273,141.11328125,-37.59765625,-285.64453125,145.99609375,0.0,0,0
1772032950.1158452,1772032950.0777106,-1000.0,-123.046875,-1000.0,-1000.0,0.0,0,0
1772032950.115871,1772032950.0815942,-1000.0,-96.19140625,-476.07421875,-1000.0,0.0,0,0
1772032950.1158988,1772032950.0854778,61.5234375,-15.625,582.51953125,60.05859375,0.0,0,0
1772032950.115927,1772032950.0893614,-770.01953125,50.29296875,873.53515625,-770.99609375,0.0,0,0
1772032950.1159549,1772032950.093245,311.5234375,-29.296875,-222.65625,305.17578125,0.0,0,0
1772032950.158465,1772032950.0973103,-958.0078125,-125.48828125,-1000.0,-960.44921875,0.0,0,0
1772032950.158593,1772032950.1011941,-1000.0,-105.95703125,-600.5859375,-1000.0,0.0,0,0
1772032950.158638,1772032950.1050777,-131.8359375,-4.39453125,459.9609375,-135.25390625,0.0,0,0
1772032950.1586869,1772032950.1089613,-819.3359375,69.3359375,928.7109375,-818.84765625,0.0,0,0
1772032950.15873,1772032950.112845,498.046875,-1.46484375,-63.4765625,483.88671875,0.0,0,0
1772032950.158773,1772032950.1167285,-867.1875,-90.8203125,-1000.0,-876.46484375,0.0,0,0
1772032950.158814,1772032950.1206124,-1000.0,-57.6171875,-693.359375,-1000.0,0.0,0,0
1772032950.1588538,1772032950.124496,-222.16796875,54.6875,364.2578125,-224.12109375,0.0,0,0
1772032950.158905,1772032950.1283796,-916.9921875,78.61328125,922.8515625,-914.0625,0.0,0,0
1772032950.158953,1772032950.1322632,782.2265625,4.39453125,158.69140625,774.90234375,0.0,0,0
1772032950.158995,1772032950.1361468,-579.1015625,-80.078125,-870.1171875,-587.40234375,0.0,0,0
1772032950.159038,1772032950.1400304,-1000.0,-111.328125,-797.8515625,-1000.0,0.0,0,0
1772032950.217373,1772032950.1440759,-184.08203125,-35.15625,290.52734375,-185.546875,0.0,0,0
1772032950.217633,1772032950.1479595,-983.88671875,49.8046875,960.44921875,-979.98046875,0.0,0,0
1772032950.2176871,1772032950.1518433,998.53515625,37.109375,374.0234375,988.28125,0.0,0,0
1772032950.217727,1772032950.155727,-216.796875,-69.3359375,-718.75,-231.4453125,0.0,0,0
1772032950.217771,1772032950.1596107,-1000.0,-127.44140625,-868.1640625,-1000.0,0.0,0,0
1772032950.217803,1772032950.1634943,-241.69921875,-4.39453125,302.24609375,-238.28125,0.0,0,0
1772032950.217837,1772032950.167378,971.19140625,80.56640625,989.74609375,972.65625,0.0,0,0
1772032950.2178712,1772032950.1712618,-937.01171875,36.1328125,471.19140625,-937.5,0.0,0,0
1772032950.217904,1772032950.1751454,3.41796875,-59.5703125,-572.75390625,2.44140625,0.0,0,0
1772032950.217948,1772032950.1790292,-1000.0,-127.9296875,-913.0859375,-1000.0,0.0,0,0
1772032950.217994,1772032950.1829128,-440.91796875,-41.50390625,108.88671875,-435.546875,0.0,0,0
1772032950.2180321,1772032950.1867967,875.9765625,57.12890625,995.1171875,880.859375,0.0,0,0
1772032950.2631931,1772032950.1909957,-882.32421875,55.17578125,672.8515625,-883.7890625,0.0,0,0
1772032950.263299,1772032950.1948795,185.546875,-27.83203125,-416.015625,171.38671875,0.0,0,0
1772032950.263346,1772032950.1987634,-1000.0,-111.81640625,-985.83984375,-1000.0,0.0,0,0
1772032950.2633889,1772032950.202647,-681.640625,-78.125,-166.50390625,-670.8984375,0.0,0,0
1772032950.26344,1772032950.2065308,707.51953125,30.2734375,901.3671875,714.35546875,0.0,0,0
1772032950.263484,1772032950.2104146,-836.42578125,68.359375,811.03515625,-836.9140625,0.0,0,0
1772032950.2635279,1772032950.2142985,169.43359375,-25.87890625,-322.75390625,170.8984375,0.0,0,0
1772032950.263571,1772032950.2181823,-1000.0,-127.9296875,-985.83984375,-1000.0,0.0,0,0
1772032950.263617,1772032950.2220662,-930.17578125,-98.6328125,-304.6875,-923.828125,0.0,0,0
1772032950.2636611,1772032950.22595,375.9765625,9.27734375,760.25390625,382.32421875,0.0,0,0
1772032950.2637079,1772032950.2298338,-784.1796875,59.5703125,840.33203125,-784.66796875,0.0,0,0
1772032950.263751,1772032950.2337174,141.6015625,-37.59765625,-319.82421875,151.85546875,0.0,0,0
1772032950.309331,1772032950.237893,-1000.0,-126.46484375,-1000.0,-1000.0,0.0,0,0
1772032950.309464,1772032950.2417772,-1000.0,-105.46875,-450.68359375,-1000.0,0.0,0,0
1772032950.309529,1772032950.245661,69.3359375,-5.859375,598.6328125,82.03125,0.0,0,0
1772032950.309589,1772032950.2495449,-769.53125,62.01171875,910.15625,-769.53125,0.0,0,0
1772032950.30966,1772032950.2534287,312.5,-21.484375,-170.8984375,308.59375,0.0,0,0
1772032950.309719,1772032950.2573128,-957.03125,-111.81640625,-1000.0,-958.0078125,0.0,0,0
1772032950.3097768,1772032950.2611966,-1000.0,-93.75,-559.08203125,-1000.0,0.0,0,0
1772032950.3098319,1772032950.2650805,-127.44140625,-10.7421875,479.00390625,-123.046875,0.0,0,0
1772032950.309891,1772032950.2689645,-819.82421875,68.359375,929.6875,-818.84765625,0.0,0,0
1772032950.309951,1772032950.2728484,505.859375,18.5546875,-16.6015625,500.48828125,0.0,0,0
1772032950.310009,1772032950.2767322,-861.328125,-101.5625,-1000.0,-860.83984375,0.0,0,0
1772032950.3100648,1772032950.280616,-1000.0,-108.88671875,-665.52734375,-1000.0,0.0,0,0
1772032950.353566,1772032950.2847707,-221.6796875,-14.16015625,402.34375,-223.14453125,0.0,0,0
1772032950.353699,1772032950.2886548,-916.015625,61.5234375,943.84765625,-912.109375,0.0,0,0
1772032950.353747,1772032950.292539,778.80859375,12.6953125,165.52734375,767.578125,0.0,0,0
1772032950.353791,1772032950.2964227,-583.49609375,-95.21484375,-907.2265625,-596.6796875,0.0,0,0
1772032950.35384,1772032950.3003068,-1000.0,-123.53515625,-795.8984375,-1000.0,0.0,0,0
1772032950.353885,1772032950.3041909,-184.08203125,-10.25390625,352.5390625,-186.03515625,0.0,0,0
1772032950.3539279,1772032950.3080747,-983.88671875,74.21875,990.234375,-979.98046875,0.0,0,0
1772032950.3539698,1772032950.3119588,998.53515625,33.69140625,363.76953125,987.3046875,0.0,0,0
1772032950.354013,1772032950.3158429,-217.28515625,-64.453125,-722.16796875,-233.3984375,0.0,0,0
1772032950.354058,1772032950.3197267,-1000.0,-131.8359375,-895.99609375,-1000.0,0.0,0,0
1772032950.354099,1772032950.3236108,-238.28125,-47.36328125,225.09765625,-230.95703125,0.0,0,0
1772032950.354142,1772032950.3274949,972.65625,46.38671875,-988.28125,976.5625,0.0,0,0
1772032950.4121652,1772032950.3316379,-937.5,41.015625,522.4609375,-939.94140625,0.0,0,0
1772032950.412329,1772032950.335522,2.9296875,-51.7578125,-583.984375,-4.8828125,0.0,0,0
1772032950.412396,1772032950.339406,-1000.0,-130.859375,-900.390625,-1000.0,0.0,0,0
1772032950.412454,1772032950.3432903,-434.5703125,-44.43359375,153.3203125,-423.33984375,0.0,0,0
1772032950.413188,1772032950.3471744,879.8828125,49.8046875,963.8671875,887.6953125,0.0,0,0
1772032950.413257,1772032950.3510585,-883.7890625,65.4296875,680.17578125,-887.20703125,0.0,0,0
1772032950.413316,1772032950.3549426,181.15234375,-29.78515625,-375.9765625,162.109375,0.0,0,0
1772032950.413374,1772032950.3588266,-1000.0,-125.9765625,-958.49609375,-1000.0,0.0,0,0
1772032950.41343,1772032950.3627107,-682.6171875,-45.8984375,-74.21875,-666.015625,0.0,0,0
1772032950.413486,1772032950.3665948,705.56640625,36.62109375,922.8515625,716.30859375,0.0,0,0
1772032950.413544,1772032950.3704789,-835.9375,41.9921875,741.69921875,-837.890625,0.0,0,0
1772032950.4136,1772032950.374363,170.8984375,-41.9921875,-361.81640625,173.828125,0.0,0,0
1772032950.444444,1772032950.3784695,-1000.0,-137.6953125,-995.1171875,-1000.0,0.0,0,0
1772032950.4445498,1772032950.3823538,-916.50390625,-102.5390625,-284.1796875,-900.87890625,0.0,0,0
1772032950.444612,1772032950.3862379,397.4609375,24.4140625,810.05859375,418.9453125,0.0,0,0
1772032950.444673,1772032950.390122,-786.62109375,68.359375,841.30859375,-788.57421875,0.0,0,0
1772032950.444731,1772032950.3940063,142.08984375,-36.62109375,-328.61328125,150.87890625,0.0,0,0
1772032950.4447901,1772032950.3978903,-1000.0,-105.95703125,-1000.0,-1000.0,0.0,0,0
1772032950.444844,1772032950.4017744,-1000.0,-78.61328125,-397.94921875,-1000.0,0.0,0,0
1772032950.4448981,1772032950.4056587,73.2421875,42.48046875,636.23046875,89.35546875,0.0,0,0
1772032950.4449558,1772032950.4095428,-769.04296875,97.16796875,867.67578125,-769.04296875,0.0,0,0
1772032950.445033,1772032950.4134269,305.17578125,-29.296875,-230.95703125,291.9921875,0.0,0,0
1772032950.44509,1772032950.4173112,-961.42578125,-119.62890625,-1000.0,-967.7734375,0.0,0,0
1772032950.445149,1772032950.4211953,-1000.0,-94.7265625,-545.8984375,-1000.0,0.0,0,0
1772032950.4878201,1772032950.4252806,-117.67578125,-3.41796875,501.953125,-102.05078125,0.0,0,0
1772032950.4879282,1772032950.4291646,-816.89453125,62.5,937.98828125,-811.5234375,0.0,0,0
1772032950.4879732,1772032950.433049,500.48828125,7.8125,12.20703125,481.4453125,0.0,0,0
1772032950.488012,1772032950.4369333,-863.28125,-104.98046875,-1000.0,-873.046875,0.0,0,0
1772032950.488045,1772032950.4408174,-1000.0,-119.140625,-704.1015625,-1000.0,0.0,0,0
1772032950.4880798,1772032950.4447017,-222.65625,-8.7890625,419.921875,-219.7265625,0.0,0,0
1772032950.488123,1772032950.448586,-915.0390625,73.2421875,904.78515625,-907.71484375,0.0,0,0
1772032950.4881642,1772032950.45247,775.390625,32.2265625,83.0078125,756.34765625,0.0,0,0
1772032950.488209,1772032950.4563544,-587.890625,-84.47265625,-911.62109375,-609.375,0.0,0,0
1772032950.488251,1772032950.4602385,-1000.0,-129.8828125,-766.6015625,-1000.0,0.0,0,0
1772032950.4882822,1772032950.4641228,-186.03515625,-21.484375,353.515625,-188.96484375,0.0,0,0
1772032950.488318,1772032950.468007,-979.4921875,61.5234375,987.3046875,-973.6328125,0.0,0,0
1772032950.533288,1772032950.4720724,984.375,31.73828125,358.3984375,970.703125,0.0,0,0
1772032950.533411,1772032950.4759567,-242.1875,-81.0546875,-761.23046875,-268.5546875,0.0,0,0
1772032950.533462,1772032950.479841,-1000.0,-132.8125,-870.60546875,-1000.0,0.0,0,0
1772032950.533504,1772032950.4837253,-240.72265625,-25.87890625,264.6484375,-235.83984375,0.0,0,0
1772032950.533559,1772032950.4876094,971.19140625,57.12890625,988.28125,974.609375,0.0,0,0
1772032950.533602,1772032950.4914937,-937.98828125,45.8984375,578.61328125,-941.89453125,0.0,0,0
1772032950.5336478,1772032950.495378,-1.46484375,5.859375,-502.44140625,-18.06640625,0.0,0,0
1772032950.5337012,1772032950.4992623,-1000.0,-66.89453125,-957.51953125,-1000.0,0.0,0,0
1772032950.5337589,1772032950.5031466,-440.4296875,-64.94140625,34.66796875,-428.22265625,0.0,0,0
1772032950.533803,1772032950.507031,876.953125,23.92578125,983.88671875,883.30078125,0.0,0,0
1772032950.533845,1772032950.5109153,-883.30078125,37.59765625,645.99609375,-886.23046875,0.0,0,0
1772032950.533906,1772032950.5147996,177.734375,-50.78125,-462.40234375,161.62109375,0.0,0,0
1772032950.594235,1772032950.518852,-1000.0,-129.39453125,-937.5,-1000.0,0.0,0,0
1772032950.594367,1772032950.5227363,-672.36328125,-74.21875,-80.078125,-649.90234375,0.0,0,0
1772032950.5944252,1772032950.5266206,716.30859375,29.78515625,917.96875,734.375,0.0,0,0
1772032950.594472,1772032950.530505,-839.84375,49.31640625,729.4921875,-842.7734375,0.0,0,0
1772032950.5945148,1772032950.5343893,177.24609375,-56.640625,-390.13671875,180.17578125,0.0,0,0
1772032950.594559,1772032950.5382736,-1000.0,-116.2109375,-951.66015625,-1000.0,0.0,0,0
1772032950.594599,1772032950.5421581,-869.62890625,-42.96875,-281.73828125,-854.4921875,0.0,0,0
1772032950.594653,1772032950.5460424,470.703125,36.1328125,791.015625,490.72265625,0.0,0,0
1772032950.5947032,1772032950.5499268,-795.8984375,51.26953125,792.48046875,-798.33984375,0.0,0,0
1772032950.594775,1772032950.553811,142.578125,-50.29296875,-392.578125,148.92578125,0.0,0,0
1772032950.594827,1772032950.5576954,-1000.0,-132.8125,-1000.0,-1000.0,0.0,0,0
1772032950.594883,1772032950.5615797,-1000.0,-113.76953125,-477.05078125,-1000.0,0.0,0,0
1772032950.638253,1772032950.5657735,78.61328125,-8.7890625,601.07421875,99.609375,0.0,0,0
1772032950.6384058,1772032950.569658,-772.94921875,73.2421875,909.1796875,-772.4609375,0.0,0,0
1772032950.638454,1772032950.5735424,318.84765625,-15.13671875,-193.359375,303.7109375,0.0,0,0
1772032950.638498,1772032950.577427,-998.53515625,-128.41796875,-1000.0,-1000.0,0.0,0,0
1772032950.63854,1772032950.5813115,-1000.0,-105.95703125,-526.3671875,-1000.0,0.0,0,0
1772032950.638595,1772032950.5851958,67.3828125,15.625,591.796875,78.61328125,0.0,0,0
1772032950.638637,1772032950.5890803,-833.984375,86.42578125,933.59375,-829.1015625,0.0,0,0
1772032950.63868,1772032950.5929646,494.140625,2.44140625,-38.0859375,477.5390625,0.0,0,0
1772032950.638722,1772032950.5968492,-859.86328125,-125.48828125,-1000.0,-868.65234375,0.0,0,0
1772032950.638793,1772032950.6007335,-1000.0,-107.91015625,-708.984375,-1000.0,0.0,0,0
1772032950.6388428,1772032950.604618,-224.12109375,4.8828125,380.859375,-222.16796875,0.0,0,0
1772032950.638884,1772032950.6085024,-910.64453125,66.89453125,939.94140625,-903.80859375,0.0,0,0
1772032950.71216,1772032950.6128452,759.765625,2.44140625,75.68359375,741.2109375,0.0,0,0
1772032950.712231,1772032950.6167297,-608.3984375,-111.328125,-950.68359375,-629.8828125,0.0,0,0
1772032950.712266,1772032950.6206143,-1000.0,-134.27734375,-789.55078125,-1000.0,0.0,0,0
1772032950.7122948,1772032950.6244988,-186.03515625,-41.9921875,317.87109375,-188.96484375,0.0,0,0
1772032950.712325,1772032950.6283834,-980.46875,46.875,983.3984375,-974.609375,0.0,0,0
1772032950.712353,1772032950.632268,988.28125,39.0625,442.3828125,971.6796875,0.0,0,0
1772032950.7123818,1772032950.6361527,-237.3046875,-76.171875,-698.2421875,-267.08984375,0.0,0,0
1772032950.712411,1772032950.6400373,-1000.0,-147.4609375,-870.1171875,-1000.0,0.0,0,0
1772032950.712438,1772032950.6439219,-233.88671875,-39.55078125,281.25,-226.5625,0.0,0,0
1772032950.712471,1772032950.6478064,974.12109375,49.8046875,-982.421875,978.515625,0.0,0,0
1772032950.712503,1772032950.651691,-939.453125,37.109375,560.546875,-942.3828125,0.0,0,0
1772032950.712532,1772032950.6555755,-5.37109375,-54.19921875,-566.40625,-18.06640625,0.0,0,0
1772032950.728517,1772032950.6597292,-1000.0,-135.25390625,-928.22265625,-1000.0,0.0,0,0
1772032950.728601,1772032950.663614,-420.8984375,-39.55078125,127.44140625,-409.66796875,0.0,0,0
1772032950.72863,1772032950.6674986,886.71875,67.87109375,-1000.0,892.578125,0.0,0,0
1772032950.7286541,1772032950.6713834,-884.765625,44.43359375,627.9296875,-887.20703125,0.0,0,0
1772032950.728679,1772032950.675268,169.921875,-56.640625,-481.4453125,153.3203125,0.0,0,0
1772032950.728704,1772032950.6791527,-1000.0,-115.72265625,-879.39453125,-1000.0,0.0,0,0
1772032950.728727,1772032950.6830373,-642.578125,-42.96875,20.5078125,-613.28125,0.0,0,0
1772032950.72875,1772032950.686922,713.37890625,41.9921875,922.8515625,729.00390625,0.0,0,0
1772032950.728773,1772032950.6908069,-837.890625,41.015625,704.1015625,-840.8203125,0.0,0,0
1772032950.7288861,1772032950.6946914,170.8984375,-54.6875,-419.43359375,174.31640625,0.0,0,0
1772032950.7289128,1772032950.6985762,-1000.0,-126.953125,-953.61328125,-1000.0,0.0,0,0
1772032950.728935,1772032950.7024608,-924.8046875,-84.9609375,-241.2109375,-908.69140625,0.0,0,0
1772032950.7727082,1772032950.7065792,384.765625,28.3203125,783.69140625,406.73828125,0.0,0,0
1772032950.772754,1772032950.710464,-785.15625,70.3125,816.89453125,-787.59765625,0.0,0,0
1772032950.7727702,1772032950.7143486,142.578125,-37.59765625,-353.515625,148.4375,0.0,0,0
1772032950.7727842,1772032950.7182333,-1000.0,-114.2578125,-1000.0,-1000.0,0.0,0,0
1772032950.772798,1772032950.7221181,-1000.0,-68.84765625,-434.08203125,-1000.0,0.0,0,0
1772032950.7728121,1772032950.726003,80.078125,35.64453125,626.46484375,96.6796875,0.0,0,0
1772032950.7728262,1772032950.7298877,-768.5546875,82.03125,840.8203125,-768.06640625,0.0,0,0
1772032950.772841,1772032950.7337725,295.41015625,-23.92578125,-314.94140625,281.73828125,0.0,0,0
1772032950.772855,1772032950.7376573,-965.33203125,-98.14453125,-1000.0,-971.19140625,0.0,0,0
1772032950.772869,1772032950.7415419,-1000.0,-104.4921875,-570.3125,-1000.0,0.0,0,0
1772032950.772882,1772032950.7454267,-117.67578125,-26.85546875,488.76953125,-106.4453125,0.0,0,0
1772032950.772896,1772032950.7493114,-815.91796875,65.4296875,944.82421875,-811.5234375,0.0,0,0
1772032950.81761,1772032950.7534108,494.62890625,-5.859375,-31.25,479.4921875,0.0,0,0
1772032950.817666,1772032950.7572956,-867.1875,-115.234375,-1000.0,-875.0,0.0,0,0
1772032950.817686,1772032950.7611804,-1000.0,-112.79296875,-687.5,-1000.0,0.0,0,0
1772032950.817703,1772032950.7650652,-224.12109375,-20.5078125,385.25390625,-222.16796875,0.0,0,0
1772032950.8177211,1772032950.7689502,-911.62109375,57.12890625,942.3828125,-903.3203125,0.0,0,0
1772032950.817773,1772032950.772835,763.671875,19.04296875,197.265625,739.74609375,0.0,0,0
1772032950.8178089,1772032950.7767198,-603.515625,-86.9140625,-890.13671875,-631.8359375,0.0,0,0
1772032950.8178298,1772032950.7806046,-1000.0,-99.609375,-820.3125,-1000.0,0.0,0,0
1772032950.817846,1772032950.7844894,-187.98828125,-9.765625,327.1484375,-190.91796875,0.0,0,0
1772032950.817864,1772032950.7883742,-976.07421875,26.3671875,977.5390625,-969.23828125,0.0,0,0
1772032950.817882,1772032950.792259,974.12109375,10.25390625,318.359375,954.58984375,0.0,0,0
1772032950.817899,1772032950.796144,-260.7421875,-68.359375,-753.90625,-293.9453125,0.0,0,0
1772032950.8634071,1772032950.8002186,-1000.0,-130.859375,-938.96484375,-1000.0,0.0,0,0
1772032950.86346,1772032950.8041034,-257.32421875,-45.8984375,154.296875,-272.94921875,0.0,0,0
1772032950.863478,1772032950.8079884,976.5625,41.015625,977.05078125,995.1171875,0.0,0,0
1772032950.8634958,1772032950.8118732,-953.61328125,27.34375,308.10546875,982.91015625,0.0,0,0
1772032950.8635142,1772032950.8157582,-82.03125,-73.2421875,-709.47265625,-210.9375,0.0,0,0
1772032950.863531,1772032950.819643,-1000.0,-135.7421875,-937.01171875,-1000.0,0.0,0,0
1772032950.8635478,1772032950.8235278,-473.14453125,-57.6171875,-37.109375,-473.6328125,0.0,0,0
1772032950.863565,1772032950.8274128,854.98046875,47.8515625,955.078125,866.69921875,0.0,0,0
1772032950.863582,1772032950.8312976,-879.39453125,44.43359375,544.43359375,-910.15625,0.0,0,0
1772032950.863599,1772032950.8351827,112.3046875,-65.91796875,-563.96484375,-1.46484375,0.0,0,0
1772032950.863616,1772032950.8390675,-1000.0,-128.90625,-940.4296875,-1000.0,0.0,0,0
1772032950.863632,1772032950.8429523,-683.59375,-62.01171875,-73.73046875,-684.5703125,0.0,0,0
1772032950.907768,1772032950.847008,689.453125,21.484375,923.828125,665.52734375,0.0,0,0
1772032950.90784,1772032950.850893,-832.03125,43.9453125,716.30859375,-828.125,0.0,0,0
1772032950.907868,1772032950.854778,169.43359375,-37.59765625,-419.43359375,169.43359375,0.0,0,0
1772032950.907893,1772032950.8586628,-1000.0,-135.25390625,-961.42578125,-1000.0,0.0,0,0
1772032950.907916,1772032950.8625479,-927.24609375,-110.83984375,-189.94140625,-927.24609375,0.0,0,0
1772032950.9079401,1772032950.8664327,380.859375,10.25390625,821.2890625,377.44140625,0.0,0,0
1772032950.907965,1772032950.8703177,-784.1796875,80.078125,820.80078125,-784.1796875,0.0,0,0
1772032950.907988,1772032950.8742027,142.578125,-36.62109375,-334.47265625,144.53125,0.0,0,0
1772032950.908011,1772032950.8780875,-1000.0,-160.15625,-1000.0,-1000.0,0.0,0,0
1772032950.9080331,1772032950.8819726,-1000.0,-131.34765625,-398.92578125,-1000.0,0.0,0,0
1772032950.908055,1772032950.8858573,75.1953125,-20.5078125,654.296875,90.33203125,0.0,0,0
1772032950.9080782,1772032950.8897424,-769.04296875,46.38671875,902.83203125,-768.5546875,0.0,0,0
1772032951.0273468,1772032950.8942823,296.875,-37.59765625,-201.66015625,279.296875,0.0,0,0
1772032951.027541,1772032950.8981676,-964.35546875,-122.0703125,-986.81640625,-972.65625,0.0,0,0
1772032951.0276082,1772032950.9020526,-1000.0,-109.86328125,-446.77734375,-1000.0,0.0,0,0
1772032951.027671,1772032950.905938,-120.1171875,-27.34375,511.23046875,-103.515625,0.0,0,0
1772032951.0277288,1772032950.909823,-817.87109375,45.41015625,930.6640625,-814.94140625,0.0,0,0
1772032951.027788,1772032950.9137082,509.27734375,1.953125,84.9609375,500.48828125,0.0,0,0
1772032951.0278459,1772032950.9175932,-858.3984375,-85.44921875,-969.7265625,-855.95703125,0.0,0,0
1772032951.027904,1772032950.9214785,-1000.0,-115.72265625,-668.9453125,-1000.0,0.0,0,0
1772032951.027959,1772032950.9253635,-221.19140625,-26.3671875,440.91796875,-212.890625,0.0,0,0
1772032951.0280168,1772032950.9292488,-917.48046875,63.96484375,971.6796875,-914.0625,0.0,0,0
1772032951.028074,1772032950.9331338,783.203125,19.04296875,266.11328125,782.2265625,0.0,0,0
1772032951.028141,1772032950.937019,-578.125,-94.7265625,-881.34765625,-573.73046875,0.0,0,0
1772032951.030505,1772032950.9413857,-1000.0,-131.8359375,-724.12109375,-1000.0,0.0,0,0
1772032951.030609,1772032950.945271,-190.91796875,-27.83203125,423.828125,-191.40625,0.0,0,0
1772032951.030676,1772032950.9491565,-965.8203125,65.91796875,-985.3515625,-963.8671875,0.0,0,0
1772032951.0307379,1772032950.9530418,944.82421875,29.296875,452.63671875,939.453125,0.0,0,0
1772032951.0307999,1772032950.956927,-305.6640625,-72.265625,-761.23046875,-306.15234375,0.0,0,0
1772032951.030858,1772032950.9608123,-1000.0,-96.6796875,-733.3984375,-1000.0,0.0,0,0
1772032951.03092,1772032950.9646976,-204.1015625,-7.32421875,445.3125,-200.1953125,0.0,0,0
1772032951.0309792,1772032950.9685829,981.4453125,58.10546875,971.19140625,983.3984375,0.0,0,0
1772032951.031041,1772032950.9724681,-940.4296875,32.2265625,505.37109375,-938.96484375,0.0,0,0
1772032951.0311282,1772032950.9763536,7.8125,-61.5234375,-577.63671875,16.11328125,0.0,0,0
1772032951.0311859,1772032950.980239,-1000.0,-122.0703125,-841.796875,-1000.0,0.0,0,0
1772032951.03124,1772032950.9841242,-382.32421875,-30.76171875,271.484375,-355.95703125,0.0,0,0
1772032951.0601358,1772032950.9882984,905.76171875,59.08203125,998.53515625,919.921875,0.0,0,0
1772032951.060317,1772032950.992184,-893.06640625,46.875,763.18359375,-894.04296875,0.0,0,0
1772032951.060367,1772032950.9960692,201.66015625,-40.52734375,-354.98046875,187.98828125,0.0,0,0
1772032951.060412,1772032950.9999547,-1000.0,-122.55859375,-877.9296875,-1000.0,0.0,0,0
1772032951.060454,1772032951.0038402,-553.7109375,-35.64453125,170.41015625,-432.12890625,0.0,0,0
1772032951.0605319,1772032951.0077255,836.9140625,114.2578125,981.93359375,896.97265625,0.0,0,0
1772032951.060576,1772032951.011611,-865.72265625,82.51953125,792.48046875,-886.23046875,0.0,0,0
1772032951.060642,1772032951.0154963,187.98828125,-36.1328125,-296.38671875,204.1015625,0.0,0,0
1772032951.060684,1772032951.0193818,-1000.0,-102.5390625,-955.56640625,-1000.0,0.0,0,0
1772032951.060724,1772032951.023267,-823.2421875,-75.1953125,-158.69140625,-664.0625,0.0,0,0
1772032951.060784,1772032951.0271525,536.1328125,29.78515625,833.0078125,683.59375,0.0,0,0
1772032951.0608351,1772032951.0310378,-803.7109375,56.15234375,816.89453125,-834.9609375,0.0,0,0
1772032951.116447,1772032951.0351655,145.5078125,-23.92578125,-323.2421875,174.8046875,0.0,0,0
1772032951.11658,1772032951.039051,-1000.0,-64.94140625,-1000.0,-1000.0,0.0,0,0
1772032951.116599,1772032951.0429366,-1000.0,-68.84765625,-401.3671875,-1000.0,0.0,0,0
1772032951.116617,1772032951.046822,108.88671875,2.9296875,637.20703125,145.99609375,0.0,0,0
1772032951.1166348,1772032951.0507073,-769.04296875,67.87109375,934.08203125,-771.484375,0.0,0,0
1772032951.116653,1772032951.0545928,338.37890625,-6.34765625,-84.9609375,336.42578125,0.0,0,0
1772032951.116671,1772032951.0584784,-947.265625,-88.8671875,-1000.0,-948.73046875,0.0,0,0
1772032951.1166878,1772032951.0623639,-1000.0,-103.02734375,-557.12890625,-1000.0,0.0,0,0
1772032951.116705,1772032951.0662494,-79.58984375,-0.48828125,499.51171875,-53.22265625,0.0,0,0
1772032951.1167219,1772032951.0701349,-812.5,75.1953125,910.64453125,-812.5,0.0,0,0
1772032951.116739,1772032951.0740204,507.8125,10.7421875,-38.57421875,518.06640625,0.0,0,0
1772032951.116756,1772032951.0779057,-853.02734375,-80.56640625,-1000.0,-833.49609375,0.0,0,0
1772032951.1481442,1772032951.0820134,-1000.0,-109.375,-739.2578125,-1000.0,0.0,0,0
1772032951.148175,1772032951.0858989,-221.6796875,-17.578125,358.3984375,-214.35546875,0.0,0,0
1772032951.1481888,1772032951.0897844,-915.0390625,58.59375,947.75390625,-905.2734375,0.0,0,0
1772032951.148202,1772032951.09367,774.4140625,19.04296875,140.13671875,750.48828125,0.0,0,0
1772032951.148216,1772032951.0975554,-589.35546875,-87.40234375,-919.43359375,-616.69921875,0.0,0,0
1772032951.1482298,1772032951.101441,-1000.0,-108.88671875,-769.04296875,-1000.0,0.0,0,0
1772032951.148243,1772032951.1053267,-187.5,-12.6953125,346.19140625,-190.4296875,0.0,0,0
1772032951.148256,1772032951.1092122,-976.5625,65.91796875,960.9375,-969.7265625,0.0,0,0
1772032951.1482701,1772032951.1130977,977.05078125,46.38671875,258.30078125,958.49609375,0.0,0,0
1772032951.1482828,1772032951.1169832,-258.30078125,-69.3359375,-801.7578125,-290.52734375,0.0,0,0
1772032951.148297,1772032951.1208687,-1000.0,-123.046875,-900.87890625,-1000.0,0.0,0,0
1772032951.14831,1772032951.1247542,-236.328125,-18.5546875,215.8203125,-232.421875,0.0,0,0
1772032951.1925209,1772032951.1288395,973.6328125,63.4765625,998.53515625,978.02734375,0.0,0,0
1772032951.1925602,1772032951.1327252,-940.4296875,52.734375,473.14453125,-945.80078125,0.0,0,0
1772032951.1925812,1772032951.1366107,-12.20703125,-49.8046875,-589.35546875,-36.62109375,0.0,0,0
1772032951.1926,1772032951.1404965,-1000.0,-141.11328125,-957.03125,-1000.0,0.0,0,0
1772032951.192616,1772032951.144382,-433.10546875,-58.59375,46.875,-422.36328125,0.0,0,0
1772032951.192634,1772032951.1482675,881.8359375,51.7578125,-999.0234375,886.23046875,0.0,0,0
1772032951.192651,1772032951.1521533,-886.23046875,58.10546875,560.546875,-888.18359375,0.0,0,0
1772032951.192668,1772032951.1560388,157.71484375,-50.29296875,-533.69140625,142.08984375,0.0,0,0
1772032951.192686,1772032951.1599245,-1000.0,-142.08984375,-995.60546875,-1000.0,0.0,0,0
1772032951.192702,1772032951.16381,-663.57421875,-82.51953125,-124.0234375,-652.83203125,0.0,0,0
1772032951.19272,1772032951.1676955,720.703125,29.296875,958.0078125,726.07421875,0.0,0,0
1772032951.192737,1772032951.1715813,-838.37890625,48.828125,689.453125,-839.35546875,0.0,0,0
1772032951.237493,1772032951.1756473,170.8984375,-51.7578125,-451.171875,172.8515625,0.0,0,0
1772032951.237535,1772032951.1795328,-1000.0,-129.39453125,-985.3515625,-1000.0,0.0,0,0
1772032951.237548,1772032951.1834185,-920.8984375,-80.56640625,-293.45703125,-910.15625,0.0,0,0
1772032951.23756,1772032951.187304,390.13671875,21.97265625,787.109375,404.296875,0.0,0,0
1772032951.2375722,1772032951.1911898,-785.64453125,61.5234375,810.05859375,-787.59765625,0.0,0,0
1772032951.2375839,1772032951.1950755,142.578125,-35.15625,-343.26171875,145.01953125,0.0,0,0
1772032951.2375958,1772032951.198961,-1000.0,-124.51171875,-1000.0,-1000.0,0.0,0,0
1772032951.2376242,1772032951.2028468,-1000.0,-102.5390625,-547.8515625,-1000.0,0.0,0,0
1772032951.237707,1772032951.2067325,77.63671875,0.0,573.73046875,99.609375,0.0,0,0
1772032951.237736,1772032951.210618,-768.5546875,72.265625,885.25390625,-768.06640625,0.0,0,0
1772032951.23775,1772032951.2145038,288.0859375,-13.18359375,-251.46484375,268.5546875,0.0,0,0
1772032951.237762,1772032951.2183895,-969.23828125,-114.2578125,-1000.0,-977.5390625,0.0,0,0
1772032951.311407,1772032951.2226007,-1000.0,-110.3515625,-568.359375,-1000.0,0.0,0,0
1772032951.311442,1772032951.2264867,-113.28125,-14.6484375,487.3046875,-100.5859375,0.0,0,0
1772032951.311455,1772032951.2303724,-813.4765625,54.19921875,916.9921875,-808.59375,0.0,0,0
1772032951.311465,1772032951.2342582,485.3515625,-14.6484375,-58.59375,466.796875,0.0,0,0
1772032951.311475,1772032951.238144,-872.55859375,-112.3046875,-1000.0,-881.8359375,0.0,0,0
1772032951.3114848,1772032951.2420297,-1000.0,-114.74609375,-641.6015625,-1000.0,0.0,0,0
1772032951.3114948,1772032951.2459154,-227.5390625,10.7421875,449.21875,-222.65625,0.0,0,0
1772032951.311518,1772032951.2498012,-903.3203125,92.28515625,947.75390625,-895.5078125,0.0,0,0
1772032951.3115761,1772032951.253687,734.375,-2.44140625,56.15234375,713.37890625,0.0,0,0
1772032951.311598,1772032951.2575727,-642.08984375,-126.46484375,-974.12109375,-663.0859375,0.0,0,0
1772032951.3116102,1772032951.2614584,-1000.0,-143.06640625,-781.25,-1000.0,0.0,0,0
1772032951.31162,1772032951.2653441,-189.94140625,-34.66796875,314.94140625,-192.87109375,0.0,0,0
1772032951.3413508,1772032951.2693782,-973.6328125,58.10546875,973.6328125,-967.7734375,0.0,0,0
1772032951.341389,1772032951.273264,966.796875,24.4140625,287.109375,949.70703125,0.0,0,0
1772032951.341401,1772032951.27715,-277.34375,-85.9375,-796.875,-306.640625,0.0,0,0
1772032951.341411,1772032951.2810357,-1000.0,-135.7421875,-863.28125,-1000.0,0.0,0,0
1772032951.3414211,1772032951.2849214,-230.95703125,-44.43359375,256.34765625,-226.07421875,0.0,0,0
1772032951.3414311,1772032951.2888074,978.02734375,60.05859375,-967.28515625,981.4453125,0.0,0,0
1772032951.341441,1772032951.2926931,-945.3125,44.43359375,459.9609375,-949.21875,0.0,0,0
1772032951.3414521,1772032951.296579,-33.69140625,-75.68359375,-678.7109375,-48.33984375,0.0,0,0
1772032951.341461,1772032951.3004646,-1000.0,-152.34375,-906.73828125,-1000.0,0.0,0,0
1772032951.341471,1772032951.3043506,-420.8984375,-44.43359375,130.859375,-407.2265625,0.0,0,0
1772032951.341481,1772032951.3082364,886.23046875,86.9140625,-994.140625,893.5546875,0.0,0,0
1772032951.34149,1772032951.312122,-888.18359375,52.734375,560.05859375,-892.08984375,0.0,0,0
1772032951.3864682,1772032951.3161275,153.3203125,-73.73046875,-550.29296875,138.18359375,0.0,0,0
1772032951.386509,1772032951.3200135,-1000.0,-108.3984375,-929.19921875,-1000.0,0.0,0,0
1772032951.3865228,1772032951.3238993,-649.4140625,-31.73828125,-23.92578125,-634.765625,0.0,0,0
1772032951.386536,1772032951.327785,734.86328125,24.4140625,949.21875,744.140625,0.0,0,0
1772032951.386549,1772032951.331671,-841.30859375,46.875,716.796875,-843.26171875,0.0,0,0
1772032951.386563,1772032951.3355567,171.875,-16.6015625,-400.87890625,174.8046875,0.0,0,0
1772032951.386577,1772032951.3394427,-1000.0,-105.46875,-935.05859375,-1000.0,0.0,0,0
1772032951.3865879,1772032951.3433285,-921.38671875,-96.19140625,-277.34375,-901.3671875,0.0,0,0
1772032951.386601,1772032951.3472142,389.6484375,-9.27734375,756.34765625,418.9453125,0.0,0,0
1772032951.386613,1772032951.3511002,-786.1328125,66.40625,802.24609375,-789.55078125,0.0,0,0
1772032951.386626,1772032951.354986,143.5546875,-24.90234375,-379.8828125,145.5078125,0.0,0,0
1772032951.3866382,1772032951.358872,-1000.0,-144.04296875,-1000.0,-1000.0,0.0,0,0
1772032951.4331782,1772032951.3630176,-1000.0,-126.953125,-413.57421875,-1000.0,0.0,0,0
1772032951.4332118,1772032951.3669033,89.35546875,-25.87890625,651.3671875,109.375,0.0,0,0
1772032951.433229,1772032951.3707893,-767.578125,51.7578125,836.42578125,-767.578125,0.0,0,0
1772032951.433246,1772032951.3746753,289.0625,-46.38671875,-299.31640625,271.97265625,0.0,0,0
1772032951.433263,1772032951.3785613,-966.796875,-136.71875,-1000.0,-974.12109375,0.0,0,0
1772032951.4332778,1772032951.382447,-1000.0,-99.609375,-545.41015625,-1000.0,0.0,0,0
1772032951.4333508,1772032951.386333,-119.62890625,-10.7421875,500.9765625,-107.91015625,0.0,0,0
1772032951.433368,1772032951.390219,-814.94140625,30.76171875,889.6484375,-810.546875,0.0,0,0
1772032951.433383,1772032951.394105,484.86328125,-9.27734375,-115.72265625,468.26171875,0.0,0,0
1772032951.433399,1772032951.3979907,-873.53515625,-60.05859375,-1000.0,-882.32421875,0.0,0,0
1772032951.433413,1772032951.4018767,-1000.0,-119.62890625,-711.42578125,-1000.0,0.0,0,0
1772032951.433428,1772032951.4057627,-226.5625,-39.0625,365.72265625,-221.19140625,0.0,0,0
1772032951.47767,1772032951.409888,-907.71484375,61.5234375,921.38671875,-897.94921875,0.0,0,0
1772032951.477712,1772032951.413774,749.0234375,0.9765625,82.03125,723.6328125,0.0,0,0
1772032951.477728,1772032951.41766,-623.046875,-109.375,-933.10546875,-650.390625,0.0,0,0
1772032951.477744,1772032951.421546,-1000.0,-132.8125,-799.31640625,-1000.0,0.0,0,0
1772032951.477759,1772032951.425432,-189.453125,-17.08984375,326.171875,-192.87109375,0.0,0,0
1772032951.4777741,1772032951.429318,-974.12109375,82.51953125,967.7734375,-967.28515625,0.0,0,0
1772032951.477789,1772032951.433204,968.75,41.50390625,291.015625,949.21875,0.0,0,0
1772032951.477804,1772032951.43709,-274.4140625,-78.61328125,-766.11328125,-308.10546875,0.0,0,0
1772032951.477819,1772032951.440976,-1000.0,-105.46875,-911.62109375,-1000.0,0.0,0,0
1772032951.477833,1772032951.444862,-228.02734375,-11.23046875,198.73046875,-223.14453125,0.0,0,0
1772032951.477848,1772032951.4487479,977.05078125,51.7578125,-986.81640625,981.4453125,0.0,0,0
1772032951.477864,1772032951.4526339,-943.359375,46.38671875,510.25390625,-947.265625,0.0,0,0
1772032951.523114,1772032951.4567397,-21.97265625,-62.01171875,-594.7265625,-40.0390625,0.0,0,0
1772032951.523157,1772032951.460626,-1000.0,-129.8828125,-927.734375,-1000.0,0.0,0,0
1772032951.523175,1772032951.4645119,-417.96875,-39.55078125,113.76953125,-404.78515625,0.0,0,0
1772032951.5231922,1772032951.4683979,887.6953125,57.6171875,998.53515625,894.53125,0.0,0,0
1772032951.5232089,1772032951.472284,-888.18359375,64.453125,640.625,-891.6015625,0.0,0,0
1772032951.523226,1772032951.47617,167.48046875,-19.53125,-439.94140625,148.92578125,0.0,0,0
1772032951.5232441,1772032951.480056,-1000.0,-124.0234375,-984.86328125,-1000.0,0.0,0,0
1772032951.5232608,1772032951.4839423,-635.7421875,-67.3828125,-85.44921875,-624.51171875,0.0,0,0
1772032951.523278,1772032951.4878283,752.44140625,64.453125,958.984375,755.859375,0.0,0,0
1772032951.523295,1772032951.4917142,-845.21484375,68.359375,720.703125,-846.19140625,0.0,0,0
1772032951.5233111,1772032951.4956005,174.31640625,-42.96875,-392.08984375,176.7578125,0.0,0,0
1772032951.523329,1772032951.4994864,-1000.0,-129.8828125,-984.375,-1000.0,0.0,0,0
1772032951.5987468,1772032951.5038853,-904.296875,-93.75,-278.3203125,-887.6953125,0.0,0,0
1772032951.598815,1772032951.5077715,416.50390625,18.5546875,800.29296875,438.96484375,0.0,0,0
1772032951.598848,1772032951.5116577,-789.0625,70.3125,814.94140625,-791.9921875,0.0,0,0
1772032951.5988789,1772032951.515544,144.04296875,-31.73828125,-344.23828125,145.99609375,0.0,0,0
1772032951.598908,1772032951.5194302,-1000.0,-126.46484375,-1000.0,-1000.0,0.0,0,0
1772032951.598937,1772032951.5233164,-1000.0,-85.9375,-361.81640625,-1000.0,0.0,0,0
1772032951.598964,1772032951.5272026,98.14453125,26.3671875,713.8671875,117.67578125,0.0,0,0
1772032951.5989928,1772032951.5310888,-767.08984375,79.1015625,806.15234375,-768.06640625,0.0,0,0
1772032951.599021,1772032951.534975,283.69140625,-27.83203125,-323.73046875,271.484375,0.0,0,0
1772032951.5990489,1772032951.5388613,-971.6796875,-140.13671875,-1000.0,-977.05078125,0.0,0,0
1772032951.5990772,1772032951.5427475,-1000.0,-105.95703125,-508.7890625,-1000.0,0.0,0,0
1772032951.599106,1772032951.5466337,-93.26171875,-0.9765625,574.70703125,-83.49609375,0.0,0,0
1772032951.6126919,1772032951.550706,-809.5703125,47.36328125,912.109375,-806.15234375,0.0,0,0
1772032951.612732,1772032951.5545921,483.3984375,-24.4140625,-54.6875,467.28515625,0.0,0,0
1772032951.612761,1772032951.5584784,-870.1171875,-125.0,-1000.0,-879.8828125,0.0,0,0
1772032951.61279,1772032951.5623646,-1000.0,-122.55859375,-687.98828125,-1000.0,0.0,0,0
1772032951.612829,1772032951.5662508,-227.5390625,-24.90234375,372.0703125,-218.75,0.0,0,0
1772032951.612858,1772032951.5701373,-902.83203125,72.265625,-994.62890625,-895.5078125,0.0,0,0
1772032951.612886,1772032951.5740235,732.91015625,15.13671875,156.73828125,715.8203125,0.0,0,0
1772032951.6129138,1772032951.5779097,-644.04296875,-110.83984375,-966.796875,-659.1796875,0.0,0,0
1772032951.612942,1772032951.581796,-1000.0,-123.046875,-756.34765625,-1000.0,0.0,0,0
1772032951.612968,1772032951.5856824,-188.96484375,-23.92578125,348.6328125,-191.89453125,0.0,0,0
1772032951.612997,1772032951.5895686,-977.05078125,65.91796875,980.95703125,-970.21484375,0.0,0,0
1772032951.6130261,1772032951.5934548,975.09765625,37.109375,375.9765625,957.03125,0.0,0,0
1772032951.657929,1772032951.5974996,-262.6953125,-76.66015625,-749.0234375,-294.43359375,0.0,0,0
1772032951.658031,1772032951.601386,-1000.0,-140.625,-838.8671875,-1000.0,0.0,0,0
1772032951.658066,1772032951.6052723,-224.609375,1.953125,302.24609375,-221.19140625,0.0,0,0
1772032951.6581,1772032951.6091585,978.02734375,124.0234375,987.79296875,981.93359375,0.0,0,0
1772032951.658134,1772032951.613045,-942.87109375,47.8515625,494.62890625,-947.265625,0.0,0,0
1772032951.658168,1772032951.6169312,-15.625,-78.61328125,-572.265625,-35.64453125,0.0,0,0
1772032951.658203,1772032951.6208177,-1000.0,-75.68359375,-926.26953125,-1000.0,0.0,0,0
1772032951.6582341,1772032951.624704,-424.8046875,22.4609375,82.03125,-405.76171875,0.0,0,0
1772032951.658269,1772032951.6285903,884.765625,20.99609375,964.84375,894.53125,0.0,0,0
1772032951.658304,1772032951.6324766,-886.71875,16.11328125,626.953125,-891.11328125,0.0,0,0
1772032951.658336,1772032951.6363628,167.96875,-51.26953125,-433.59375,149.90234375,0.0,0,0
1772032951.6583722,1772032951.6402493,-1000.0,-125.9765625,-936.5234375,-1000.0,0.0,0,0
1772032951.716713,1772032951.6442757,-644.04296875,-72.75390625,-52.24609375,-627.44140625,0.0,0,0
1772032951.71683,1772032951.6481621,743.65234375,31.73828125,930.17578125,753.41796875,0.0,0,0
1772032951.7168891,1772032951.6520483,-843.75,58.10546875,769.04296875,-845.703125,0.0,0,0
1772032951.716949,1772032951.6559348,173.828125,-42.48046875,-371.58203125,177.24609375,0.0,0,0
1772032951.717006,1772032951.6598213,-1000.0,-118.1640625,-905.76171875,-1000.0,0.0,0,0
1772032951.717061,1772032951.6637075,-903.3203125,-58.10546875,-156.25,-884.765625,0.0,0,0
1772032951.7171168,1772032951.667594,417.48046875,80.078125,783.203125,442.87109375,0.0,0,0
1772032951.717173,1772032951.6714802,-789.0625,77.63671875,832.51953125,-792.48046875,0.0,0,0
1772032951.7172859,1772032951.6753666,144.04296875,-61.5234375,-303.22265625,146.97265625,0.0,0,0
1772032951.717371,1772032951.679253,-1000.0,-136.71875,-1000.0,-1000.0,0.0,0,0
1772032951.7174468,1772032951.6831393,-1000.0,-119.140625,-438.96484375,-1000.0,0.0,0,0
1772032951.717522,1772032951.6870258,100.09765625,-6.8359375,630.37109375,125.48828125,0.0,0,0
1772032951.763148,1772032951.6910324,-767.08984375,58.10546875,871.58203125,-768.5546875,0.0,0,0
1772032951.7633102,1772032951.6949189,286.1328125,-23.4375,-216.30859375,269.04296875,0.0,0,0
1772032951.763378,1772032951.6988053,-969.7265625,-110.3515625,-1000.0,-977.05078125,0.0,0,0
1772032951.7634401,1772032951.7026918,-1000.0,-110.3515625,-587.890625,-1000.0,0.0,0,0
1772032951.763496,1772032951.706578,-98.14453125,-37.109375,472.16796875,-87.40234375,0.0,0,0
1772032951.763554,1772032951.7104645,-809.5703125,124.0234375,970.703125,-806.15234375,0.0,0,0
1772032951.7636638,1772032951.714351,473.6328125,78.125,-4.39453125,461.9140625,0.0,0,0
1772032951.763724,1772032951.7182374,-877.44140625,-123.046875,-1000.0,-883.7890625,0.0,0,0
1772032951.763767,1772032951.7221236,-1000.0,-144.53125,-799.31640625,-1000.0,0.0,0,0
1772032951.763807,1772032951.72601,-227.5390625,-34.1796875,294.921875,-216.30859375,0.0,0,0
1772032951.763849,1772032951.7298965,-906.25,59.5703125,948.2421875,-896.97265625,0.0,0,0
1772032951.764126,1772032951.733783,744.62890625,-1.46484375,138.671875,723.6328125,0.0,0,0
1772032951.80838,1772032951.7379293,-628.41796875,-108.3984375,-910.15625,-649.4140625,0.0,0,0
1772032951.80849,1772032951.7418158,-1000.0,-131.8359375,-797.36328125,-1000.0,0.0,0,0
1772032951.808533,1772032951.7457023,-188.4765625,-35.64453125,328.61328125,-191.40625,0.0,0,0
1772032951.808578,1772032951.7495887,-977.05078125,32.2265625,976.07421875,-969.7265625,0.0,0,0
1772032951.8086212,1772032951.7534752,976.07421875,15.13671875,353.515625,957.51953125,0.0,0,0
1772032951.808664,1772032951.7573617,-261.23046875,-62.98828125,-716.30859375,-293.45703125,0.0,0,0
1772032951.808707,1772032951.761248,-1000.0,-126.46484375,-929.6875,-1000.0,0.0,0,0
1772032951.808747,1772032951.7651346,-225.5859375,-52.24609375,166.015625,-222.65625,0.0,0,0
1772032951.808789,1772032951.769021,979.4921875,46.875,982.421875,982.91015625,0.0,0,0
1772032951.80883,1772032951.7729075,-944.82421875,55.17578125,504.39453125,-948.73046875,0.0,0,0
1772032951.808872,1772032951.776794,-27.83203125,-48.33984375,-570.3125,-44.921875,0.0,0,0
1772032951.808913,1772032951.7806804,-1000.0,-129.8828125,-934.08203125,-1000.0,0.0,0,0
1772032951.855766,1772032951.784816,-413.57421875,-50.78125,113.28125,-401.3671875,0.0,0,0
1772032951.8559291,1772032951.7887027,891.11328125,42.96875,990.234375,896.97265625,0.0,0,0
1772032951.8559659,1772032951.7925892,-890.13671875,40.0390625,639.16015625,-892.578125,0.0,0,0
1772032951.8560011,1772032951.7964756,153.3203125,-54.19921875,-451.171875,140.625,0.0,0,0
1772032951.8560362,1772032951.8003623,-1000.0,-132.32421875,-963.37890625,-1000.0,0.0,0,0
1772032951.8560681,1772032951.8042488,-632.8125,-55.6640625,-22.94921875,-622.0703125,0.0,0,0
1772032951.856102,1772032951.8081355,752.44140625,55.17578125,973.14453125,755.859375,0.0,0,0
1772032951.856135,1772032951.812022,-845.21484375,24.90234375,658.69140625,-846.6796875,0.0,0,0
1772032951.856169,1772032951.8159084,175.78125,9.765625,-457.03125,178.22265625,0.0,0,0
1772032951.856202,1772032951.8197951,-1000.0,-28.3203125,-966.796875,-1000.0,0.0,0,0
1772032951.856234,1772032951.8236816,-891.6015625,-89.35546875,-249.0234375,-876.46484375,0.0,0,0
1772032951.856267,1772032951.8275683,435.546875,16.11328125,798.33984375,455.56640625,0.0,0,0
1772032951.914617,1772032951.8316844,-791.015625,56.15234375,821.77734375,-793.9453125,0.0,0,0
1772032951.914785,1772032951.835571,145.01953125,-38.0859375,-312.01171875,147.4609375,0.0,0,0
1772032951.91485,1772032951.8394578,-1000.0,-133.7890625,-1000.0,-1000.0,0.0,0,0
1772032951.914906,1772032951.8433442,-1000.0,-112.3046875,-438.96484375,-1000.0,0.0,0,0
1772032951.914963,1772032951.847231,109.375,4.8828125,648.4375,131.34765625,0.0,0,0
1772032951.91502,1772032951.8511176,-766.11328125,75.1953125,926.26953125,-768.06640625,0.0,0,0
1772032951.9150798,1772032951.855004,265.13671875,-36.62109375,-177.24609375,257.32421875,0.0,0,0
1772032951.915138,1772032951.8588908,-979.00390625,-126.46484375,-1000.0,-981.93359375,0.0,0,0
1772032951.915199,1772032951.8627775,-1000.0,-17.08984375,-570.80078125,-1000.0,0.0,0,0
1772032951.915255,1772032951.866664,-95.21484375,28.3203125,493.1640625,-84.9609375,0.0,0,0
1772032951.915312,1772032951.8705506,-809.08203125,33.69140625,932.12890625,-805.6640625,0.0,0,0
1772032951.91537,1772032951.8744373,478.515625,-30.2734375,-30.76171875,464.35546875,0.0,0,0
1772032951.945004,1772032951.878543,-873.53515625,-126.953125,-1000.0,-881.8359375,0.0,0,0
1772032951.945128,1772032951.8824296,-1000.0,-119.62890625,-688.4765625,-1000.0,0.0,0,0
1772032951.9451861,1772032951.886316,-227.05078125,-12.6953125,380.859375,-213.8671875,0.0,0,0
1772032951.94523,1772032951.8902028,-905.2734375,51.26953125,942.87109375,-895.01953125,0.0,0,0
1772032951.94528,1772032951.8940895,742.1875,-12.20703125,185.546875,718.26171875,0.0,0,0
1772032951.945323,1772032951.8979762,-631.8359375,-92.7734375,-888.671875,-654.78515625,0.0,0,0
1772032951.9453719,1772032951.9018629,-1000.0,-125.9765625,-785.15625,-1000.0,0.0,0,0
1772032951.9454122,1772032951.9057496,-190.91796875,31.73828125,341.30859375,-193.359375,0.0,0,0
1772032951.9454741,1772032951.9096363,-970.21484375,118.1640625,959.9609375,-965.8203125,0.0,0,0
1772032951.945517,1772032951.913523,958.0078125,0.48828125,342.7734375,945.3125,0.0,0,0
1772032951.9455712,1772032951.9174097,-297.36328125,-99.12109375,-751.46484375,-315.91796875,0.0,0,0
1772032951.9456398,1772032951.9212964,-1000.0,-132.32421875,-875.9765625,-1000.0,0.0,0,0
1772032951.989248,1772032951.9253643,-209.47265625,-37.59765625,264.16015625,-215.33203125,0.0,0,0
1772032951.989441,1772032951.9292512,984.375,47.36328125,997.0703125,985.3515625,0.0,0,0
1772032951.989496,1772032951.933138,-947.75390625,28.80859375,521.97265625,-950.1953125,0.0,0,0
1772032951.989553,1772032951.9370246,-32.2265625,-69.3359375,-571.2890625,-47.8515625,0.0,0,0
1772032951.9896011,1772032951.9409113,-1000.0,-136.23046875,-930.17578125,-1000.0,0.0,0,0
1772032951.989652,1772032951.944798,-394.04296875,-46.875,146.97265625,-389.6484375,0.0,0,0
1772032951.989695,1772032951.948685,901.85546875,61.03515625,996.58203125,903.80859375,0.0,0,0
1772032951.9897568,1772032951.9525716,-895.01953125,116.2109375,639.6484375,-895.99609375,0.0,0,0
1772032951.9898071,1772032951.9564583,143.5546875,-19.04296875,-443.84765625,133.30078125,0.0,0,0
1772032951.989852,1772032951.960345,-1000.0,-157.2265625,-947.265625,-1000.0,0.0,0,0
1772032951.989889,1772032951.9642317,-610.83984375,-58.59375,-16.11328125,-609.375,0.0,0,0
1772032951.9899788,1772032951.9681184,773.4375,38.57421875,960.44921875,767.08984375,0.0,0,0
1772032952.0339048,1772032951.9721737,-849.609375,35.15625,706.54296875,-848.6328125,0.0,0,0
1772032952.034008,1772032951.9760606,177.24609375,-65.91796875,-408.203125,179.19921875,0.0,0,0
1772032952.034056,1772032951.9799473,-1000.0,-138.18359375,-971.6796875,-1000.0,0.0,0,0
1772032952.0341,1772032951.9838343,-885.7421875,-86.9140625,-258.30078125,-874.0234375,0.0,0,0
1772032952.034145,1772032951.987721,444.3359375,19.53125,799.31640625,458.984375,0.0,0,0
1772032952.034188,1772032951.9916077,-792.48046875,40.0390625,847.65625,-794.43359375,0.0,0,0
1772032952.0342321,1772032951.9954946,144.53125,22.4609375,-284.1796875,147.4609375,0.0,0,0
1772032952.034274,1772032951.9993813,-1000.0,-28.3203125,-1000.0,-1000.0,0.0,0,0
1772032952.034314,1772032952.0032682,-1000.0,-116.69921875,-555.17578125,-1000.0,0.0,0,0
1772032952.034354,1772032952.007155,109.86328125,-15.625,566.40625,134.27734375,0.0,0,0
1772032952.034396,1772032952.0110416,-765.625,72.265625,953.125,-768.06640625,0.0,0,0
1772032952.0344372,1772032952.0149286,247.55859375,-36.1328125,-194.3359375,247.55859375,0.0,0,0
1772032952.092216,1772032952.0189536,-986.328125,-142.578125,-1000.0,-985.83984375,0.0,0,0
1772032952.092434,1772032952.0228403,-1000.0,-119.140625,-561.03515625,-1000.0,0.0,0,0
1772032952.092499,1772032952.0267272,-92.28515625,-13.18359375,485.83984375,-82.51953125,0.0,0,0
1772032952.092561,1772032952.030614,-806.15234375,63.4765625,935.05859375,-803.7109375,0.0,0,0
1772032952.0926259,1772032952.0345008,467.7734375,-15.625,-37.109375,456.0546875,0.0,0,0
1772032952.092683,1772032952.0383878,-879.8828125,-100.09765625,-1000.0,-886.23046875,0.0,0,0
1772032952.092742,1772032952.0422745,-1000.0,-50.29296875,-750.9765625,-1000.0,0.0,0,0
1772032952.092797,1772032952.0461614,-228.515625,2.44140625,312.5,-214.84375,0.0,0,0
1772032952.092854,1772032952.050048,-903.80859375,25.87890625,965.8203125,-893.5546875,0.0,0,0
1772032952.0929122,1772032952.053935,736.328125,-7.32421875,176.7578125,713.37890625,0.0,0,0
1772032952.092969,1772032952.0578218,-639.16015625,-99.12109375,-905.2734375,-661.1328125,0.0,0,0
1772032952.093027,1772032952.0617087,-1000.0,-137.6953125,-806.15234375,-1000.0,0.0,0,0
1772032952.138379,1772032952.0657198,-190.91796875,-46.875,323.2421875,-193.84765625,0.0,0,0
1772032952.138504,1772032952.0696068,-971.19140625,49.31640625,970.21484375,-964.84375,0.0,0,0
1772032952.138549,1772032952.0734937,960.9375,17.578125,307.6171875,942.87109375,0.0,0,0
1772032952.138835,1772032952.0773804,-295.41015625,-96.6796875,-763.18359375,-320.80078125,0.0,0,0
1772032952.1388822,1772032952.0812674,-1000.0,-156.73828125,-889.6484375,-1000.0,0.0,0,0
1772032952.138923,1772032952.0851543,-193.359375,18.5546875,245.1171875,-210.9375,0.0,0,0
1772032952.1389718,1772032952.0890412,992.67578125,133.7890625,-970.21484375,988.28125,0.0,0,0
1772032952.139015,1772032952.092928,-954.1015625,24.90234375,478.02734375,-953.61328125,0.0,0,0
1772032952.1390579,1772032952.0968149,-49.31640625,-98.6328125,-649.4140625,-60.546875,0.0,0,0
1772032952.1390998,1772032952.1007018,-1000.0,-145.5078125,-909.1796875,-1000.0,0.0,0,0
1772032952.1391392,1772032952.1045885,-391.11328125,-39.0625,128.41796875,-386.71875,0.0,0,0
1772032952.1391811,1772032952.1084754,900.390625,38.57421875,996.09375,904.296875,0.0,0,0
1772032952.198231,1772032952.1127696,-894.53125,28.80859375,648.92578125,-896.484375,0.0,0,0
1772032952.198384,1772032952.1166565,144.04296875,-55.17578125,-458.0078125,127.44140625,0.0,0,0
1772032952.198434,1772032952.1205435,-1000.0,-125.0,-946.2890625,-1000.0,0.0,0,0
1772032952.198476,1772032952.1244304,-609.86328125,-63.4765625,-31.25,-606.93359375,0.0,0,0
1772032952.198519,1772032952.1283176,773.92578125,45.8984375,955.56640625,768.06640625,0.0,0,0
1772032952.198563,1772032952.1322045,-850.09765625,80.56640625,747.55859375,-849.12109375,0.0,0,0
1772032952.198615,1772032952.1360915,178.22265625,-45.41015625,-388.671875,180.17578125,0.0,0,0
1772032952.198675,1772032952.1399784,-1000.0,-150.87890625,-980.46875,-1000.0,0.0,0,0
1772032952.198716,1772032952.1438653,-880.37109375,-95.21484375,-242.1875,-867.1875,0.0,0,0
1772032952.1987672,1772032952.1477525,453.125,20.01953125,807.6171875,468.26171875,0.0,0,0
1772032952.198827,1772032952.1516395,-793.9453125,51.7578125,832.51953125,-796.38671875,0.0,0,0
1772032952.1988869,1772032952.1555264,145.99609375,-45.8984375,-306.640625,148.4375,0.0,0,0
1772032952.2279859,1772032952.1596463,-1000.0,-119.62890625,-1000.0,-1000.0,0.0,0,0
1772032952.2280982,1772032952.1635332,-1000.0,-104.4921875,-449.70703125,-1000.0,0.0,0,0
1772032952.228137,1772032952.1674204,125.9765625,-6.34765625,628.90625,145.01953125,0.0,0,0
1772032952.228172,1772032952.1713073,-766.11328125,61.5234375,895.01953125,-768.5546875,0.0,0,0
1772032952.2282088,1772032952.1751945,271.484375,-34.66796875,-208.984375,257.32421875,0.0,0,0
1772032952.228244,1772032952.1790814,-977.5390625,-115.72265625,-1000.0,-982.91015625,0.0,0,0
1772032952.22829,1772032952.1829686,-1000.0,-91.30859375,-542.96875,-1000.0,0.0,0,0
1772032952.2283251,1772032952.1868556,-76.171875,4.39453125,520.5078125,-70.3125,0.0,0,0
1772032952.2283578,1772032952.1907427,-803.22265625,52.734375,878.41796875,-801.7578125,0.0,0,0
1772032952.228391,1772032952.1946297,453.61328125,-33.69140625,-119.140625,449.21875,0.0,0,0
1772032952.228436,1772032952.1985168,-886.71875,-130.859375,-1000.0,-889.6484375,0.0,0,0
1772032952.228468,1772032952.2024038,-1000.0,-147.4609375,-690.4296875,-1000.0,0.0,0,0
1772032952.2895749,1772032952.2066557,-225.09765625,37.109375,387.6953125,-210.9375,0.0,0,0
1772032952.289734,1772032952.210543,-896.484375,129.39453125,950.68359375,-889.16015625,0.0,0,0
1772032952.2897978,1772032952.21443,714.35546875,-3.90625,144.53125,700.68359375,0.0,0,0
1772032952.289858,1772032952.2183173,-665.0390625,-98.14453125,-917.96875,-674.8046875,0.0,0,0
1772032952.289918,1772032952.2222044,-1000.0,-115.72265625,-796.38671875,-1000.0,0.0,0,0
1772032952.289974,1772032952.2260916,-192.87109375,-10.7421875,342.28515625,-194.82421875,0.0,0,0
1772032952.2900321,1772032952.2299788,-968.26171875,47.36328125,938.4765625,-963.37890625,0.0,0,0
1772032952.290091,1772032952.233866,952.63671875,16.6015625,242.1875,938.4765625,0.0,0,0
1772032952.2901871,1772032952.2377532,-311.5234375,0.9765625,-783.69140625,-330.078125,0.0,0,0
1772032952.290259,1772032952.2416403,-1000.0,-85.9375,-852.5390625,-1000.0,0.0,0,0
1772032952.290314,1772032952.2455275,-186.03515625,-41.9921875,276.85546875,-201.171875,0.0,0,0
1772032952.2903712,1772032952.2494147,994.140625,59.5703125,-998.046875,990.72265625,0.0,0,0
1772032952.318843,1772032952.2535064,-954.1015625,23.92578125,468.75,-953.61328125,0.0,0,0
1772032952.318926,1772032952.2573936,-47.36328125,-90.33203125,-630.859375,-55.6640625,0.0,0,0
1772032952.3189728,1772032952.2612808,-1000.0,-150.87890625,-914.0625,-1000.0,0.0,0,0
1772032952.319016,1772032952.265168,-367.1875,-50.29296875,141.11328125,-367.67578125,0.0,0,0
1772032952.319059,1772032952.2690554,912.59765625,39.55078125,989.74609375,913.0859375,0.0,0,0
1772032952.319103,1772032952.2729425,-898.92578125,32.2265625,680.6640625,-899.90234375,0.0,0,0
1772032952.319147,1772032952.2768297,148.92578125,-53.22265625,-394.53125,134.27734375,0.0,0,0
1772032952.31919,1772032952.280717,-1000.0,-157.2265625,-1000.0,-1000.0,0.0,0,0
1772032952.319232,1772032952.284604,-594.7265625,-102.5390625,-166.9921875,-590.8203125,0.0,0,0
1772032952.319283,1772032952.2884912,788.57421875,18.06640625,923.828125,784.1796875,0.0,0,0
1772032952.319343,1772032952.2923787,-853.515625,25.390625,746.09375,-853.02734375,0.0,0,0
1772032952.319403,1772032952.2962658,181.15234375,-10.7421875,-374.51171875,182.6171875,0.0,0,0
1772032952.363956,1772032952.3003373,-1000.0,-80.56640625,-973.14453125,-1000.0,0.0,0,0
1772032952.364056,1772032952.3042247,-859.375,-90.8203125,-197.75390625,-851.07421875,0.0,0,0
1772032952.364099,1772032952.308112,482.91015625,11.23046875,838.37890625,491.2109375,0.0,0,0
1772032952.3641422,1772032952.311999,-797.8515625,41.9921875,797.8515625,-799.31640625,0.0,0,0
1772032952.364185,1772032952.3158865,147.94921875,-50.29296875,-349.609375,149.90234375,0.0,0,0
1772032952.364228,1772032952.3197737,-1000.0,-121.58203125,-995.60546875,-1000.0,0.0,0,0
1772032952.36427,1772032952.3236609,-1000.0,-92.7734375,-460.9375,-1000.0,0.0,0,0
1772032952.364316,1772032952.3275483,145.5078125,47.8515625,611.328125,161.62109375,0.0,0,0
1772032952.364387,1772032952.3314354,-765.625,84.47265625,870.1171875,-768.5546875,0.0,0,0
1772032952.364429,1772032952.3353229,249.51171875,-54.6875,-266.11328125,246.09375,0.0,0,0
1772032952.3644722,1772032952.33921,-987.3046875,-129.39453125,-1000.0,-987.79296875,0.0,0,0
1772032952.364522,1772032952.3430972,-1000.0,-108.3984375,-547.8515625,-1000.0,0.0,0,0
1772032952.410802,1772032952.347151,-58.59375,-10.7421875,507.8125,-59.08203125,0.0,0,0
1772032952.411007,1772032952.3510382,-798.33984375,61.5234375,918.9453125,-798.33984375,0.0,0,0
1772032952.411071,1772032952.3549256,444.3359375,-12.20703125,-66.89453125,439.94140625,0.0,0,0
1772032952.411131,1772032952.3588128,-890.13671875,-109.86328125,-1000.0,-894.04296875,0.0,0,0
1772032952.411189,1772032952.3627002,-1000.0,-112.79296875,-663.0859375,-1000.0,0.0,0,0
1772032952.411245,1772032952.3665876,-223.6328125,-20.99609375,405.76171875,-208.984375,0.0,0,0
1772032952.4113028,1772032952.3704748,-889.6484375,104.98046875,939.94140625,-884.765625,0.0,0,0
1772032952.411361,1772032952.3743622,693.84765625,47.8515625,61.03515625,688.96484375,0.0,0,0
1772032952.4114509,1772032952.3782494,-689.453125,-123.046875,-957.03125,-688.4765625,0.0,0,0
1772032952.411516,1772032952.3821368,-1000.0,-135.25390625,-799.31640625,-1000.0,0.0,0,0
1772032952.411572,1772032952.3860242,-194.3359375,-21.97265625,312.01171875,-196.2890625,0.0,0,0
1772032952.4116302,1772032952.3899114,-966.796875,44.43359375,940.4296875,-961.9140625,0.0,0,0
1772032952.497508,1772032952.3939414,946.77734375,2.44140625,287.59765625,932.12890625,0.0,0,1
1772032952.497607,1772032952.3978288,-320.3125,-76.66015625,-747.55859375,-340.33203125,0.0,0,0
1772032952.497639,1772032952.4017162,-1000.0,-119.140625,-873.53515625,-1000.0,0.0,0,0
1772032952.497668,1772032952.4056034,-188.96484375,-27.34375,262.20703125,-204.1015625,0.0,0,0
1772032952.497697,1772032952.4094908,995.1171875,41.50390625,974.12109375,991.69921875,0.0,0,0
1772032952.497725,1772032952.4133782,-957.03125,43.9453125,562.5,-957.03125,0.0,0,0
1772032952.497752,1772032952.4172657,-60.546875,36.62109375,-517.08984375,-71.2890625,0.0,0,0
1772032952.4978628,1772032952.4211528,-1000.0,-82.51953125,-941.89453125,-1000.0,0.0,0,0
1772032952.497893,1772032952.4250402,-379.39453125,-82.51953125,95.703125,-372.55859375,0.0,0,0
1772032952.497922,1772032952.4289277,908.69140625,23.92578125,991.69921875,910.64453125,0.0,0,0
1772032952.4979498,1772032952.432815,-899.4140625,28.80859375,628.90625,-899.90234375,0.0,0,0
1772032952.4979782,1772032952.4367023,120.1171875,-66.89453125,-479.4921875,118.65234375,0.0,0,0
1772032952.513987,1772032952.4407518,-1000.0,-148.92578125,-951.66015625,-1000.0,0.0,0,0
1772032952.5140622,1772032952.444639,-585.44921875,-73.2421875,-50.78125,-588.37890625,0.0,0,0
1772032952.5140932,1772032952.4485264,791.9921875,24.90234375,963.37890625,784.1796875,0.0,0,0
1772032952.514123,1772032952.4524138,-854.00390625,25.87890625,653.3203125,-853.515625,0.0,0,0
1772032952.514152,1772032952.4563012,181.640625,-69.3359375,-518.5546875,174.8046875,0.0,0,0
1772032952.5141819,1772032952.4601886,-1000.0,-86.42578125,-908.69140625,-1000.0,0.0,0,0
1772032952.514209,1772032952.464076,-858.88671875,-27.83203125,-193.359375,-851.07421875,0.0,0,0
1772032952.5142379,1772032952.4679635,483.3984375,12.6953125,773.4375,488.76953125,0.0,0,0
1772032952.5142689,1772032952.4718509,-798.33984375,48.828125,801.7578125,-799.31640625,0.0,0,0
1772032952.5143008,1772032952.4757383,147.94921875,-45.41015625,-334.9609375,149.90234375,0.0,0,0
1772032952.5143318,1772032952.4796257,-1000.0,-118.1640625,-963.8671875,-1000.0,0.0,0,0
1772032952.514362,1772032952.483513,-1000.0,-88.37890625,-473.14453125,-1000.0,0.0,0,0
1772032952.5606499,1772032952.4876559,148.4375,-12.6953125,554.19921875,161.1328125,0.0,0,0
1772032952.560789,1772032952.4915433,-766.6015625,34.66796875,922.8515625,-769.53125,0.0,0,0
1772032952.560839,1772032952.495431,260.25390625,-33.69140625,-172.36328125,251.46484375,0.0,0,0
1772032952.5608902,1772032952.4993184,-986.81640625,-119.140625,-1000.0,-988.76953125,0.0,0,0
1772032952.560933,1772032952.5032058,-1000.0,-102.05078125,-575.1953125,-1000.0,0.0,0,0
1772032952.560978,1772032952.5070932,-28.3203125,59.08203125,511.71875,-37.59765625,0.0,0,0
1772032952.5610209,1772032952.5109808,-793.45703125,93.26171875,892.08984375,-794.921875,0.0,0,0
1772032952.5610628,1772032952.5148683,434.5703125,-44.43359375,-127.9296875,434.5703125,0.0,0,0
1772032952.561107,1772032952.5187557,-892.578125,-109.86328125,-1000.0,-894.04296875,0.0,0,0
1772032952.561148,1772032952.522643,-1000.0,-86.42578125,-691.89453125,-1000.0,0.0,0,0
1772032952.5611892,1772032952.5265307,-221.19140625,-23.4375,361.81640625,-206.0546875,0.0,0,0
1772032952.5612311,1772032952.5304182,-882.8125,40.52734375,966.30859375,-879.39453125,0.0,0,0
1772032952.603926,1772032952.5345433,670.41015625,2.44140625,152.83203125,670.8984375,0.0,0,0
1772032952.6040618,1772032952.5384307,-716.796875,-95.21484375,-937.01171875,-708.984375,0.0,0,0
1772032952.6041129,1772032952.5423183,-1000.0,-121.58203125,-817.3828125,-1000.0,0.0,0,0
1772032952.60416,1772032952.5462058,-200.68359375,-26.85546875,302.734375,-199.70703125,0.0,0,0
1772032952.604204,1772032952.5500934,-953.61328125,52.734375,977.5390625,-954.58984375,0.0,0,0
1772032952.604247,1772032952.5539808,906.25,22.4609375,372.55859375,910.15625,0.0,0,0
1772032952.60429,1772032952.5578685,-394.53125,-71.77734375,-741.2109375,-379.8828125,0.0,0,0
1772032952.604332,1772032952.561756,-1000.0,-140.13671875,-920.8984375,-1000.0,0.0,0,0
1772032952.604372,1772032952.5656435,-174.31640625,-8.7890625,201.171875,-196.2890625,0.0,0,0
1772032952.604414,1772032952.569531,-998.046875,99.609375,-987.79296875,995.60546875,0.0,0,0
1772032952.604456,1772032952.5734186,-964.84375,25.87890625,504.8828125,-960.9375,0.0,0,0
1772032952.604498,1772032952.577306,-91.30859375,-73.2421875,-616.2109375,-88.37890625,0.0,0,0
1772032952.648101,1772032952.581404,-1000.0,-133.7890625,-948.73046875,-1000.0,0.0,0,0
1772032952.6482291,1772032952.5852916,-347.65625,-46.875,116.2109375,-354.98046875,0.0,0,0
1772032952.648279,1772032952.5891793,919.921875,43.45703125,-997.0703125,917.96875,0.0,0,0
1772032952.648323,1772032952.5930667,-903.80859375,43.9453125,649.90234375,-902.83203125,0.0,0,0
1772032952.6483672,1772032952.5969543,128.41796875,-43.45703125,-438.4765625,117.1875,0.0,0,0
1772032952.64841,1772032952.600842,-1000.0,-117.1875,-924.31640625,-1000.0,0.0,0,0
1772032952.648451,1772032952.6047297,-554.19921875,-57.6171875,2.44140625,-570.3125,0.0,0,0
1772032952.648492,1772032952.608617,824.21875,33.203125,959.9609375,799.31640625,0.0,0,0
1772032952.648553,1772032952.6125047,-861.81640625,97.65625,667.48046875,-856.93359375,0.0,0,0
1772032952.6486,1772032952.6163924,187.5,-23.4375,-437.5,187.01171875,0.0,0,0
1772032952.648659,1772032952.62028,-1000.0,-147.4609375,-973.14453125,-1000.0,0.0,0,0
1772032952.648698,1772032952.6241677,-818.359375,-84.9609375,-207.51953125,-818.359375,0.0,0,0
1772032952.696094,1772032952.6282535,542.48046875,22.94921875,856.93359375,539.0625,0.0,0,0
1772032952.696237,1772032952.632141,-806.15234375,46.875,806.640625,-806.15234375,0.0,0,0
1772032952.696301,1772032952.6360288,150.87890625,-49.31640625,-348.6328125,152.34375,0.0,0,0
1772032952.696361,1772032952.6399164,-1000.0,-126.953125,-1000.0,-1000.0,0.0,0,0
1772032952.696415,1772032952.643804,-1000.0,-104.98046875,-404.296875,-1000.0,0.0,0,0
1772032952.69647,1772032952.6476917,184.5703125,9.765625,665.52734375,192.87109375,0.0,0,0
1772032952.696532,1772032952.6515794,-766.11328125,63.96484375,887.6953125,-768.5546875,0.0,0,0
1772032952.696596,1772032952.655467,215.33203125,7.32421875,-241.69921875,217.28515625,0.0,0,0
1772032952.696656,1772032952.6593547,-1000.0,-76.171875,-1000.0,-1000.0,0.0,0,0
1772032952.6967092,1772032952.6632423,-1000.0,-125.48828125,-577.63671875,-1000.0,0.0,0,0
1772032952.696773,1772032952.66713,-36.62109375,-22.94921875,534.66796875,-37.59765625,0.0,0,0
1772032952.696848,1772032952.6710176,-790.0390625,58.10546875,918.45703125,-791.50390625,0.0,0,0
1772032952.739539,1772032952.675092,413.0859375,-18.5546875,-104.98046875,414.0625,0.0,0,0
1772032952.739668,1772032952.6789796,-906.73828125,-125.0,-1000.0,-906.73828125,0.0,0,0
1772032952.7397308,1772032952.6828673,-1000.0,-127.9296875,-670.41015625,-1000.0,0.0,0,0
1772032952.7397802,1772032952.6867552,-215.8203125,-20.01953125,406.25,-202.63671875,0.0,0,0
1772032952.7398221,1772032952.6906428,-877.9296875,61.03515625,942.3828125,-874.51171875,0.0,0,0
1772032952.739865,1772032952.6945305,661.1328125,7.8125,132.8125,660.15625,0.0,0,0
1772032952.739906,1772032952.6984181,-726.5625,-99.12109375,-921.38671875,-720.703125,0.0,0,0
1772032952.739948,1772032952.702306,-1000.0,-91.30859375,-818.84765625,-1000.0,0.0,0,0
1772032952.739987,1772032952.7061937,-201.66015625,-19.04296875,299.8046875,-202.63671875,0.0,0,0
1772032952.740034,1772032952.7100813,-951.171875,29.296875,988.76953125,-948.73046875,0.0,0,0
1772032952.740085,1772032952.713969,898.92578125,27.34375,354.00390625,892.08984375,0.0,0,0
1772032952.740135,1772032952.717857,-406.25,-82.03125,-778.80859375,-413.57421875,0.0,0,0
1772032952.798574,1772032952.7220469,-1000.0,-150.390625,-874.51171875,-1000.0,0.0,0,0
1772032952.7987251,1772032952.7259347,-174.8046875,-55.17578125,271.484375,-184.08203125,0.0,0,0
1772032952.798769,1772032952.7298224,-998.046875,43.45703125,-987.3046875,-1000.0,0.0,0,0
1772032952.798808,1772032952.7337103,-965.8203125,38.57421875,483.88671875,-964.35546875,0.0,0,0
1772032952.7988439,1772032952.737598,-96.19140625,-67.3828125,-649.90234375,-98.6328125,0.0,0,0
1772032952.7988842,1772032952.7414858,-1000.0,-151.3671875,-877.9296875,-1000.0,0.0,0,0
1772032952.7989209,1772032952.7453737,-335.9375,-4.8828125,224.609375,-326.66015625,0.0,0,0
1772032952.798957,1772032952.7492614,929.19921875,106.93359375,-988.28125,933.59375,0.0,0,0
1772032952.798998,1772032952.7531493,-909.66796875,27.83203125,584.47265625,-911.1328125,0.0,0,0
1772032952.7990458,1772032952.757037,93.26171875,-70.3125,-512.20703125,91.796875,0.0,0,0
1772032952.799087,1772032952.7609248,-1000.0,-148.4375,-979.4921875,-1000.0,0.0,0,0
1772032952.799117,1772032952.7648125,-539.55078125,-83.0078125,-28.3203125,-541.9921875,0.0,0,0
1772032952.84438,1772032952.7688463,827.63671875,31.73828125,979.4921875,821.2890625,0.0,0,0
1772032952.8445282,1772032952.772734,-863.28125,51.7578125,750.9765625,-862.3046875,0.0,0,0
1772032952.8445928,1772032952.7766218,188.4765625,-54.19921875,-377.44140625,187.01171875,0.0,0,0
1772032952.8446562,1772032952.7805097,-1000.0,-141.11328125,-988.28125,-1000.0,0.0,0,0
1772032952.844714,1772032952.7843976,-811.03515625,-82.51953125,-197.265625,-798.828125,0.0,0,0
1772032952.8447738,1772032952.7882853,552.24609375,39.0625,869.62890625,565.91796875,0.0,0,0
1772032952.844831,1772032952.7921731,-808.59375,69.82421875,765.625,-810.546875,0.0,0,0
1772032952.8449311,1772032952.796061,153.3203125,-38.0859375,-388.671875,155.76171875,0.0,0,0
1772032952.845021,1772032952.799949,-1000.0,-138.671875,-1000.0,-1000.0,0.0,0,0
1772032952.845082,1772032952.8038368,-1000.0,-87.40234375,-385.25390625,-1000.0,0.0,0,0
1772032952.84514,1772032952.8077245,210.44921875,88.37890625,704.58984375,232.421875,0.0,0,0
1772032952.8451982,1772032952.8116124,-768.06640625,102.5390625,855.95703125,-769.53125,0.0,0,0
1772032952.889288,1772032952.815772,206.54296875,-51.7578125,-286.62109375,201.171875,0.0,0,0
1772032952.889429,1772032952.81966,-1000.0,-133.30078125,-1000.0,-1000.0,0.0,0,0
1772032952.889471,1772032952.8235478,-1000.0,-108.3984375,-526.85546875,-1000.0,0.0,0,0
1772032952.8895118,1772032952.8274357,-27.34375,-10.25390625,556.640625,-17.578125,0.0,0,0
1772032952.889555,1772032952.8313236,-789.0625,49.8046875,911.62109375,-787.109375,0.0,0,0
1772032952.889598,1772032952.8352115,411.1328125,30.76171875,-104.4921875,406.25,0.0,0,0
1772032952.889639,1772032952.8390994,-907.71484375,-44.43359375,-1000.0,-910.15625,0.0,0,0
1772032952.88968,1772032952.8429873,-1000.0,-135.25390625,-725.5859375,-1000.0,0.0,0,0
1772032952.88972,1772032952.8468752,-208.984375,-45.8984375,370.60546875,-195.80078125,0.0,0,0
1772032952.88978,1772032952.850763,-870.60546875,65.4296875,961.42578125,-863.76953125,0.0,0,0
1772032952.889824,1772032952.854651,638.18359375,0.0,48.828125,622.55859375,0.0,0,0
1772032952.889863,1772032952.8585389,-750.0,-130.859375,-982.91015625,-760.7421875,0.0,0,0
1772032952.9334369,1772032952.8626702,-1000.0,-146.484375,-780.2734375,-1000.0,0.0,0,0
1772032952.9335759,1772032952.8665583,-203.125,-38.0859375,319.3359375,-205.078125,0.0,0,0
1772032952.933625,1772032952.8704462,-950.1953125,49.31640625,973.6328125,-945.3125,0.0,0,0
1772032952.9336698,1772032952.874334,895.5078125,6.8359375,274.90234375,880.37109375,0.0,0,0
1772032952.933723,1772032952.8782222,-411.62109375,-94.7265625,-827.1484375,-430.6640625,0.0,0,0
1772032952.933768,1772032952.88211,-1000.0,-128.41796875,-803.7109375,-1000.0,0.0,0,0
1772032952.9338188,1772032952.885998,-175.29296875,-27.83203125,339.84375,-181.15234375,0.0,0,0
1772032952.9338722,1772032952.8898861,-997.0703125,50.78125,991.2109375,-995.60546875,0.0,0,0
1772032952.933922,1772032952.893774,-967.28515625,18.06640625,378.41796875,-971.6796875,0.0,0,0
1772032952.933982,1772032952.897662,-104.00390625,-61.5234375,-708.0078125,-118.1640625,0.0,0,0
1772032952.934033,1772032952.90155,-1000.0,-131.34765625,-912.59765625,-1000.0,0.0,0,0
1772032952.934073,1772032952.905438,-327.63671875,-57.12890625,185.05859375,-315.91796875,0.0,0,0
1772032952.979508,1772032952.909549,933.10546875,45.41015625,-983.3984375,939.453125,0.0,0,0
1772032952.979669,1772032952.913437,-912.109375,36.62109375,573.73046875,-915.0390625,0.0,0,0
1772032952.9797351,1772032952.917325,86.42578125,-64.94140625,-530.76171875,73.2421875,0.0,0,0
1772032952.979796,1772032952.9212132,-1000.0,-148.4375,-958.49609375,-1000.0,0.0,0,0
1772032952.979852,1772032952.925101,-533.203125,-76.171875,-3.90625,-519.04296875,0.0,0,0
1772032952.979912,1772032952.9289892,830.56640625,49.8046875,979.00390625,838.37890625,0.0,0,0
1772032952.9799712,1772032952.9328773,-864.2578125,82.51953125,723.6328125,-866.69921875,0.0,0,0
1772032952.9800289,1772032952.9367652,190.91796875,-59.5703125,-396.97265625,185.05859375,0.0,0,0
1772032952.980088,1772032952.9406533,-1000.0,-79.58984375,-1000.0,-1000.0,0.0,0,0
1772032952.9801412,1772032952.9445412,-793.45703125,23.4375,-185.546875,-775.87890625,0.0,0,0
1772032952.980198,1772032952.9484293,574.70703125,40.52734375,901.85546875,594.23828125,0.0,0,0
1772032952.9803069,1772032952.9523175,-812.01171875,46.875,749.0234375,-814.453125,0.0,0,0
1772032953.023668,1772032952.9564116,154.296875,-43.45703125,-394.53125,157.2265625,0.0,0,0
1772032953.023805,1772032952.9602997,-1000.0,-125.48828125,-1000.0,-1000.0,0.0,0,0
1772032953.0238478,1772032952.9641879,-1000.0,-109.375,-354.98046875,-998.046875,0.0,0,0
1772032953.023891,1772032952.968076,221.6796875,8.30078125,727.5390625,246.58203125,0.0,0,0
1772032953.023935,1772032952.9719641,-769.53125,83.0078125,863.28125,-770.99609375,0.0,0,0
1772032953.023979,1772032952.9758523,204.58984375,-4.8828125,-248.046875,194.3359375,0.0,0,0
1772032953.02403,1772032952.9797401,-1000.0,-125.9765625,-1000.0,-1000.0,0.0,0,0
1772032953.024068,1772032952.9836283,-1000.0,-112.79296875,-567.3828125,-1000.0,0.0,0,0
1772032953.024121,1772032952.9875164,-10.25390625,66.89453125,561.5234375,0.9765625,0.0,0,0
1772032953.024172,1772032952.9914045,-785.15625,114.2578125,958.984375,-782.2265625,0.0,0,0
1772032953.024232,1772032952.9952927,392.578125,-12.6953125,-89.35546875,377.44140625,0.0,0,0
1772032953.024292,1772032952.9991808,-917.96875,-119.62890625,-1000.0,-925.78125,0.0,0,0
1772032953.098201,1772032953.0035403,-1000.0,-115.234375,-637.6953125,-1000.0,0.0,0,0
1772032953.098342,1772032953.0074286,-188.4765625,-14.6484375,445.3125,-177.734375,0.0,0,0
1772032953.098391,1772032953.0113168,-861.81640625,62.01171875,955.56640625,-854.4921875,0.0,0,0
1772032953.0984378,1772032953.015205,624.51171875,15.625,38.57421875,603.02734375,0.0,0,0
1772032953.098481,1772032953.0190933,-758.7890625,-96.6796875,-996.58203125,-776.85546875,0.0,0,0
1772032953.098526,1772032953.0229814,-1000.0,-123.046875,-705.078125,-1000.0,0.0,0,0
1772032953.0985658,1772032953.0268695,-205.56640625,-27.83203125,399.4140625,-208.49609375,0.0,0,0
1772032953.098609,1772032953.030758,-945.3125,95.21484375,931.640625,-938.96484375,0.0,0,0
1772032953.098651,1772032953.034646,877.9296875,64.94140625,140.13671875,859.375,0.0,0,0
1772032953.098691,1772032953.0385344,-438.4765625,-104.98046875,-881.34765625,-465.33203125,0.0,0,0
1772032953.098748,1772032953.0424225,-1000.0,-156.73828125,-860.83984375,-1000.0,0.0,0,0
1772032953.098806,1772032953.0463107,-176.26953125,-40.52734375,266.11328125,-178.22265625,0.0,0,0
1772032953.114115,1772032953.0503764,-995.60546875,50.78125,996.09375,-990.72265625,0.0,0,0
1772032953.114218,1772032953.0542645,-970.703125,23.92578125,425.29296875,-981.4453125,0.0,0,0
1772032953.1142678,1772032953.058153,-116.69921875,-75.68359375,-678.22265625,-145.5078125,0.0,0,0
1772032953.114313,1772032953.0620413,-1000.0,-125.48828125,-885.25390625,-1000.0,0.0,0,0
1772032953.1143548,1772032953.0659294,-329.1015625,-40.52734375,219.7265625,-313.4765625,0.0,0,0
1772032953.114403,1772032953.0698178,932.12890625,56.640625,-974.12109375,939.94140625,0.0,0,0
1772032953.1144462,1772032953.073706,-912.109375,56.640625,545.8984375,-916.9921875,0.0,0,0
1772032953.114489,1772032953.0775943,78.125,-65.4296875,-580.078125,61.03515625,0.0,0,0
1772032953.11453,1772032953.0814826,-1000.0,-148.4375,-962.40234375,-1000.0,0.0,0,0
1772032953.114569,1772032953.0853708,-522.94921875,-66.40625,0.0,-507.8125,0.0,0,0
1772032953.114609,1772032953.0892591,835.9375,45.41015625,997.55859375,844.23828125,0.0,0,0
1772032953.114651,1772032953.0931473,-866.2109375,43.9453125,628.41796875,-869.140625,0.0,0,0
1772032953.1608331,1772032953.097209,191.89453125,-57.6171875,-498.53515625,182.12890625,0.0,0,0
1772032953.16098,1772032953.1010973,-1000.0,-146.97265625,-961.42578125,-1000.0,0.0,0,0
1772032953.161027,1772032953.1049857,-791.015625,-49.8046875,-171.38671875,-771.97265625,0.0,0,0
1772032953.161073,1772032953.108874,578.125,87.890625,882.8125,598.14453125,0.0,0,0
1772032953.1611269,1772032953.1127625,-812.01171875,56.640625,767.578125,-815.4296875,0.0,0,0
1772032953.1613739,1772032953.1166506,153.3203125,-62.98828125,-377.9296875,156.25,0.0,0,0
1772032953.161421,1772032953.120539,-1000.0,-78.125,-1000.0,-1000.0,0.0,0,0
1772032953.161463,1772032953.1244273,-1000.0,-16.6015625,-437.5,-1000.0,0.0,0,0
1772032953.161519,1772032953.1283157,208.984375,0.9765625,701.171875,236.81640625,0.0,0,0
1772032953.161561,1772032953.1322038,-768.5546875,40.52734375,798.33984375,-770.99609375,0.0,0,0
1772032953.161603,1772032953.1360922,173.828125,-47.36328125,-387.6953125,175.29296875,0.0,0,0
1772032953.1616452,1772032953.1399806,-1000.0,-140.13671875,-1000.0,-1000.0,0.0,0,0
1772032953.219435,1772032953.144013,-1000.0,-124.51171875,-678.22265625,-1000.0,0.0,0,0
1772032953.219635,1772032953.1479013,-28.3203125,-22.4609375,455.078125,-17.578125,0.0,0,0
1772032953.219701,1772032953.1517897,-781.73828125,54.19921875,832.51953125,-780.2734375,0.0,0,0
1772032953.2197618,1772032953.155678,322.75390625,-31.25,-339.84375,281.73828125,0.0,0,0
1772032953.219827,1772032953.1595664,-950.68359375,-142.578125,-1000.0,-967.7734375,0.0,0,0
1772032953.2201118,1772032953.1634548,-1000.0,-125.9765625,-739.2578125,-1000.0,0.0,0,0
1772032953.220181,1772032953.1673431,-237.3046875,30.2734375,327.1484375,-224.609375,0.0,0,0
1772032953.2202282,1772032953.1712315,-847.16796875,79.58984375,879.8828125,-835.9375,0.0,0,0
1772032953.2202728,1772032953.1751196,521.97265625,-43.45703125,-147.94921875,440.91796875,0.0,0,0
1772032953.220324,1772032953.179008,-869.140625,-138.671875,-1000.0,-909.66796875,0.0,0,0
1772032953.2203672,1772032953.1828964,-1000.0,-143.06640625,-790.0390625,-1000.0,0.0,0,0
1772032953.220408,1772032953.1867847,-214.84375,-50.29296875,277.83203125,-223.14453125,0.0,0,0
1772032953.2645912,1772032953.1908026,-936.5234375,35.64453125,979.4921875,-927.24609375,0.0,0,0
1772032953.2647538,1772032953.194691,849.12109375,7.32421875,270.5078125,824.21875,0.0,0,0
1772032953.264822,1772032953.1985793,-482.91015625,-103.515625,-850.09765625,-516.6015625,0.0,0,0
1772032953.264883,1772032953.2024677,-1000.0,-149.4140625,-812.5,-1000.0,0.0,0,0
1772032953.26494,1772032953.206356,-177.24609375,-46.875,339.84375,-179.6875,0.0,0,0
1772032953.264999,1772032953.2102444,-995.1171875,67.87109375,-986.328125,-989.74609375,0.0,0,0
1772032953.265059,1772032953.2141328,-973.14453125,54.19921875,501.953125,-986.328125,0.0,0,0
1772032953.26513,1772032953.2180212,-130.37109375,-87.40234375,-651.3671875,-160.15625,0.0,0,0
1772032953.265204,1772032953.2219095,-1000.0,-172.36328125,-915.0390625,-1000.0,0.0,0,0
1772032953.265259,1772032953.225798,-310.05859375,-29.296875,207.03125,-297.36328125,0.0,0,0
1772032953.2653172,1772032953.2296863,940.4296875,85.9375,-968.26171875,946.2890625,0.0,0,0
1772032953.265375,1772032953.2335749,-916.50390625,37.109375,637.6953125,-920.41015625,0.0,0,0
1772032953.3090281,1772032953.23771,71.77734375,-57.6171875,-505.859375,55.17578125,0.0,0,0
1772032953.309129,1772032953.2415986,-1000.0,-128.90625,-962.890625,-1000.0,0.0,0,0
1772032953.309173,1772032953.245487,-509.27734375,-65.91796875,30.76171875,-492.67578125,0.0,0,0
1772032953.309217,1772032953.2493753,843.75,31.25,981.93359375,852.05078125,0.0,0,0
1772032953.309259,1772032953.253264,-868.65234375,52.24609375,697.75390625,-871.58203125,0.0,0,0
1772032953.309301,1772032953.2571523,192.87109375,-4.8828125,-354.98046875,184.08203125,0.0,0,0
1772032953.309344,1772032953.2610407,-1000.0,-107.91015625,-1000.0,-1000.0,0.0,0,0
1772032953.309382,1772032953.2649293,-790.52734375,-105.95703125,-335.44921875,-766.11328125,0.0,0,0
1772032953.309437,1772032953.2688177,579.1015625,17.08984375,879.39453125,605.95703125,0.0,0,0
1772032953.309489,1772032953.2727063,-812.01171875,80.56640625,664.0625,-816.40625,0.0,0,0
1772032953.309536,1772032953.2765946,152.34375,-49.8046875,-520.01953125,148.92578125,0.0,0,0
1772032953.309578,1772032953.280483,-1000.0,-155.2734375,-1000.0,-1000.0,0.0,0,0
1772032953.355497,1772032953.2846084,-1000.0,-126.953125,-597.65625,-1000.0,0.0,0,0
1772032953.355627,1772032953.288497,195.3125,-24.4140625,604.4921875,208.0078125,0.0,0,0
1772032953.355675,1772032953.2923853,-768.06640625,27.83203125,777.34375,-771.97265625,0.0,0,0
1772032953.355721,1772032953.296274,138.671875,-61.03515625,-433.10546875,132.32421875,0.0,0,0
1772032953.355766,1772032953.3001626,-1000.0,-139.16015625,-1000.0,-1000.0,0.0,0,0
1772032953.355808,1772032953.304051,-1000.0,-123.046875,-584.9609375,-1000.0,0.0,0,0
1772032953.355849,1772032953.3079395,-22.94921875,-19.53125,556.15234375,-10.7421875,0.0,0,0
1772032953.355892,1772032953.311828,-782.71484375,27.34375,903.3203125,-780.2734375,0.0,0,0
1772032953.3559659,1772032953.3157165,372.0703125,-3.41796875,-149.4140625,353.02734375,0.0,0,0
1772032953.356009,1772032953.319605,-931.15234375,-80.078125,-1000.0,-940.4296875,0.0,0,0
1772032953.3560781,1772032953.3234935,-1000.0,-139.16015625,-530.76171875,-1000.0,0.0,0,0
1772032953.356138,1772032953.327382,-176.26953125,-39.55078125,538.57421875,-165.0390625,0.0,0,0
1772032953.402326,1772032953.3314772,-855.95703125,52.734375,988.28125,-848.6328125,0.0,0,0
1772032953.402465,1772032953.3353658,616.2109375,-3.90625,174.8046875,594.23828125,0.0,0,0
1772032953.4025128,1772032953.3392544,-764.6484375,-117.1875,-967.7734375,-782.2265625,0.0,0,0
1772032953.402557,1772032953.343143,-1000.0,-125.0,-654.296875,-1000.0,0.0,0,0
1772032953.4025972,1772032953.3470316,-205.56640625,-17.578125,461.42578125,-208.49609375,0.0,0,0
1772032953.4026408,1772032953.35092,-945.80078125,73.73046875,994.62890625,-938.96484375,0.0,0,0
1772032953.402685,1772032953.3548086,880.37109375,25.390625,341.30859375,860.3515625,0.0,0,0
1772032953.402739,1772032953.3586972,-434.5703125,-88.8671875,-845.21484375,-463.37890625,0.0,0,0
1772032953.402781,1772032953.3625858,-1000.0,-68.359375,-765.625,-1000.0,0.0,0,0
1772032953.402839,1772032953.3664744,-176.26953125,5.859375,417.48046875,-178.22265625,0.0,0,0
1772032953.402893,1772032953.370363,-995.60546875,38.57421875,-996.58203125,-991.2109375,0.0,0,0
1772032953.4029481,1772032953.3742516,-967.28515625,35.64453125,559.5703125,-978.02734375,0.0,0,0
1772032953.444073,1772032953.37833,-119.62890625,-63.4765625,-617.67578125,-146.97265625,0.0,0,0
1772032953.444202,1772032953.3822186,-1000.0,-149.4140625,-839.35546875,-1000.0,0.0,0,0
1772032953.444246,1772032953.3861072,-254.8828125,-40.0390625,355.95703125,-242.67578125,0.0,0,0
1772032953.444291,1772032953.3899958,961.42578125,66.40625,-986.81640625,966.30859375,0.0,0,0
1772032953.4443352,1772032953.3938844,-922.36328125,47.8515625,701.171875,-925.29296875,0.0,0,0
1772032953.4443781,1772032953.397773,92.7734375,-34.1796875,-428.7109375,81.0546875,0.0,0,0
1772032953.444421,1772032953.4016616,-1000.0,-130.859375,-875.9765625,-1000.0,0.0,0,0
1772032953.444461,1772032953.4055502,-460.9375,23.4375,201.66015625,-443.84765625,0.0,0,0
1772032953.444503,1772032953.4094388,875.48828125,156.73828125,978.02734375,883.30078125,0.0,0,0
1772032953.444546,1772032953.4133275,-880.37109375,54.6875,801.7578125,-883.30078125,0.0,0,0
1772032953.444594,1772032953.4172163,205.078125,-50.78125,-279.78515625,199.21875,0.0,0,0
1772032953.4446359,1772032953.421105,-1000.0,-148.4375,-934.08203125,-1000.0,0.0,0,0
1772032953.4892108,1772032953.4251711,-692.87109375,-89.35546875,-9.27734375,-653.3203125,0.0,0,0
1772032953.489302,1772032953.4290597,700.1953125,28.3203125,924.31640625,738.28125,0.0,0,0
1772032953.489344,1772032953.4329484,-835.44921875,57.12890625,827.1484375,-842.7734375,0.0,0,0
1772032953.4893792,1772032953.4368372,169.43359375,-37.109375,-288.0859375,177.24609375,0.0,0,0
1772032953.489413,1772032953.4407258,-1000.0,-129.39453125,-999.0234375,-1000.0,0.0,0,0
1772032953.489446,1772032953.4446144,-923.33984375,-84.47265625,-160.15625,-860.3515625,0.0,0,0
1772032953.48948,1772032953.448503,377.44140625,36.62109375,843.75,460.9375,0.0,0,0
1772032953.489512,1772032953.4523919,-783.203125,125.48828125,848.6328125,-795.8984375,0.0,0,0
1772032953.4895492,1772032953.4562805,208.49609375,0.0,-254.8828125,213.8671875,0.0,0,0
1772032953.489581,1772032953.460169,-1000.0,-143.5546875,-1000.0,-1000.0,0.0,0,0
1772032953.48975,1772032953.4640577,-1000.0,-105.95703125,-341.30859375,-1000.0,0.0,0,0
1772032953.4897861,1772032953.4679465,67.3828125,-1.46484375,626.953125,113.76953125,0.0,0,0
1772032953.535748,1772032953.4719865,-776.85546875,72.265625,971.19140625,-776.85546875,0.0,0,0
1772032953.5358021,1772032953.4758751,390.625,-3.41796875,32.2265625,381.34765625,0.0,0,0
1772032953.535821,1772032953.479764,-919.921875,-111.81640625,-1000.0,-932.12890625,0.0,0,0
1772032953.535838,1772032953.4836526,-1000.0,-106.93359375,-524.4140625,-1000.0,0.0,0,0
1772032953.535854,1772032953.4875412,-107.91015625,-5.859375,550.29296875,-40.0390625,0.0,0,0
1772032953.535871,1772032953.49143,-845.21484375,71.77734375,998.046875,-833.984375,0.0,0,0
1772032953.535888,1772032953.4953187,622.0703125,54.6875,178.7109375,602.5390625,0.0,0,0
1772032953.5359051,1772032953.4992075,-744.140625,-54.6875,-970.21484375,-750.0,0.0,0,0
1772032953.5359218,1772032953.503096,-1000.0,-144.53125,-741.2109375,-1000.0,0.0,0,0
1772032953.535938,1772032953.506985,-204.1015625,-41.015625,387.20703125,-199.21875,0.0,0,0
1772032953.535955,1772032953.5108736,-948.2421875,62.5,988.28125,-941.89453125,0.0,0,0
1772032953.535972,1772032953.5147624,887.6953125,35.15625,346.6796875,875.0,0.0,0,0
1772032953.5932438,1772032953.5187888,-423.33984375,-83.49609375,-829.58984375,-441.89453125,0.0,0,0
1772032953.59329,1772032953.5226774,-1000.0,-127.44140625,-717.7734375,-1000.0,0.0,0,0
1772032953.593308,1772032953.5265663,-172.8515625,-19.04296875,451.66015625,-149.90234375,0.0,0,0
1772032953.593326,1772032953.5304549,995.60546875,65.91796875,-983.88671875,996.09375,0.0,0,0
1772032953.593343,1772032953.5343437,-937.5,45.41015625,759.27734375,-915.52734375,0.0,0,0
1772032953.59336,1772032953.5382326,-103.515625,-42.96875,-524.4140625,-165.0390625,0.0,0,0
1772032953.593376,1772032953.5421212,-1000.0,-7.8125,-692.3828125,-1000.0,0.0,0,0
1772032953.5933921,1772032953.54601,56.640625,52.24609375,575.68359375,415.0390625,0.0,0,0
1772032953.593409,1772032953.5498986,-957.51953125,53.7109375,-952.1484375,-969.23828125,0.0,0,0
1772032953.593426,1772032953.5537875,-968.26171875,63.4765625,640.625,-980.46875,0.0,0,0
1772032953.5934432,1772032953.5576763,106.93359375,-43.9453125,-516.6015625,112.3046875,0.0,0,0
1772032953.593461,1772032953.561565,-1000.0,-136.23046875,-1000.0,-1000.0,0.0,0,0
1772032953.638762,1772032953.56559,-489.2578125,-46.38671875,-204.58984375,-480.95703125,0.0,0,0
1772032953.638797,1772032953.5694788,857.91015625,62.01171875,965.33203125,863.28125,0.0,0,0
1772032953.638818,1772032953.5733676,-874.51171875,32.2265625,472.65625,-876.46484375,0.0,0,0
1772032953.638837,1772032953.5772564,188.96484375,-80.56640625,-633.7890625,171.875,0.0,0,0
1772032953.638857,1772032953.581145,-1000.0,-151.85546875,-1000.0,-1000.0,0.0,0,0
1772032953.638876,1772032953.585034,-765.13671875,-41.9921875,-303.22265625,-749.51171875,0.0,0,0
1772032953.6388962,1772032953.5889227,609.86328125,79.1015625,892.08984375,622.55859375,0.0,0,0
1772032953.6389172,1772032953.5928116,-817.3828125,52.734375,641.6015625,-820.3125,0.0,0,0
1772032953.638936,1772032953.5967002,155.76171875,-67.3828125,-535.15625,153.3203125,0.0,0,0
1772032953.638956,1772032953.600589,-1000.0,-150.390625,-1000.0,-1000.0,0.0,0,0
1772032953.638973,1772032953.604478,-1000.0,-119.140625,-546.875,-987.79296875,0.0,0,0
1772032953.639024,1772032953.6083665,238.28125,-26.85546875,636.23046875,270.5078125,0.0,0,0
1772032953.686023,1772032953.6124885,-770.99609375,49.8046875,791.50390625,-773.92578125,0.0,0,0
1772032953.686066,1772032953.6163774,138.671875,-38.57421875,-426.7578125,140.13671875,0.0,0,0
1772032953.686094,1772032953.6202662,-1000.0,-137.20703125,-1000.0,-1000.0,0.0,0,0
1772032953.6861582,1772032953.624155,-1000.0,-134.765625,-659.1796875,-1000.0,0.0,0,0
1772032953.686205,1772032953.628044,-6.34765625,-30.2734375,482.421875,9.765625,0.0,0,0
1772032953.686239,1772032953.6319327,-777.34375,80.078125,895.99609375,-775.390625,0.0,0,0
1772032953.6862679,1772032953.6358216,308.59375,-13.18359375,-251.953125,271.484375,0.0,0,0
1772032953.686301,1772032953.6397104,-960.44921875,-135.25390625,-1000.0,-974.609375,0.0,0,0
1772032953.6863291,1772032953.6435993,-1000.0,-107.91015625,-752.44140625,-1000.0,0.0,0,0
1772032953.686356,1772032953.647488,-184.5703125,35.64453125,349.12109375,-178.7109375,0.0,0,0
1772032953.6863842,1772032953.651377,-833.49609375,97.65625,892.578125,-828.125,0.0,0,0
1772032953.686411,1772032953.6552658,517.578125,-6.8359375,-123.046875,495.60546875,0.0,0,0
1772032953.728101,1772032953.659371,-863.28125,-104.98046875,-1000.0,-874.51171875,0.0,0,0
1772032953.7281978,1772032953.6632597,-1000.0,-115.72265625,-782.2265625,-1000.0,0.0,0,0
1772032953.728228,1772032953.6671486,-220.703125,-23.4375,296.38671875,-222.65625,0.0,0,0
1772032953.7282581,1772032953.6710377,-919.43359375,51.7578125,940.91796875,-916.015625,0.0,0,0
1772032953.728286,1772032953.6749265,791.50390625,6.8359375,124.0234375,782.2265625,0.0,0,0
1772032953.7283158,1772032953.6788154,-567.3828125,-79.1015625,-899.90234375,-577.1484375,0.0,0,0
1772032953.728344,1772032953.6827042,-1000.0,-113.28125,-845.21484375,-1000.0,0.0,0,0
1772032953.728369,1772032953.686593,-184.08203125,-45.41015625,257.8125,-185.546875,0.0,0,0
1772032953.728396,1772032953.6904821,-983.88671875,72.75390625,990.72265625,-979.00390625,0.0,0,0
1772032953.7284238,1772032953.694371,996.58203125,68.359375,334.47265625,983.88671875,0.0,0,0
1772032953.728451,1772032953.6982598,-213.8671875,-90.33203125,-750.48828125,-234.375,0.0,0,0
1772032953.728479,1772032953.7021487,-1000.0,-154.296875,-921.875,-1000.0,0.0,0,0
1772032953.774637,1772032953.7062416,-287.59765625,-45.41015625,170.41015625,-281.73828125,0.0,0,0
1772032953.774784,1772032953.7101305,950.68359375,44.921875,991.69921875,953.125,0.0,0,0
1772032953.7748501,1772032953.7140195,-922.36328125,16.11328125,488.28125,-923.828125,0.0,0,0
1772032953.774915,1772032953.7179084,-13.671875,-75.68359375,-593.75,-17.08984375,0.0,0,0
1772032953.7749739,1772032953.7217972,-1000.0,-140.13671875,-919.921875,-1000.0,0.0,0,0
1772032953.775029,1772032953.7256863,-390.625,-57.6171875,97.65625,-386.71875,0.0,0,0
1772032953.7750862,1772032953.7295752,843.26171875,26.85546875,990.72265625,846.19140625,0.0,0,0
1772032953.7751439,1772032953.7334642,-873.53515625,26.85546875,633.7890625,-875.0,0.0,0,0
1772032953.7752,1772032953.737353,187.01171875,-27.34375,-458.0078125,170.41015625,0.0,0,0
1772032953.775257,1772032953.7412422,-1000.0,-134.765625,-992.1875,-1000.0,0.0,0,0
1772032953.77531,1772032953.745131,-738.76953125,-107.421875,-197.265625,-724.12109375,0.0,0,0
1772032953.775367,1772032953.74902,641.11328125,23.92578125,898.92578125,650.390625,0.0,0,0
1772032953.8197372,1772032953.7530873,-824.21875,48.828125,752.9296875,-825.1953125,0.0,0,0
1772032953.8198779,1772032953.7569761,164.0625,-57.12890625,-388.18359375,164.55078125,0.0,0,0
1772032953.819944,1772032953.7608652,-1000.0,-144.53125,-1000.0,-1000.0,0.0,0,0
1772032953.820003,1772032953.7647543,-958.0078125,-93.26171875,-294.921875,-956.54296875,0.0,0,0
1772032953.8200681,1772032953.7686431,329.1015625,12.20703125,791.50390625,323.73046875,0.0,0,0
1772032953.820128,1772032953.7725322,-778.80859375,56.640625,879.39453125,-778.80859375,0.0,0,0
1772032953.8201861,1772032953.7764213,144.04296875,-44.43359375,-259.27734375,162.59765625,0.0,0,0
1772032953.820245,1772032953.7803102,-1000.0,-111.328125,-1000.0,-1000.0,0.0,0,0
1772032953.820296,1772032953.7841992,-1000.0,-85.9375,-543.9453125,-1000.0,0.0,0,0
1772032953.82035,1772032953.7880883,33.203125,-34.66796875,547.8515625,40.0390625,0.0,0,0
1772032953.820406,1772032953.7919772,-773.92578125,39.0625,921.38671875,-774.4140625,0.0,0,0
1772032953.820481,1772032953.7958663,326.66015625,-29.78515625,-141.11328125,326.171875,0.0,0,0
1772032953.8638332,1772032953.7999232,-950.68359375,-125.48828125,-1000.0,-950.1953125,0.0,0,0
1772032953.863946,1772032953.8038123,-1000.0,-122.55859375,-615.234375,-1000.0,0.0,0,0
1772032953.8639941,1772032953.8077013,-156.25,-23.4375,472.65625,-151.85546875,0.0,0,0
1772032953.864182,1772032953.8115904,-828.125,58.10546875,946.77734375,-831.54296875,0.0,0,0
1772032953.864228,1772032953.8154795,519.53125,-7.8125,20.99609375,529.296875,0.0,0,0
1772032953.86427,1772032953.8193684,-857.421875,-109.86328125,-989.74609375,-840.8203125,0.0,0,0
1772032953.8643131,1772032953.8232574,-1000.0,-104.4921875,-729.98046875,-1000.0,0.0,0,0
1772032953.864353,1772032953.8271465,-219.7265625,48.33984375,338.8671875,-218.75,0.0,0,0
1772032953.864395,1772032953.8310356,-921.38671875,94.7265625,949.70703125,-920.41015625,0.0,0,0
1772032953.864437,1772032953.8349247,797.36328125,-7.8125,217.7734375,797.36328125,0.0,0,0
1772032953.864479,1772032953.8388138,-559.08203125,-98.14453125,-865.234375,-555.17578125,0.0,0,0
1772032953.864522,1772032953.8427026,-1000.0,-130.37109375,-841.30859375,-1000.0,0.0,0,0
1772032953.9096131,1772032953.8467436,-181.640625,-45.8984375,289.0625,-183.59375,0.0,0,0
1772032953.909757,1772032953.8506327,-988.28125,40.52734375,-998.53515625,-982.421875,0.0,0,0
1772032953.909823,1772032953.8545218,-990.234375,40.0390625,450.68359375,995.60546875,0.0,0,0
1772032953.9098828,1772032953.8584108,-189.453125,-62.98828125,-677.24609375,-210.44921875,0.0,0,0
1772032953.909942,1772032953.8623,-1000.0,-138.18359375,-924.31640625,-1000.0,0.0,0,0
1772032953.909997,1772032953.866189,-250.48828125,-61.03515625,217.7734375,-255.859375,0.0,0,0
1772032953.910055,1772032953.870078,968.26171875,116.2109375,-973.14453125,965.8203125,0.0,0,0
1772032953.910114,1772032953.8739672,-934.5703125,133.30078125,485.83984375,-933.59375,0.0,0,0
1772032953.910173,1772032953.8778563,14.6484375,-85.9375,-620.60546875,14.6484375,0.0,0,0
1772032953.9102468,1772032953.8817453,-1000.0,-155.2734375,-889.16015625,-1000.0,0.0,0,0
1772032953.91033,1772032953.8856344,-469.7265625,-57.12890625,105.95703125,-468.75,0.0,0,0
1772032953.9103858,1772032953.8895235,859.86328125,24.4140625,978.515625,862.3046875,0.0,0,0
1772032953.969619,1772032953.8935533,-876.46484375,22.4609375,680.6640625,-876.953125,0.0,0,0
1772032953.969768,1772032953.8974423,189.94140625,-62.01171875,-417.48046875,172.36328125,0.0,0,0
1772032953.969831,1772032953.9013314,-1000.0,-135.7421875,-968.75,-1000.0,0.0,0,0
1772032953.969887,1772032953.9052205,-706.0546875,-81.0546875,-135.25390625,-706.54296875,0.0,0,0
1772032953.9699478,1772032953.9091096,681.640625,15.625,903.80859375,672.8515625,0.0,0,0
1772032953.9700081,1772032953.912999,-831.0546875,48.33984375,835.44921875,-829.58984375,0.0,0,0
1772032953.970073,1772032953.916888,166.50390625,20.5078125,-334.47265625,166.50390625,0.0,0,0
1772032953.970131,1772032953.920777,-1000.0,-89.35546875,-979.4921875,-1000.0,0.0,0,0
1772032953.9702022,1772032953.9246662,-944.82421875,-117.67578125,-286.62109375,-946.2890625,0.0,0,0
1772032953.970263,1772032953.9285553,352.05078125,0.48828125,736.328125,341.796875,0.0,0,0
1772032953.970321,1772032953.9324443,-781.25,59.08203125,871.58203125,-780.76171875,0.0,0,0
1772032953.970387,1772032953.9363334,144.04296875,-43.9453125,-270.5078125,162.59765625,0.0,0,0
1772032954.014775,1772032953.9403613,-1000.0,-128.41796875,-1000.0,-1000.0,0.0,0,0
1772032954.014923,1772032953.9442503,-1000.0,-101.07421875,-503.41796875,-1000.0,0.0,0,0
1772032954.015008,1772032953.9481394,57.6171875,-6.8359375,560.546875,57.12890625,0.0,0,0
1772032954.015069,1772032953.9520288,-771.484375,54.6875,916.015625,-772.94921875,0.0,0,0
1772032954.01514,1772032953.9559178,327.1484375,-30.2734375,-142.578125,327.63671875,0.0,0,0
1772032954.0152051,1772032953.959807,-950.68359375,-85.9375,-1000.0,-949.70703125,0.0,0,0
1772032954.01527,1772032953.9636962,-1000.0,-70.3125,-593.75,-1000.0,0.0,0,0
1772032954.01533,1772032953.9675853,-132.32421875,-24.90234375,474.12109375,-134.27734375,0.0,0,0
1772032954.0153952,1772032953.9714744,-822.265625,40.0390625,936.03515625,-828.125,0.0,0,0
1772032954.0154529,1772032953.9753635,516.11328125,-8.7890625,-4.39453125,531.73828125,0.0,0,0
1772032954.0155468,1772032953.9792528,-855.95703125,-102.5390625,-1000.0,-834.9609375,0.0,0,0
1772032954.015604,1772032953.983142,-1000.0,-121.58203125,-697.75390625,-1000.0,0.0,0,0
1772032954.059773,1772032953.9872668,-219.7265625,-29.78515625,377.9296875,-218.26171875,0.0,0,0
1772032954.0599282,1772032953.9911559,-921.875,50.78125,966.796875,-921.38671875,0.0,0,0
1772032954.059969,1772032953.9950452,798.828125,2.44140625,230.46875,799.8046875,0.0,0,0
1772032954.060003,1772032953.9989345,-557.12890625,-97.16796875,-870.1171875,-551.7578125,0.0,0,0
1772032954.060338,1772032954.0028236,-1000.0,-122.55859375,-828.61328125,-1000.0,0.0,0,0
1772032954.060456,1772032954.006713,-183.10546875,-14.6484375,323.2421875,-184.08203125,0.0,0,0
1772032954.0605361,1772032954.010602,-984.86328125,64.453125,970.703125,-981.93359375,0.0,0,0
1772032954.060576,1772032954.0144913,-997.0703125,8.30078125,340.33203125,994.62890625,0.0,0,0
1772032954.0606341,1772032954.0183804,-207.03125,-79.58984375,-721.6796875,-213.8671875,0.0,0,0
1772032954.06071,1772032954.0222697,-1000.0,-79.58984375,-878.90625,-1000.0,0.0,0,0
1772032954.060767,1772032954.0261588,-246.09375,-17.08984375,232.421875,-243.65234375,0.0,0,0
1772032954.0608351,1772032954.0300481,969.23828125,36.62109375,-992.1875,970.21484375,0.0,0,0
1772032954.106524,1772032954.034161,-935.05859375,38.57421875,551.7578125,-935.546875,0.0,0,0
1772032954.106695,1772032954.0380504,10.7421875,-50.29296875,-550.29296875,11.71875,0.0,0,0
1772032954.106768,1772032954.0419397,-1000.0,-129.8828125,-940.91796875,-1000.0,0.0,0,0
1772032954.106828,1772032954.0458288,-446.77734375,-62.5,64.453125,-446.77734375,0.0,0,0
1772032954.1068869,1772032954.0497181,874.0234375,46.875,984.375,875.0,0.0,0,0
1772032954.106943,1772032954.0536075,-881.34765625,69.82421875,730.46875,-881.8359375,0.0,0,0
1772032954.107002,1772032954.0574968,185.05859375,-15.625,-371.09375,171.38671875,0.0,0,0
1772032954.107071,1772032954.061386,-1000.0,-131.34765625,-980.46875,-1000.0,0.0,0,0
1772032954.1071281,1772032954.0652752,-692.3828125,9.27734375,-211.9140625,-688.4765625,0.0,0,0
1772032954.107187,1772032954.0691645,695.80078125,148.92578125,863.76953125,693.359375,0.0,0,0
1772032954.107244,1772032954.0730538,-833.984375,47.8515625,798.828125,-833.49609375,0.0,0,0
1772032954.1073,1772032954.0769432,168.9453125,-53.7109375,-340.8203125,169.43359375,0.0,0,0
1772032954.15009,1772032954.0810444,-1000.0,-136.23046875,-996.58203125,-1000.0,0.0,0,0
1772032954.15023,1772032954.0849338,-930.17578125,-101.5625,-296.875,-927.24609375,0.0,0,0
1772032954.1502779,1772032954.088823,375.48828125,-2.44140625,767.08984375,375.0,0.0,0,0
1772032954.150322,1772032954.0927124,-783.69140625,49.31640625,870.1171875,-783.69140625,0.0,0,0
1772032954.1503649,1772032954.0966017,141.6015625,-34.66796875,-276.85546875,155.76171875,0.0,0,0
1772032954.150408,1772032954.100491,-1000.0,-113.76953125,-992.1875,-1000.0,0.0,0,0
1772032954.15045,1772032954.1043804,-1000.0,-109.375,-481.4453125,-1000.0,0.0,0,0
1772032954.150489,1772032954.1082697,62.01171875,-6.34765625,542.48046875,68.359375,0.0,0,0
1772032954.150532,1772032954.112159,-770.5078125,157.71484375,907.71484375,-770.99609375,0.0,0,0
1772032954.1505752,1772032954.1160483,321.2890625,40.52734375,-160.15625,322.265625,0.0,0,0
1772032954.150615,1772032954.1199377,-953.61328125,-133.30078125,-1000.0,-952.63671875,0.0,0,0
1772032954.150656,1772032954.123827,-1000.0,-116.69921875,-617.67578125,-1000.0,0.0,0,0
1772032954.2090318,1772032954.1280308,-129.39453125,-23.4375,437.01171875,-122.55859375,0.0,0,0
1772032954.2092102,1772032954.1319203,-820.80078125,39.55078125,949.70703125,-822.75390625,0.0,0,0
1772032954.209257,1772032954.1358097,508.7890625,-26.85546875,1.46484375,516.6015625,0.0,0,0
1772032954.2093,1772032954.139699,-859.86328125,-124.0234375,-1000.0,-847.16796875,0.0,0,0
1772032954.209342,1772032954.1435885,-1000.0,-125.0,-704.58984375,-1000.0,0.0,0,0
1772032954.209381,1772032954.1474779,-221.6796875,-20.5078125,387.6953125,-216.796875,0.0,0,0
1772032954.209423,1772032954.1513672,-916.015625,49.31640625,981.4453125,-913.0859375,0.0,0,0
1772032954.209465,1772032954.1552567,779.78515625,83.49609375,163.57421875,773.4375,0.0,0,0
1772032954.209686,1772032954.159146,-582.51953125,-0.48828125,-931.15234375,-585.9375,0.0,0,0
1772032954.209733,1772032954.1630356,-1000.0,-148.92578125,-800.78125,-1000.0,0.0,0,0
1772032954.2097762,1772032954.166925,-185.05859375,-51.26953125,313.96484375,-187.5,0.0,0,0
1772032954.2098181,1772032954.1708143,-981.93359375,46.875,983.3984375,-975.5859375,0.0,0,0
1772032954.241069,1772032954.17488,991.69921875,20.01953125,438.96484375,975.5859375,0.0,0,0
1772032954.24118,1772032954.1787696,-228.515625,-90.33203125,-685.546875,-254.8828125,0.0,0,0
1772032954.2412171,1772032954.182659,-1000.0,-149.4140625,-892.578125,-1000.0,0.0,0,0
1772032954.2412531,1772032954.1865485,-243.1640625,-53.22265625,236.328125,-239.74609375,0.0,0,0
1772032954.241288,1772032954.1904378,970.703125,27.34375,998.046875,972.16796875,0.0,0,0
1772032954.241322,1772032954.1943274,-937.01171875,37.109375,625.9765625,-938.96484375,0.0,0,0
1772032954.2413561,1772032954.1982167,1.953125,-49.8046875,-481.4453125,-6.8359375,0.0,0,0
1772032954.241389,1772032954.2021062,-1000.0,-147.4609375,-973.14453125,-1000.0,0.0,0,0
1772032954.24142,1772032954.2059956,-439.453125,-69.82421875,49.31640625,-431.15234375,0.0,0,0
1772032954.241457,1772032954.2098851,877.44140625,30.76171875,-999.0234375,882.32421875,0.0,0,0
1772032954.24149,1772032954.2137744,-883.30078125,49.8046875,666.015625,-885.25390625,0.0,0,0
1772032954.2415218,1772032954.217664,180.17578125,-19.53125,-460.44921875,166.015625,0.0,0,0
1772032954.2845492,1772032954.2217019,-1000.0,-122.55859375,-934.5703125,-1000.0,0.0,0,0
1772032954.284719,1772032954.2255914,-677.734375,-75.68359375,-52.24609375,-665.0390625,0.0,0,0
1772032954.284792,1772032954.2294807,710.44921875,24.90234375,903.80859375,717.7734375,0.0,0,0
1772032954.284852,1772032954.2333703,-836.9140625,53.22265625,804.6875,-838.37890625,0.0,0,0
1772032954.28491,1772032954.2372599,169.921875,-41.50390625,-308.10546875,171.875,0.0,0,0
1772032954.284968,1772032954.2411492,-1000.0,-142.08984375,-958.984375,-1000.0,0.0,0,0
1772032954.285023,1772032954.2450387,-926.26953125,-32.71484375,-259.765625,-915.52734375,0.0,0,0
1772032954.2850811,1772032954.2489283,382.32421875,84.9609375,763.671875,393.06640625,0.0,0,0
1772032954.2851388,1772032954.2528176,-784.66796875,27.34375,800.29296875,-786.62109375,0.0,0,0
1772032954.285198,1772032954.2567072,142.578125,-72.75390625,-345.703125,155.76171875,0.0,0,0
1772032954.285256,1772032954.2605968,-1000.0,-138.18359375,-1000.0,-1000.0,0.0,0,0
1772032954.285311,1772032954.264486,-1000.0,-112.79296875,-470.21484375,-1000.0,0.0,0,0
1772032954.344478,1772032954.268638,75.1953125,-16.6015625,612.3046875,98.14453125,0.0,0,0
1772032954.3445919,1772032954.2725272,-769.53125,41.015625,888.18359375,-769.53125,0.0,0,0
1772032954.344651,1772032954.2764168,309.08203125,-36.62109375,-203.125,299.8046875,0.0,0,0
1772032954.3447099,1772032954.2803063,-959.9609375,-118.1640625,-1000.0,-963.37890625,0.0,0,0
1772032954.344767,1772032954.284196,-1000.0,-122.0703125,-608.3984375,-1000.0,0.0,0,0
1772032954.3448231,1772032954.2880855,-113.76953125,-21.97265625,450.68359375,-100.09765625,0.0,0,0
1772032954.344884,1772032954.291975,-815.91796875,152.34375,947.75390625,-811.03515625,0.0,0,0
1772032954.3449411,1772032954.2958646,494.140625,46.875,-65.4296875,481.4453125,0.0,0,0
1772032954.3449972,1772032954.2997541,-866.69921875,-137.20703125,-1000.0,-873.046875,0.0,0,0
1772032954.345054,1772032954.3036437,-1000.0,-114.2578125,-678.22265625,-1000.0,0.0,0,0
1772032954.345108,1772032954.3075333,-223.6328125,-18.06640625,370.60546875,-220.703125,0.0,0,0
1772032954.345165,1772032954.3114228,-914.0625,49.31640625,960.44921875,-908.203125,0.0,0,0
1772032954.389656,1772032954.3154457,772.4609375,2.44140625,166.015625,757.8125,0.0,0,0
1772032954.3897989,1772032954.3193355,-591.796875,-94.7265625,-913.57421875,-607.91015625,0.0,0,0
1772032954.3898659,1772032954.323225,-1000.0,-125.9765625,-809.5703125,-1000.0,0.0,0,0
1772032954.389926,1772032954.3271146,-185.546875,-37.109375,311.5234375,-187.98828125,0.0,0,0
1772032954.389985,1772032954.3310041,-981.93359375,35.64453125,961.42578125,-975.5859375,0.0,0,0
1772032954.390046,1772032954.3348937,992.1875,42.96875,416.50390625,974.609375,0.0,0,0
1772032954.390104,1772032954.3387833,-230.46875,-38.0859375,-660.64453125,-258.30078125,0.0,0,0
1772032954.390163,1772032954.3426728,-1000.0,-134.27734375,-973.14453125,-1000.0,0.0,0,0
1772032954.390229,1772032954.3465624,-231.4453125,-70.80078125,150.87890625,-226.07421875,0.0,0,0
1772032954.3902872,1772032954.350452,975.09765625,75.1953125,-977.5390625,979.4921875,0.0,0,0
1772032954.390363,1772032954.3543415,-939.94140625,84.9609375,528.80859375,-942.87109375,0.0,0,0
1772032954.390441,1772032954.3582313,-3.41796875,-69.82421875,-569.3359375,-17.08984375,0.0,0,0
1772032954.449075,1772032954.3624806,-1000.0,-144.53125,-958.984375,-1000.0,0.0,0,0
1772032954.449245,1772032954.3663704,-430.17578125,-58.59375,62.5,-415.0390625,0.0,0,0
1772032954.449312,1772032954.37026,882.8125,41.015625,-995.60546875,891.11328125,0.0,0,0
1772032954.449364,1772032954.3741498,-885.7421875,34.1796875,654.78515625,-889.16015625,0.0,0,0
1772032954.449408,1772032954.3780394,171.38671875,-54.6875,-446.77734375,155.76171875,0.0,0,0
1772032954.449454,1772032954.3819292,-1000.0,-104.4921875,-968.26171875,-1000.0,0.0,0,0
1772032954.4494941,1772032954.3858187,-671.38671875,-62.98828125,-130.37109375,-653.80859375,0.0,0,0
1772032954.449538,1772032954.3897085,715.33203125,1.46484375,907.2265625,727.05078125,0.0,0,0
1772032954.4495978,1772032954.393598,-837.890625,39.0625,766.6015625,-840.33203125,0.0,0,0
1772032954.4496498,1772032954.3974876,171.38671875,2.44140625,-357.421875,174.8046875,0.0,0,0
1772032954.449717,1772032954.4013774,-1000.0,-116.2109375,-980.46875,-1000.0,0.0,0,0
1772032954.4497652,1772032954.405267,-916.50390625,-109.375,-283.69140625,-897.94921875,0.0,0,0
1772032954.4797351,1772032954.4093652,396.97265625,20.5078125,782.2265625,423.33984375,0.0,0,0
1772032954.479869,1772032954.413255,-786.62109375,55.17578125,809.08203125,-789.55078125,0.0,0,0
1772032954.4799318,1772032954.4171445,143.5546875,-54.6875,-338.37890625,146.97265625,0.0,0,0
1772032954.479991,1772032954.4210343,-1000.0,-132.8125,-1000.0,-1000.0,0.0,0,0
1772032954.480045,1772032954.4249241,-1000.0,-109.375,-492.67578125,-1000.0,0.0,0,0
1772032954.480099,1772032954.4288137,87.890625,-5.859375,592.28515625,112.3046875,0.0,0,0
1772032954.480159,1772032954.4327035,-768.06640625,56.15234375,896.484375,-768.06640625,0.0,0,0
1772032954.480216,1772032954.4365933,291.015625,-46.38671875,-214.84375,276.3671875,0.0,0,0
1772032954.480274,1772032954.4404829,-967.28515625,-147.94921875,-1000.0,-973.6328125,0.0,0,0
1772032954.480329,1772032954.4443727,-1000.0,-137.6953125,-622.0703125,-1000.0,0.0,0,0
1772032954.480383,1772032954.4482625,-111.81640625,-33.203125,465.8203125,-97.16796875,0.0,0,0
1772032954.4804401,1772032954.4521523,-814.94140625,43.45703125,922.8515625,-809.5703125,0.0,0,0
1772032954.5259001,1772032954.4562347,494.140625,14.16015625,-68.84765625,478.02734375,0.0,0,0
1772032954.526048,1772032954.4601245,-866.2109375,-83.0078125,-1000.0,-875.0,0.0,0,0
1772032954.526168,1772032954.4640143,-1000.0,-132.8125,-698.2421875,-1000.0,0.0,0,0
1772032954.526251,1772032954.467904,-223.6328125,-13.671875,367.67578125,-217.28515625,0.0,0,0
1772032954.526314,1772032954.471794,-913.0859375,70.80078125,936.03515625,-903.80859375,0.0,0,0
1772032954.526377,1772032954.4756837,768.5546875,22.94921875,198.2421875,745.1171875,0.0,0,0
1772032954.526436,1772032954.4795735,-597.65625,-91.30859375,-874.0234375,-623.046875,0.0,0,0
1772032954.5265028,1772032954.483463,-1000.0,-120.60546875,-836.42578125,-1000.0,0.0,0,0
1772032954.526571,1772032954.4873528,-186.5234375,69.3359375,291.50390625,-189.94140625,0.0,0,0
1772032954.5266292,1772032954.4912426,-979.4921875,117.67578125,992.1875,-972.65625,0.0,0,0
1772032954.526686,1772032954.4951324,984.86328125,29.78515625,409.66796875,965.33203125,0.0,0,0
1772032954.526743,1772032954.4990222,-244.140625,-46.38671875,-707.51953125,-277.34375,0.0,0,0
1772032954.584623,1772032954.503219,-1000.0,-113.28125,-911.62109375,-1000.0,0.0,0,0
1772032954.584757,1772032954.5071087,-229.00390625,-45.8984375,211.42578125,-222.65625,0.0,0,0
1772032954.5848188,1772032954.5109985,977.05078125,49.31640625,-986.328125,981.93359375,0.0,0,0
1772032954.58488,1772032954.5148883,-941.89453125,52.24609375,546.875,-946.2890625,0.0,0,0
1772032954.584938,1772032954.518778,-14.6484375,-51.7578125,-572.75390625,-33.69140625,0.0,0,0
1772032954.584996,1772032954.5226681,-1000.0,-119.140625,-907.71484375,-1000.0,0.0,0,0
1772032954.5850508,1772032954.526558,-418.9453125,-47.8515625,131.8359375,-404.296875,0.0,0,0
1772032954.58511,1772032954.5304477,888.18359375,114.74609375,997.0703125,895.01953125,0.0,0,0
1772032954.585168,1772032954.5343375,-888.18359375,139.6484375,545.8984375,-891.6015625,0.0,0,0
1772032954.585226,1772032954.5382276,166.50390625,-63.4765625,-541.9921875,150.390625,0.0,0,0
1772032954.5852852,1772032954.5421174,-1000.0,-146.484375,-953.61328125,-1000.0,0.0,0,0
1772032954.5853388,1772032954.5460072,-655.76171875,-64.94140625,-86.9140625,-634.765625,0.0,0,0
1772032954.615068,1772032954.5500684,730.95703125,36.62109375,932.6171875,746.58203125,0.0,0,0
1772032954.6151822,1772032954.5539582,-840.8203125,49.31640625,733.3984375,-844.23828125,0.0,0,0
1772032954.615243,1772032954.5578482,171.875,-45.8984375,-388.18359375,175.78125,0.0,0,0
1772032954.6153011,1772032954.561738,-1000.0,-121.58203125,-990.72265625,-1000.0,0.0,0,0
1772032954.615357,1772032954.5656278,-916.015625,-88.8671875,-325.68359375,-895.01953125,0.0,0,0
1772032954.615416,1772032954.5695179,397.94921875,19.53125,772.94921875,428.22265625,0.0,0,0
1772032954.615474,1772032954.5734076,-786.62109375,59.5703125,778.80859375,-790.52734375,0.0,0,0
1772032954.615533,1772032954.5772974,143.06640625,-48.33984375,-387.6953125,145.5078125,0.0,0,0
1772032954.615592,1772032954.5811875,-1000.0,-124.51171875,-1000.0,-1000.0,0.0,0,0
1772032954.615647,1772032954.5850773,-1000.0,-102.05078125,-428.22265625,-1000.0,0.0,0,0
1772032954.615702,1772032954.5889673,83.984375,18.06640625,639.16015625,107.421875,0.0,0,0
1772032954.6157691,1772032954.5928571,-768.06640625,141.6015625,892.578125,-768.5546875,0.0,0,0
1772032954.6613288,1772032954.5968895,286.62109375,4.39453125,-189.453125,269.53125,0.0,0,0
1772032954.661451,1772032954.6007795,-970.21484375,-135.7421875,-1000.0,-977.5390625,0.0,0,0
1772032954.661514,1772032954.6046696,-1000.0,-102.05078125,-580.56640625,-1000.0,0.0,0,0
1772032954.6615732,1772032954.6085594,-105.95703125,-12.20703125,493.65234375,-91.796875,0.0,0,0
1772032954.661632,1772032954.6124494,-813.4765625,51.26953125,940.91796875,-808.10546875,0.0,0,0
1772032954.661691,1772032954.6163392,495.1171875,-28.80859375,24.90234375,475.5859375,0.0,0,0
1772032954.66175,1772032954.6202292,-864.74609375,-24.90234375,-975.5859375,-875.48828125,0.0,0,0
1772032954.661808,1772032954.624119,-1000.0,-3.41796875,-797.8515625,-1000.0,0.0,0,0
1772032954.6618712,1772032954.628009,-224.609375,-51.26953125,284.66796875,-216.796875,0.0,0,0
1772032954.661958,1772032954.6318989,-910.15625,28.3203125,993.65234375,-900.87890625,0.0,0,0
1772032954.6620328,1772032954.635789,758.7890625,3.90625,231.4453125,734.86328125,0.0,0,0
1772032954.662109,1772032954.6396787,-609.86328125,-122.55859375,-906.73828125,-635.7421875,0.0,0,0
1772032954.718817,1772032954.6436963,-1000.0,-151.85546875,-748.53515625,-1000.0,0.0,0,0
1772032954.718946,1772032954.6475863,-187.5,-38.0859375,372.0703125,-190.4296875,0.0,0,0
1772032954.719004,1772032954.6514764,-977.5390625,54.6875,983.3984375,-971.19140625,0.0,0,0
1772032954.719062,1772032954.6553662,979.4921875,42.48046875,395.01953125,961.42578125,0.0,0,0
1772032954.719121,1772032954.6592562,-255.859375,-89.84375,-758.7890625,-286.62109375,0.0,0,0
1772032954.7191832,1772032954.6631463,-1000.0,-149.4140625,-779.296875,-1000.0,0.0,0,0
1772032954.719237,1772032954.667036,-217.7734375,41.9921875,360.83984375,-216.30859375,0.0,0,0
1772032954.719295,1772032954.670926,979.4921875,87.40234375,-992.67578125,982.421875,0.0,0,0
1772032954.7193532,1772032954.6748161,-942.3828125,-11.23046875,565.91796875,-945.3125,0.0,0,0
1772032954.71941,1772032954.678706,-8.7890625,-83.984375,-570.3125,-25.390625,0.0,0,0
1772032954.719466,1772032954.682596,-1000.0,-141.11328125,-912.59765625,-1000.0,0.0,0,0
1772032954.719521,1772032954.686486,-412.59765625,-67.87109375,146.484375,-398.4375,0.0,0,0
1772032954.764503,1772032954.6906137,891.6015625,21.484375,997.55859375,898.92578125,0.0,0,0
1772032954.764649,1772032954.6945038,-889.16015625,24.90234375,666.015625,-892.578125,0.0,0,0
1772032954.764717,1772032954.6983938,172.36328125,-62.5,-432.12890625,154.78515625,0.0,0,0
1772032954.764779,1772032954.7022836,-1000.0,-132.8125,-929.6875,-1000.0,0.0,0,0
1772032954.7648342,1772032954.7061737,-640.13671875,-85.44921875,-52.734375,-620.60546875,0.0,0,0
1772032954.764896,1772032954.7100637,749.0234375,76.171875,925.29296875,760.7421875,0.0,0,0
1772032954.764954,1772032954.7139537,-845.21484375,122.55859375,757.8125,-847.16796875,0.0,0,0
1772032954.7650108,1772032954.7178438,175.29296875,-62.01171875,-356.93359375,178.7109375,0.0,0,0
1772032954.765068,1772032954.7217338,-1000.0,-166.015625,-1000.0,-1000.0,0.0,0,0
1772032954.765121,1772032954.7256238,-893.5546875,-96.6796875,-300.29296875,-876.46484375,0.0,0,0
1772032954.7651782,1772032954.729514,432.6171875,15.625,808.59375,455.078125,0.0,0,0
1772032954.7652328,1772032954.733404,-791.015625,35.15625,833.0078125,-793.9453125,0.0,0,0
1772032954.8114371,1772032954.7375154,144.04296875,-60.546875,-313.4765625,146.97265625,0.0,0,0
1772032954.811559,1772032954.7414055,-1000.0,-140.13671875,-1000.0,-1000.0,0.0,0,0
1772032954.811614,1772032954.7452955,-1000.0,-112.3046875,-448.73046875,-1000.0,0.0,0,0
1772032954.8116689,1772032954.7491856,96.6796875,-10.7421875,604.00390625,125.48828125,0.0,0,0
1772032954.811727,1772032954.7530756,-767.08984375,51.7578125,906.73828125,-768.5546875,0.0,0,0
1772032954.811786,1772032954.7569659,288.0859375,-29.296875,-152.83203125,270.5078125,0.0,0,0
1772032954.811844,1772032954.760856,-968.26171875,-113.76953125,-1000.0,-976.5625,0.0,0,0
1772032954.8119,1772032954.764746,-1000.0,-124.0234375,-639.6484375,-1000.0,0.0,0,0
1772032954.8119528,1772032954.768636,-105.46875,-32.71484375,425.78125,-86.9140625,0.0,0,0
1772032954.8120089,1772032954.772526,-811.5234375,94.23828125,968.75,-806.15234375,0.0,0,0
1772032954.812064,1772032954.776416,479.4921875,6.34765625,-0.9765625,462.890625,0.0,0,0
1772032954.8121212,1772032954.780306,-874.51171875,-123.046875,-1000.0,-883.7890625,0.0,0,0
1772032954.868821,1772032954.784526,-1000.0,-115.72265625,-707.03125,-1000.0,0.0,0,0
1772032954.868938,1772032954.7884161,-226.07421875,-32.2265625,370.60546875,-211.9140625,0.0,0,0
1772032954.8690062,1772032954.7923064,-908.203125,41.9921875,958.984375,-896.484375,0.0,0,0
1772032954.8690681,1772032954.7961965,752.9296875,2.9296875,176.7578125,724.609375,0.0,0,0
1772032954.869128,1772032954.8000865,-617.67578125,-87.890625,-907.71484375,-646.484375,0.0,0,0
1772032954.869193,1772032954.8039768,-1000.0,-106.93359375,-761.71875,-1000.0,0.0,0,0
1772032954.869248,1772032954.8078668,-189.453125,-13.18359375,361.328125,-192.87109375,0.0,0,0
1772032954.869306,1772032954.811757,-974.12109375,35.64453125,974.12109375,-966.796875,0.0,0,0
1772032954.8693771,1772032954.8156471,968.75,73.2421875,329.58984375,948.73046875,0.0,0,0
1772032954.869452,1772032954.8195374,-277.34375,7.8125,-773.4375,-310.05859375,0.0,0,0
1772032954.869513,1772032954.8234274,-1000.0,-131.34765625,-873.046875,-1000.0,0.0,0,0
1772032954.8695612,1772032954.8273177,-213.37890625,-41.50390625,255.37109375,-214.84375,0.0,0,0
1772032954.899946,1772032954.831392,983.3984375,52.734375,995.60546875,985.83984375,0.0,0,0
1772032954.90011,1772032954.8352823,-947.265625,31.73828125,523.92578125,-950.68359375,0.0,0,0
1772032954.9001799,1772032954.8391726,-29.296875,-66.89453125,-575.1953125,-49.31640625,0.0,0,0
1772032954.9002419,1772032954.8430626,-1000.0,-140.13671875,-932.6171875,-1000.0,0.0,0,0
1772032954.900299,1772032954.846953,-409.66796875,-65.4296875,118.65234375,-393.06640625,0.0,0,0
1772032954.900529,1772032954.8508432,893.06640625,43.45703125,-995.60546875,900.87890625,0.0,0,0
1772032954.900592,1772032954.8547332,-891.11328125,49.8046875,593.26171875,-895.01953125,0.0,0,0
1772032954.900652,1772032954.8586235,149.4140625,-59.5703125,-505.859375,134.765625,0.0,0,0
1772032954.9007108,1772032954.8625138,-1000.0,-141.6015625,-983.3984375,-1000.0,0.0,0,0
1772032954.900766,1772032954.8664038,-629.39453125,-64.94140625,-90.33203125,-612.79296875,0.0,0,0
1772032954.900823,1772032954.870294,754.8828125,25.390625,943.359375,763.671875,0.0,0,0
1772032954.9008791,1772032954.8741844,-845.703125,67.3828125,721.6796875,-848.14453125,0.0,0,0
1772032954.958838,1772032954.8782408,175.29296875,41.9921875,-359.86328125,178.7109375,0.0,0,0
1772032954.958975,1772032954.882131,-1000.0,-104.98046875,-1000.0,-1000.0,0.0,0,0
1772032954.9590342,1772032954.8860211,-895.5078125,-103.515625,-341.796875,-875.0,0.0,0,0
1772032954.959092,1772032954.8899114,429.19921875,14.16015625,788.57421875,457.03125,0.0,0,0
1772032954.9591491,1772032954.8938017,-790.0390625,41.015625,786.1328125,-793.9453125,0.0,0,0
1772032954.9592068,1772032954.897692,143.06640625,-39.0625,-367.1875,145.99609375,0.0,0,0
1772032954.959264,1772032954.9015822,-1000.0,-126.46484375,-998.046875,-1000.0,0.0,0,0
1772032954.959318,1772032954.9054723,-1000.0,-50.29296875,-615.234375,-1000.0,0.0,0,0
1772032954.959372,1772032954.9093626,88.8671875,67.3828125,500.0,116.69921875,0.0,0,0
1772032954.959427,1772032954.9132528,-766.11328125,38.0859375,831.54296875,-767.08984375,0.0,0,0
1772032954.959486,1772032954.917143,226.07421875,-51.7578125,-330.078125,214.84375,0.0,0,0
1772032954.959542,1772032954.9210334,-990.234375,-129.8828125,-1000.0,-990.234375,0.0,0,0
1772032954.990277,1772032954.9250908,-1000.0,-133.7890625,-892.578125,-1000.0,0.0,0,0
1772032954.990389,1772032954.928981,-139.6484375,-52.24609375,254.8828125,-132.32421875,0.0,0,0
1772032954.9904718,1772032954.9328713,-803.22265625,24.90234375,789.0625,-819.82421875,0.0,0,0
1772032954.9905322,1772032954.9367616,201.171875,-40.52734375,-400.390625,73.2421875,0.0,0,0
1772032954.9905689,1772032954.940652,-1000.0,-141.6015625,-1000.0,-1000.0,0.0,0,0
1772032954.9905999,1772032954.9445422,-1000.0,-146.484375,-845.703125,-1000.0,0.0,0,0
1772032954.990633,1772032954.9484324,-262.6953125,-61.03515625,201.66015625,-268.5546875,0.0,0,0
1772032954.990667,1772032954.9523227,-855.46875,72.265625,921.38671875,-835.44921875,0.0,0,0
1772032954.9907022,1772032954.956213,561.5234375,8.30078125,0.48828125,357.421875,0.0,0,0
1772032954.9907358,1772032954.9601033,-834.9609375,-147.4609375,-976.07421875,-951.171875,0.0,0,0
1772032954.990769,1772032954.9639935,-1000.0,-139.6484375,-775.87890625,-1000.0,0.0,0,0
1772032954.9908109,1772032954.9678838,-201.66015625,-31.73828125,330.078125,-218.26171875,0.0,0,0
1772032955.065485,1772032954.9721656,-965.8203125,28.3203125,979.98046875,-956.0546875,0.0,0,0
1772032955.065648,1772032954.976056,939.453125,-11.23046875,425.78125,923.33984375,0.0,0,0
1772032955.0657148,1772032954.9799464,-332.03125,-87.890625,-721.19140625,-354.98046875,0.0,0,0
1772032955.065776,1772032954.9838367,-1000.0,-125.9765625,-798.828125,-1000.0,0.0,0,0
1772032955.06583,1772032954.9877272,-197.265625,-38.0859375,379.8828125,-206.54296875,0.0,0,0
1772032955.065888,1772032954.9916174,985.83984375,56.640625,-996.09375,986.328125,0.0,0,0
1772032955.0659451,1772032954.995508,-946.77734375,94.23828125,670.41015625,-950.1953125,0.0,0,0
1772032955.066002,1772032954.9993982,-23.4375,3.90625,-481.93359375,-45.8984375,0.0,0,0
1772032955.066058,1772032955.0032885,-1000.0,-149.4140625,-899.90234375,-1000.0,0.0,0,0
1772032955.066113,1772032955.007179,-365.72265625,-67.3828125,231.93359375,-365.234375,0.0,0,0
1772032955.0661728,1772032955.0110693,914.55078125,42.96875,-993.1640625,914.0625,0.0,0,0
1772032955.066229,1772032955.0149598,-898.4375,39.55078125,784.66796875,-899.4140625,0.0,0,0
1772032955.0946329,1772032955.0189865,167.96875,-67.3828125,-337.40234375,149.4140625,0.0,0,0
1772032955.094763,1772032955.0228767,-1000.0,-149.4140625,-908.69140625,-1000.0,0.0,0,0
1772032955.09481,1772032955.0267673,-565.4296875,-65.91796875,100.09765625,-570.80078125,0.0,0,0
1772032955.094856,1772032955.0306575,822.265625,31.73828125,961.42578125,806.15234375,0.0,0,0
1772032955.0949,1772032955.034548,-861.328125,38.0859375,812.5,-858.3984375,0.0,0,0
1772032955.094944,1772032955.0384383,186.03515625,-33.203125,-258.30078125,186.03515625,0.0,0,0
