timestamp,lsl_timestamp,TP9,AF7,AF8,TP10,Right AUX,keypress_A,keypress_B
1772035576.978805,1772035576.8647337,952.1484375,460.9375,732.421875,945.80078125,0.0,0,0
1772035576.979098,1772035576.8686278,645.99609375,114.74609375,154.78515625,396.97265625,0.0,0,0
1772035576.9791622,1772035576.8725219,-247.0703125,-381.8359375,-642.08984375,-665.0390625,0.0,0,0
1772035576.97921,1772035576.876416,-162.109375,-394.53125,-667.96875,-796.38671875,0.0,0,0
1772035576.979263,1772035576.8803098,744.140625,166.9921875,299.31640625,301.7578125,0.0,0,0
1772035576.97931,1772035576.884204,894.04296875,469.23828125,745.1171875,917.96875,0.0,0,0
1772035576.9793541,1772035576.888098,723.14453125,205.56640625,249.0234375,457.03125,0.0,0,0
1772035576.9793978,1772035576.8919919,-22.94921875,-332.51953125,-592.7734375,-526.85546875,0.0,0,0
1772035576.979442,1772035576.895886,-189.453125,-413.57421875,-712.890625,-835.44921875,0.0,0,0
1772035576.979485,1772035576.89978,715.8203125,140.13671875,180.17578125,213.37890625,0.0,0,0
1772035576.979528,1772035576.9036741,970.703125,468.26171875,727.05078125,927.24609375,0.0,0,0
1772035576.9795709,1772035576.907568,943.359375,291.015625,374.51171875,587.890625,0.0,0,0
1772035576.980225,1772035576.9116192,35.15625,-224.609375,-515.13671875,-425.29296875,0.0,0,0
1772035576.980298,1772035576.915513,-310.546875,-421.875,-736.328125,-851.07421875,0.0,0,0
1772035576.980344,1772035576.9194071,702.63671875,18.06640625,56.640625,73.2421875,0.0,0,0
1772035576.980389,1772035576.9233012,960.9375,408.203125,666.50390625,916.015625,0.0,0,0
1772035576.9804318,1772035576.9271953,-982.91015625,285.64453125,432.12890625,696.77734375,0.0,0,0
1772035576.9804869,1772035576.9310894,203.61328125,-217.7734375,-452.1484375,-413.0859375,0.0,0,0
1772035576.9805381,1772035576.9349835,-232.421875,-399.90234375,-792.48046875,-894.04296875,0.0,0,0
1772035576.980581,1772035576.9388776,757.32421875,-20.5078125,-129.39453125,-135.7421875,0.0,0,0
1772035576.980624,1772035576.9427714,979.00390625,381.34765625,654.296875,801.7578125,0.0,0,0
1772035576.9806662,1772035576.9466655,906.25,323.2421875,558.10546875,725.5859375,0.0,0,0
1772035576.9807,1772035576.9505596,26.3671875,-175.78125,-434.5703125,-396.484375,0.0,0,0
1772035576.980741,1772035576.9544537,-616.2109375,-411.62109375,-798.33984375,-910.15625,0.0,0,0
1772035577.025186,1772035576.9584801,369.62890625,-100.5859375,-252.44140625,-267.578125,0.0,0,0
1772035577.0253172,1772035576.9623742,922.8515625,363.76953125,572.75390625,677.734375,0.0,0,0
1772035577.025386,1772035576.9662683,931.640625,406.73828125,627.44140625,802.24609375,0.0,0,0
1772035577.025446,1772035576.9701624,77.63671875,-113.76953125,-340.8203125,-266.11328125,0.0,0,0
1772035577.025506,1772035576.9740565,-803.7109375,-376.46484375,-773.4375,-982.421875,0.0,0,0
1772035577.025564,1772035576.9779506,33.69140625,-132.8125,-354.4921875,-626.953125,0.0,0,0
1772035577.02562,1772035576.9818444,844.7265625,333.49609375,496.09375,437.5,0.0,0,0
1772035577.025677,1772035576.9857385,910.64453125,455.078125,680.6640625,816.40625,0.0,0,0
1772035577.025735,1772035576.9896326,151.85546875,-21.484375,-220.703125,-204.1015625,0.0,0,0
1772035577.025792,1772035576.9935267,-792.96875,-324.21875,-791.015625,-967.28515625,0.0,0,0
1772035577.0258482,1772035576.9974208,-214.35546875,-152.34375,-490.72265625,-668.45703125,0.0,0,0
1772035577.025905,1772035577.0013149,717.28515625,291.50390625,416.015625,382.8125,0.0,0,0
1772035577.0716422,1772035577.0053294,852.5390625,458.984375,686.5234375,875.0,0.0,0,0
1772035577.07173,1772035577.0092235,141.11328125,62.01171875,-62.98828125,45.8984375,0.0,0,0
1772035577.071775,1772035577.0131176,-774.90234375,-341.796875,-715.33203125,-880.859375,0.0,0,0
1772035577.07182,1772035577.0170116,-354.4921875,-223.6328125,-580.078125,-701.66015625,0.0,0,0
1772035577.071866,1772035577.020906,642.578125,291.9921875,353.02734375,390.625,0.0,0,0
1772035577.0719092,1772035577.0248,897.4609375,481.93359375,742.67578125,855.46875,0.0,0,0
1772035577.0719512,1772035577.0286942,370.1171875,172.8515625,106.4453125,249.0234375,0.0,0,0
1772035577.071993,1772035577.0325882,-717.28515625,-291.9921875,-680.6640625,-677.734375,0.0,0,0
1772035577.072047,1772035577.0364823,-632.32421875,-312.98828125,-653.80859375,-806.640625,0.0,0,0
1772035577.072107,1772035577.0403764,530.2734375,194.82421875,309.08203125,274.90234375,0.0,0,0
1772035577.0721679,1772035577.0442705,930.6640625,422.8515625,743.65234375,920.41015625,0.0,0,0
1772035577.072216,1772035577.0481646,327.1484375,193.359375,188.4765625,321.77734375,0.0,0,0
1772035577.114362,1772035577.0521677,-711.9140625,-263.18359375,-655.2734375,-664.55078125,0.0,0,0
1772035577.114469,1772035577.056062,-721.6796875,-366.2109375,-733.3984375,-842.28515625,0.0,0,0
1772035577.114531,1772035577.059956,397.4609375,96.19140625,142.578125,113.28125,0.0,0,0
1772035577.114594,1772035577.0638502,924.31640625,406.73828125,689.453125,886.23046875,0.0,0,0
1772035577.114644,1772035577.0677443,439.94140625,237.79296875,324.70703125,532.2265625,0.0,0,0
1772035577.114688,1772035577.0716383,-526.85546875,-263.671875,-536.1328125,-489.74609375,0.0,0,0
1772035577.114732,1772035577.0755324,-787.59765625,-396.484375,-765.13671875,-891.6015625,0.0,0,0
1772035577.1147761,1772035577.0794265,142.578125,-12.6953125,8.30078125,-65.4296875,0.0,0,0
1772035577.11482,1772035577.0833209,897.94921875,309.5703125,672.8515625,842.7734375,0.0,0,0
1772035577.114864,1772035577.087215,585.9375,262.6953125,448.2421875,682.6171875,0.0,0,0
1772035577.114906,1772035577.091109,-478.02734375,-224.12109375,-480.95703125,-401.85546875,0.0,0,0
1772035577.1149492,1772035577.0950031,-831.54296875,-406.25,-778.3203125,-899.4140625,0.0,0,0
1772035577.1603541,1772035577.098996,-37.59765625,-54.6875,-120.60546875,-227.5390625,0.0,0,0
1772035577.160519,1772035577.10289,810.05859375,328.125,599.609375,717.7734375,0.0,0,0
1772035577.1605859,1772035577.106784,643.06640625,326.171875,540.52734375,720.21484375,0.0,0,0
1772035577.160647,1772035577.1106784,-461.9140625,-156.25,-371.09375,-385.25390625,0.0,0,0
1772035577.1607082,1772035577.1145725,-883.30078125,-408.203125,-767.08984375,-937.98828125,0.0,0,0
1772035577.160769,1772035577.1184666,-171.875,-147.94921875,-240.234375,-372.0703125,0.0,0,0
1772035577.160827,1772035577.1223607,740.234375,279.78515625,544.921875,618.1640625,0.0,0,0
1772035577.160885,1772035577.1262548,717.28515625,331.54296875,604.00390625,804.19921875,0.0,0,0
1772035577.160943,1772035577.1301491,-403.3203125,-139.16015625,-294.43359375,-262.6953125,0.0,0,0
1772035577.161001,1772035577.1340432,-946.77734375,-401.3671875,-777.34375,-964.35546875,0.0,0,0
1772035577.161058,1772035577.1379373,-374.51171875,-182.6171875,-346.19140625,-500.48828125,0.0,0,0
1772035577.161116,1772035577.1418314,535.15625,205.078125,415.0390625,515.625,0.0,0,0
1772035577.220114,1772035577.1458063,568.84765625,234.375,415.0390625,665.0390625,0.0,0,0
1772035577.2202911,1772035577.1497006,-168.45703125,-63.4765625,-157.71484375,-69.3359375,0.0,0,0
1772035577.220354,1772035577.1535947,-423.33984375,-162.59765625,-311.03515625,-429.6875,0.0,0,0
1772035577.220483,1772035577.1574888,-165.52734375,-97.65625,-181.640625,-258.30078125,0.0,0,0
1772035577.220578,1772035577.161383,296.875,74.21875,130.37109375,251.46484375,0.0,0,0
1772035577.2206411,1772035577.1652772,417.96875,123.046875,233.88671875,423.33984375,0.0,0,0
1772035577.220701,1772035577.1691713,-78.61328125,-45.41015625,-72.265625,4.39453125,0.0,0,0
1772035577.220758,1772035577.1730654,-422.36328125,-191.89453125,-300.29296875,-409.1796875,0.0,0,0
1772035577.220816,1772035577.1769595,-249.51171875,-146.97265625,-202.63671875,-327.1484375,0.0,0,0
1772035577.220892,1772035577.1808538,210.9375,42.48046875,123.53515625,200.68359375,0.0,0,0
1772035577.22098,1772035577.184748,387.20703125,117.67578125,224.12109375,439.94140625,0.0,0,0
1772035577.221051,1772035577.188642,29.296875,-59.08203125,-22.4609375,89.35546875,0.0,0,0
1772035577.2652469,1772035577.1927047,-346.6796875,-217.28515625,-261.23046875,-368.1640625,0.0,0,0
1772035577.265414,1772035577.196599,-294.921875,-136.23046875,-247.0703125,-367.67578125,0.0,0,0
1772035577.2659998,1772035577.200493,253.41796875,28.3203125,71.2890625,195.80078125,0.0,0,0
1772035577.266069,1772035577.2043872,445.80078125,125.48828125,209.9609375,407.71484375,0.0,0,0
1772035577.26613,1772035577.2082815,26.3671875,30.76171875,26.3671875,104.4921875,0.0,0,0
1772035577.26619,1772035577.2121756,-366.2109375,-168.9453125,-238.76953125,-330.56640625,0.0,0,0
1772035577.26625,1772035577.21607,-359.375,-198.73046875,-275.87890625,-441.40625,0.0,0,0
1772035577.266307,1772035577.219964,115.234375,-22.4609375,73.2421875,35.15625,0.0,0,0
1772035577.266363,1772035577.223858,386.71875,108.3984375,274.4140625,338.37890625,0.0,0,0
1772035577.266419,1772035577.2277524,89.35546875,18.5546875,125.48828125,184.5703125,0.0,0,0
1772035577.266476,1772035577.2316465,-518.06640625,-163.0859375,-213.8671875,-353.02734375,0.0,0,0
1772035577.2665339,1772035577.2355409,-647.94921875,-194.3359375,-325.1953125,-595.21484375,0.0,0,0
1772035577.30998,1772035577.239593,-77.63671875,-49.8046875,-4.8828125,-129.8828125,0.0,0,0
1772035577.310077,1772035577.2434874,487.3046875,112.3046875,305.17578125,354.98046875,0.0,0,0
1772035577.310111,1772035577.2473814,395.01953125,126.46484375,275.390625,378.41796875,0.0,0,0
1772035577.310143,1772035577.2512758,-497.0703125,-180.17578125,-261.71875,-290.52734375,0.0,0,0
1772035577.310177,1772035577.2551699,-888.671875,-415.52734375,-660.15625,-851.5625,0.0,0,0
1772035577.310209,1772035577.2590642,-72.265625,-97.16796875,-116.2109375,-201.66015625,0.0,0,0
1772035577.310242,1772035577.2629583,898.4375,342.28515625,662.109375,818.84765625,0.0,0,0
1772035577.310276,1772035577.2668526,559.5703125,247.55859375,538.0859375,771.484375,0.0,0,0
1772035577.310308,1772035577.2707467,-573.73046875,-278.3203125,-398.92578125,-330.078125,0.0,0,0
1772035577.3103528,1772035577.274641,-867.67578125,-503.90625,-784.1796875,-916.9921875,0.0,0,0
1772035577.310385,1772035577.2785351,-176.26953125,-178.22265625,-196.77734375,-305.17578125,0.0,0,0
1772035577.310418,1772035577.2824295,756.8359375,291.015625,589.84375,664.0625,0.0,0,0
1772035577.3571699,1772035577.2864716,713.37890625,328.125,611.81640625,807.12890625,0.0,0,0
1772035577.3573298,1772035577.290366,-460.9375,-211.9140625,-318.359375,-284.1796875,0.0,0,0
1772035577.35743,1772035577.2942603,-923.33984375,-490.234375,-784.1796875,-939.94140625,0.0,0,0
1772035577.357496,1772035577.2981544,-276.85546875,-243.1640625,-315.91796875,-423.33984375,0.0,0,0
1772035577.3575559,1772035577.3020487,655.2734375,250.9765625,546.38671875,561.5234375,0.0,0,0
1772035577.357615,1772035577.3059428,579.1015625,288.0859375,583.0078125,696.77734375,0.0,0,0
1772035577.357673,1772035577.309837,-299.31640625,-141.11328125,-163.57421875,-133.7890625,0.0,0,0
1772035577.357731,1772035577.3137314,-580.078125,-250.48828125,-345.703125,-503.90625,0.0,0,0
1772035577.3577878,1772035577.3176255,-334.9609375,-158.203125,-172.36328125,-303.7109375,0.0,0,0
1772035577.357845,1772035577.3215199,166.9921875,6.8359375,144.04296875,215.8203125,0.0,0,0
1772035577.357902,1772035577.3254142,290.52734375,55.17578125,244.140625,373.53515625,0.0,0,0
1772035577.3579788,1772035577.3293083,-213.37890625,-101.5625,-67.87109375,-143.06640625,0.0,0,0
1772035577.414902,1772035577.3333294,-578.61328125,-210.9375,-300.29296875,-538.57421875,0.0,0,0
1772035577.415051,1772035577.3372235,-402.83203125,-150.390625,-196.77734375,-422.36328125,0.0,0,0
1772035577.4150982,1772035577.3411179,168.45703125,40.0390625,125.0,103.02734375,0.0,0,0
1772035577.415185,1772035577.3450122,390.625,114.74609375,259.765625,336.42578125,0.0,0,0
1772035577.4152331,1772035577.3489063,-95.21484375,-52.734375,-13.18359375,-47.8515625,0.0,0,0
1772035577.4152792,1772035577.3528006,-543.45703125,-211.42578125,-292.48046875,-513.671875,0.0,0,0
1772035577.4153228,1772035577.356695,-346.6796875,-173.33984375,-208.984375,-474.609375,0.0,0,0
1772035577.4153678,1772035577.3605893,276.3671875,6.34765625,120.60546875,58.10546875,0.0,0,0
1772035577.415411,1772035577.3644834,500.9765625,82.51953125,220.21484375,289.0625,0.0,0,0
1772035577.415453,1772035577.3683777,125.48828125,-21.484375,20.5078125,25.390625,0.0,0,0
1772035577.415516,1772035577.372272,-375.48828125,-221.6796875,-251.953125,-441.89453125,0.0,0,0
1772035577.4155772,1772035577.376166,-372.55859375,-245.1171875,-255.37109375,-495.1171875,0.0,0,0
1772035577.445499,1772035577.3801873,210.44921875,-7.32421875,92.7734375,48.33984375,0.0,0,0
1772035577.4456031,1772035577.3840816,461.9140625,92.7734375,249.51171875,348.6328125,0.0,0,0
1772035577.445666,1772035577.387976,193.84765625,-8.30078125,86.9140625,135.7421875,0.0,0,0
1772035577.445709,1772035577.3918703,-292.96875,-176.7578125,-219.7265625,-348.6328125,0.0,0,0
1772035577.4457579,1772035577.3957644,-424.8046875,-229.98046875,-288.57421875,-467.28515625,0.0,0,0
1772035577.445812,1772035577.3996587,110.83984375,-34.1796875,51.7578125,41.9921875,0.0,0,0
1772035577.445855,1772035577.403553,457.03125,107.421875,274.4140625,415.52734375,0.0,0,0
1772035577.445899,1772035577.4074473,225.5859375,15.625,141.6015625,268.06640625,0.0,0,0
1772035577.44594,1772035577.4113417,-315.91796875,-180.6640625,-211.9140625,-306.15234375,0.0,0,0
1772035577.445983,1772035577.4152358,-437.01171875,-230.95703125,-316.40625,-565.4296875,0.0,0,0
1772035577.446035,1772035577.41913,60.05859375,-46.38671875,-14.6484375,-139.16015625,0.0,0,0
1772035577.446076,1772035577.4230244,459.47265625,109.86328125,245.60546875,401.3671875,0.0,0,0
1772035577.491536,1772035577.4270263,327.1484375,84.47265625,197.265625,433.59375,0.0,0,0
1772035577.491642,1772035577.4309206,-296.38671875,-125.9765625,-164.0625,-144.04296875,0.0,0,0
1772035577.491704,1772035577.4348147,-489.74609375,-218.26171875,-302.24609375,-400.390625,0.0,0,0
1772035577.4917629,1772035577.438709,-248.53515625,-112.3046875,-104.98046875,-118.1640625,0.0,0,0
1772035577.4918232,1772035577.4426033,250.9765625,130.859375,300.29296875,473.14453125,0.0,0,0
1772035577.491881,1772035577.4464977,576.66015625,295.8984375,515.13671875,760.25390625,0.0,0,0
1772035577.49194,1772035577.450392,-416.015625,-197.265625,-261.71875,-259.765625,0.0,0,0
1772035577.491998,1772035577.4542863,-916.9921875,-567.3828125,-773.92578125,-976.07421875,0.0,0,0
1772035577.492058,1772035577.4581807,-438.96484375,-276.3671875,-283.69140625,-500.48828125,0.0,0,0
1772035577.4921339,1772035577.462075,491.2109375,284.66796875,554.19921875,512.20703125,0.0,0,0
1772035577.4922,1772035577.4659693,667.96875,383.7890625,701.171875,807.6171875,0.0,0,0
1772035577.492265,1772035577.4698637,-452.63671875,-208.0078125,-218.75,-240.234375,0.0,0,0
1772035577.5790138,1772035577.4740484,-941.89453125,-548.828125,-750.9765625,-959.47265625,0.0,0,0
1772035577.579191,1772035577.4779427,-530.2734375,-327.1484375,-378.41796875,-557.6171875,0.0,0,0
1772035577.579256,1772035577.481837,440.91796875,233.3984375,485.83984375,442.3828125,0.0,0,0
1772035577.579316,1772035577.4857314,746.09375,414.55078125,746.09375,893.5546875,0.0,0,0
1772035577.579375,1772035577.489626,-266.6015625,-116.69921875,-80.078125,80.078125,0.0,0,0
1772035577.579433,1772035577.4935203,-933.59375,-520.99609375,-729.00390625,-856.93359375,0.0,0,0
1772035577.5794911,1772035577.4974146,-614.74609375,-377.44140625,-475.09765625,-588.37890625,0.0,0,0
1772035577.579552,1772035577.501309,396.97265625,193.359375,428.7109375,468.26171875,0.0,0,0
1772035577.5796092,1772035577.5052032,761.23046875,424.8046875,751.953125,897.94921875,0.0,0,0
1772035577.5796878,1772035577.5090976,-116.2109375,-13.18359375,55.6640625,230.46875,0.0,0,0
1772035577.579746,1772035577.512992,-879.39453125,-471.19140625,-682.12890625,-769.04296875,0.0,0,0
1772035577.5798059,1772035577.5168862,-681.15234375,-424.8046875,-561.5234375,-700.68359375,0.0,0,0
1772035577.59537,1772035577.520879,379.39453125,160.15625,381.8359375,411.1328125,0.0,0,0
1772035577.59548,1772035577.5247734,806.640625,437.5,755.859375,908.69140625,0.0,0,0
1772035577.595544,1772035577.5286677,67.87109375,83.49609375,171.875,276.85546875,0.0,0,0
1772035577.595606,1772035577.532562,-766.11328125,-447.75390625,-642.578125,-699.70703125,0.0,0,0
1772035577.5959198,1772035577.5364563,-810.05859375,-483.3984375,-680.6640625,-874.51171875,0.0,0,0
1772035577.595986,1772035577.5403507,198.73046875,152.83203125,268.06640625,167.96875,0.0,0,0
1772035577.596045,1772035577.5442452,779.296875,452.1484375,734.86328125,907.71484375,0.0,0,0
1772035577.596103,1772035577.5481396,116.69921875,125.0,287.59765625,374.51171875,0.0,0,0
1772035577.596159,1772035577.552034,-721.6796875,-414.0625,-558.59375,-603.515625,0.0,0,0
1772035577.5962281,1772035577.5559282,-848.14453125,-501.46484375,-719.23828125,-879.39453125,0.0,0,0
1772035577.596286,1772035577.5598226,12.20703125,91.30859375,173.33984375,40.0390625,0.0,0,0
1772035577.596343,1772035577.5637171,725.09765625,489.2578125,748.046875,878.41796875,0.0,0,0
1772035577.641335,1772035577.5677786,264.6484375,265.13671875,398.92578125,557.12890625,0.0,0,0
1772035577.641504,1772035577.5716732,-641.6015625,-357.421875,-514.16015625,-481.4453125,0.0,0,0
1772035577.641553,1772035577.5755675,-831.0546875,-512.6953125,-758.30078125,-865.234375,0.0,0,0
1772035577.641597,1772035577.5794618,-76.171875,19.53125,10.7421875,-5.37109375,0.0,0,0
1772035577.64164,1772035577.5833564,728.515625,431.640625,671.875,866.2109375,0.0,0,0
1772035577.6416829,1772035577.5872507,468.75,303.7109375,497.55859375,727.5390625,0.0,0,0
1772035577.6417248,1772035577.591145,-554.19921875,-298.828125,-426.7578125,-344.7265625,0.0,0,0
1772035577.641767,1772035577.5950396,-849.12109375,-539.0625,-766.6015625,-894.04296875,0.0,0,0
1772035577.641809,1772035577.598934,-246.58203125,-95.21484375,-112.79296875,-228.515625,0.0,0,0
1772035577.6418529,1772035577.6028283,618.1640625,419.43359375,628.90625,724.12109375,0.0,0,0
1772035577.641896,1772035577.6067226,539.55078125,398.4375,576.171875,764.6484375,0.0,0,0
1772035577.6419368,1772035577.6106172,-542.48046875,-232.421875,-369.62890625,-358.3984375,0.0,0,0
1772035577.6846342,1772035577.614667,-877.9296875,-508.7890625,-774.90234375,-941.40625,0.0,0,0
1772035577.6848,1772035577.6185613,-371.58203125,-176.7578125,-243.1640625,-406.25,0.0,0,0
1772035577.684847,1772035577.6224556,534.66796875,349.12109375,569.3359375,572.75390625,0.0,0,0
1772035577.684892,1772035577.6263502,686.5234375,414.55078125,657.71484375,805.6640625,0.0,0,0
1772035577.6849349,1772035577.6302445,-414.0625,-189.453125,-281.25,-256.8359375,0.0,0,0
1772035577.684979,1772035577.634139,-926.7578125,-504.8828125,-781.73828125,-955.56640625,0.0,0,0
1772035577.6850219,1772035577.6380334,-514.16015625,-253.90625,-373.53515625,-482.91015625,0.0,0,0
1772035577.685065,1772035577.641928,432.12890625,295.41015625,500.48828125,517.08984375,0.0,0,0
1772035577.685107,1772035577.6458223,689.453125,427.24609375,695.3125,861.81640625,0.0,0,0
1772035577.68515,1772035577.6497166,-323.73046875,-128.41796875,-160.64453125,-23.92578125,0.0,0,0
1772035577.6851919,1772035577.6536112,-907.71484375,-532.2265625,-738.76953125,-890.13671875,0.0,0,0
1772035577.685235,1772035577.6575055,-606.93359375,-359.375,-473.14453125,-593.26171875,0.0,0,0
1772035577.728928,1772035577.6615355,341.30859375,225.5859375,426.26953125,455.078125,0.0,0,0
1772035577.7290492,1772035577.66543,722.16796875,443.84765625,742.67578125,870.60546875,0.0,0,0
1772035577.729114,1772035577.6693244,-119.62890625,-28.80859375,-8.7890625,118.1640625,0.0,0,0
1772035577.729177,1772035577.673219,-843.75,-499.0234375,-717.7734375,-820.3125,0.0,0,0
1772035577.729237,1772035577.6771135,-697.75390625,-406.25,-571.2890625,-758.30078125,0.0,0,0
1772035577.7292979,1772035577.6810079,299.8046875,223.14453125,365.72265625,334.47265625,0.0,0,0
1772035577.729362,1772035577.6849024,727.5390625,479.4921875,737.79296875,897.4609375,0.0,0,0
1772035577.72942,1772035577.6887968,3.41796875,50.29296875,131.8359375,285.15625,0.0,0,0
1772035577.729478,1772035577.6926913,-776.85546875,-482.421875,-651.85546875,-690.91796875,0.0,0,0
1772035577.729537,1772035577.6965857,-772.4609375,-475.09765625,-662.109375,-817.87109375,0.0,0,0
1772035577.72958,1772035577.7004802,208.49609375,159.1796875,296.38671875,275.390625,0.0,0,0
1772035577.729635,1772035577.7043746,720.21484375,454.1015625,744.140625,923.33984375,0.0,0,0
1772035577.7750242,1772035577.7083938,182.6171875,141.6015625,252.9296875,399.90234375,0.0,0,0
1772035577.775161,1772035577.7122884,-633.7890625,-420.41015625,-593.75,-589.84375,0.0,0,0
1772035577.775221,1772035577.716183,-803.7109375,-521.97265625,-734.86328125,-837.40234375,0.0,0,0
1772035577.775281,1772035577.7200773,89.84375,84.9609375,195.80078125,189.453125,0.0,0,0
1772035577.7753391,1772035577.7239718,719.23828125,457.03125,764.16015625,935.546875,0.0,0,0
1772035577.775397,1772035577.7278662,301.26953125,229.00390625,389.16015625,540.0390625,0.0,0,0
1772035577.775533,1772035577.7317607,-582.03125,-373.046875,-517.08984375,-487.79296875,0.0,0,0
1772035577.7756522,1772035577.7356553,-827.63671875,-559.5703125,-771.484375,-890.13671875,0.0,0,0
1772035577.775706,1772035577.7395496,-17.08984375,0.48828125,51.7578125,-27.34375,0.0,0,0
1772035577.77575,1772035577.7434442,729.98046875,448.73046875,737.3046875,875.48828125,0.0,0,0
1772035577.7757921,1772035577.7473388,412.109375,278.3203125,492.67578125,631.34765625,0.0,0,0
1772035577.775834,1772035577.751233,-562.01171875,-390.13671875,-473.14453125,-454.1015625,0.0,0,0
1772035577.8198762,1772035577.755243,-815.91796875,-614.2578125,-794.921875,-895.99609375,0.0,0,0
1772035577.8200169,1772035577.7591376,-98.6328125,-96.6796875,-80.078125,-162.59765625,0.0,0,0
1772035577.820064,1772035577.763032,711.42578125,428.7109375,678.7109375,786.1328125,0.0,0,0
1772035577.82011,1772035577.7669265,594.7265625,334.9609375,568.84765625,732.91015625,0.0,0,0
1772035577.8201542,1772035577.770821,-458.984375,-371.58203125,-418.45703125,-383.7890625,0.0,0,0
1772035577.8201978,1772035577.7747157,-858.3984375,-604.98046875,-802.24609375,-924.8046875,0.0,0,0
1772035577.820242,1772035577.77861,-251.953125,-167.96875,-212.890625,-335.9375,0.0,0,0
1772035577.820283,1772035577.7825046,632.32421875,382.8125,605.95703125,641.11328125,0.0,0,0
1772035577.8203251,1772035577.7863991,664.0625,407.2265625,633.7890625,786.1328125,0.0,0,0
1772035577.820369,1772035577.7902935,-420.41015625,-272.94921875,-357.91015625,-328.61328125,0.0,0,0
1772035577.820423,1772035577.794188,-875.48828125,-588.37890625,-805.6640625,-947.265625,0.0,0,0
1772035577.8204641,1772035577.7980826,-353.02734375,-265.625,-326.171875,-438.96484375,0.0,0,0
1772035577.864507,1772035577.8020804,532.2265625,331.0546875,536.1328125,535.15625,0.0,0,0
1772035577.864672,1772035577.805975,713.37890625,460.44921875,703.61328125,823.73046875,0.0,0,0
1772035577.8647192,1772035577.8098693,-292.48046875,-184.08203125,-218.75,-186.03515625,0.0,0,0
1772035577.864782,1772035577.8137639,-886.71875,-562.98828125,-794.921875,-947.75390625,0.0,0,0
1772035577.864833,1772035577.8176584,-499.0234375,-342.7734375,-451.171875,-576.171875,0.0,0,0
1772035577.8648808,1772035577.821553,444.82421875,272.4609375,463.37890625,447.75390625,0.0,0,0
1772035577.864924,1772035577.8254476,762.20703125,514.16015625,750.48828125,835.9375,0.0,0,0
1772035577.8649669,1772035577.829342,-126.953125,-63.96484375,-73.2421875,-58.59375,0.0,0,0
1772035577.865012,1772035577.8332365,-860.83984375,-550.78125,-759.27734375,-916.50390625,0.0,0,0
1772035577.865076,1772035577.837131,-593.26171875,-395.01953125,-523.92578125,-689.453125,0.0,0,0
1772035577.865118,1772035577.8410256,410.64453125,248.53515625,423.33984375,381.34765625,0.0,0,0
1772035577.8651588,1772035577.84492,768.5546875,499.51171875,761.23046875,885.7421875,0.0,0,0
1772035577.921951,1772035577.848903,25.87890625,24.4140625,75.68359375,203.61328125,0.0,0,0
1772035577.922027,1772035577.8527975,-767.08984375,-535.15625,-697.265625,-763.18359375,0.0,0,0
1772035577.922056,1772035577.856692,-642.578125,-470.21484375,-632.32421875,-791.015625,0.0,0,0
1772035577.92208,1772035577.8605864,409.66796875,230.46875,342.28515625,314.94140625,0.0,0,0
1772035577.922105,1772035577.864481,824.21875,499.51171875,748.53515625,903.3203125,0.0,0,0
1772035577.922129,1772035577.8683755,225.5859375,123.046875,206.0546875,307.6171875,0.0,0,0
1772035577.922224,1772035577.87227,-640.625,-482.91015625,-622.0703125,-658.203125,0.0,0,0
1772035577.922251,1772035577.8761647,-750.9765625,-586.42578125,-725.5859375,-847.65625,0.0,0,0
1772035577.922274,1772035577.8800592,260.7421875,120.60546875,232.91015625,196.2890625,0.0,0,0
1772035577.9222982,1772035577.8839536,829.58984375,515.625,751.953125,925.29296875,0.0,0,0
1772035577.9223208,1772035577.8878481,352.5390625,218.26171875,319.82421875,448.2421875,0.0,0,0
1772035577.922344,1772035577.8917427,-562.98828125,-416.015625,-555.6640625,-558.10546875,0.0,0,0
1772035577.967713,1772035577.8957121,-780.2734375,-569.82421875,-745.1171875,-871.09375,0.0,0,0
1772035577.967777,1772035577.8996067,134.27734375,58.59375,125.9765625,58.59375,0.0,0,0
1772035577.967793,1772035577.903501,796.875,494.140625,745.60546875,907.71484375,0.0,0,0
1772035577.967808,1772035577.9073956,423.33984375,287.109375,432.12890625,579.58984375,0.0,0,0
1772035577.967822,1772035577.9112902,-546.875,-381.8359375,-502.44140625,-476.5625,0.0,0,0
1772035577.967836,1772035577.9151847,-796.875,-581.0546875,-779.296875,-895.01953125,0.0,0,0
1772035577.967849,1772035577.9190793,-35.64453125,-24.4140625,-20.99609375,-162.59765625,0.0,0,0
1772035577.967863,1772035577.9229739,739.74609375,449.21875,699.70703125,795.41015625,0.0,0,0
1772035577.9678771,1772035577.9268684,571.2890625,327.1484375,522.94921875,685.546875,0.0,0,0
1772035577.967891,1772035577.930763,-478.515625,-345.703125,-439.453125,-431.640625,0.0,0,0
1772035577.9679072,1772035577.9346576,-842.28515625,-595.21484375,-767.578125,-908.69140625,0.0,0,0
1772035577.9679208,1772035577.9385521,-196.77734375,-122.55859375,-152.83203125,-289.55078125,0.0,0,0
1772035578.013243,1772035577.9426012,667.48046875,432.6171875,632.8125,681.15234375,0.0,0,0
1772035578.013272,1772035577.9464958,661.62109375,424.8046875,636.71875,776.3671875,0.0,0,0
1772035578.013293,1772035577.9503903,-414.0625,-280.2734375,-359.375,-348.14453125,0.0,0,0
1772035578.013332,1772035577.954285,-865.234375,-589.84375,-791.9921875,-954.1015625,0.0,0,0
1772035578.013375,1772035577.9581795,-312.98828125,-219.7265625,-285.64453125,-424.8046875,0.0,0,0
1772035578.0133948,1772035577.962074,573.73046875,380.37109375,554.6875,564.453125,0.0,0,0
1772035578.0134149,1772035577.9659686,724.12109375,476.07421875,691.89453125,823.73046875,0.0,0,0
1772035578.0134342,1772035577.9698632,-283.69140625,-193.84765625,-250.0,-208.984375,0.0,0,0
1772035578.013451,1772035577.9737577,-859.86328125,-579.1015625,-796.38671875,-955.078125,0.0,0,0
1772035578.0134678,1772035577.9776523,-397.94921875,-295.41015625,-397.94921875,-550.29296875,0.0,0,0
1772035578.013485,1772035577.9815469,518.5546875,324.21875,495.60546875,463.8671875,0.0,0,0
1772035578.013515,1772035577.9854414,759.765625,495.60546875,748.046875,852.5390625,0.0,0,0
1772035578.0589252,1772035577.9894793,-137.6953125,-98.14453125,-96.6796875,-43.45703125,0.0,0,0
1772035578.058954,1772035577.9933739,-839.84375,-568.84765625,-781.25,-921.38671875,0.0,0,0
1772035578.058974,1772035577.9972684,-530.2734375,-363.76953125,-526.85546875,-690.91796875,0.0,0,0
1772035578.058997,1772035578.001163,428.22265625,299.31640625,411.1328125,382.8125,0.0,0,0
1772035578.059016,1772035578.0050576,763.18359375,538.0859375,762.6953125,849.12109375,0.0,0,0
1772035578.059036,1772035578.0089521,13.18359375,33.203125,63.96484375,47.8515625,0.0,0,0
1772035578.059087,1772035578.0128467,-764.16015625,-526.3671875,-708.984375,-847.65625,0.0,0,0
1772035578.0591328,1772035578.0167415,-630.859375,-475.5859375,-610.83984375,-801.7578125,0.0,0,0
1772035578.059157,1772035578.020636,365.234375,216.30859375,352.05078125,274.90234375,0.0,0,0
1772035578.059179,1772035578.0245306,747.0703125,526.85546875,762.20703125,893.5546875,0.0,0,0
1772035578.0592,1772035578.0284252,121.58203125,134.765625,192.87109375,250.9765625,0.0,0,0
1772035578.059221,1772035578.0323198,-690.91796875,-464.35546875,-647.94921875,-708.984375,0.0,0,0
1772035578.103435,1772035578.036347,-739.2578125,-512.6953125,-702.63671875,-849.609375,0.0,0,0
1772035578.10347,1772035578.0402415,235.83984375,180.17578125,281.73828125,213.37890625,0.0,0,0
1772035578.103499,1772035578.0441363,725.5859375,528.80859375,770.01953125,920.41015625,0.0,0,0
1772035578.1035268,1772035578.0480309,248.53515625,198.2421875,297.8515625,388.18359375,0.0,0,0
1772035578.103557,1772035578.0519254,-594.23828125,-427.734375,-575.68359375,-590.33203125,0.0,0,0
1772035578.103585,1772035578.05582,-764.16015625,-536.1328125,-746.58203125,-888.671875,0.0,0,0
1772035578.103613,1772035578.0597148,157.71484375,102.5390625,153.80859375,41.50390625,0.0,0,0
1772035578.1036422,1772035578.0636094,770.01953125,519.53125,754.39453125,894.04296875,0.0,0,0
1772035578.1036701,1772035578.067504,402.83203125,286.1328125,396.97265625,513.18359375,0.0,0,0
1772035578.103698,1772035578.0713985,-518.5546875,-392.578125,-523.4375,-519.04296875,0.0,0,0
1772035578.1037261,1772035578.075293,-756.34765625,-585.9375,-781.73828125,-891.6015625,0.0,0,0
1772035578.103754,1772035578.0791879,46.875,4.39453125,9.27734375,-106.93359375,0.0,0,0
1772035578.180104,1772035578.0833898,751.46484375,497.55859375,721.6796875,836.42578125,0.0,0,0
1772035578.180435,1772035578.0872843,552.24609375,367.1875,501.953125,631.34765625,0.0,0,0
1772035578.180866,1772035578.091179,-442.3828125,-320.80078125,-467.7734375,-470.703125,0.0,0,0
1772035578.180892,1772035578.0950737,-758.7890625,-580.56640625,-786.62109375,-911.62109375,0.0,0,0
1772035578.180907,1772035578.0989683,-78.61328125,-109.375,-126.46484375,-282.71484375,0.0,0,0
1772035578.1810298,1772035578.102863,672.36328125,453.61328125,658.203125,701.66015625,0.0,0,0
1772035578.18128,1772035578.1067576,626.953125,435.05859375,616.2109375,741.69921875,0.0,0,0
1772035578.1814709,1772035578.1106524,-371.58203125,-290.0390625,-386.23046875,-395.01953125,0.0,0,0
1772035578.1816802,1772035578.114547,-767.08984375,-598.6328125,-804.6875,-949.70703125,0.0,0,0
1772035578.181831,1772035578.1184416,-230.46875,-193.84765625,-262.20703125,-437.01171875,0.0,0,0
1772035578.182017,1772035578.1223364,582.51953125,420.8984375,583.984375,553.22265625,0.0,0,0
1772035578.1820421,1772035578.126231,687.01171875,498.046875,693.84765625,809.5703125,0.0,0,0
1772035578.2028968,1772035578.1302729,-284.1796875,-201.66015625,-288.0859375,-269.53125,0.0,0,0
1772035578.213703,1772035578.1341677,-790.52734375,-567.3828125,-801.26953125,-967.7734375,0.0,0,0
1772035578.213793,1772035578.1380622,-354.98046875,-291.015625,-361.81640625,-528.80859375,0.0,0,0
1772035578.214255,1772035578.141957,519.53125,332.03125,514.6484375,480.46875,0.0,0,0
1772035578.2143328,1772035578.1458516,715.33203125,515.13671875,726.07421875,841.796875,0.0,0,0
1772035578.2144902,1772035578.1497464,-169.43359375,-103.02734375,-154.78515625,-121.09375,0.0,0,0
1772035578.2146292,1772035578.1536412,-804.6875,-548.33984375,-791.50390625,-948.2421875,0.0,0,0
1772035578.2146518,1772035578.1575358,-505.859375,-351.07421875,-487.79296875,-655.76171875,0.0,0,0
1772035578.214664,1772035578.1614306,425.29296875,298.828125,450.1953125,394.04296875,0.0,0,0
1772035578.214674,1772035578.1653252,722.65625,531.25,766.6015625,863.28125,0.0,0,0
1772035578.214705,1772035578.16922,-49.31640625,-11.71875,0.48828125,47.36328125,0.0,0,0
1772035578.214779,1772035578.1731145,-759.765625,-546.875,-751.46484375,-869.140625,0.0,0,0
1772035578.238177,1772035578.1771054,-579.58984375,-434.08203125,-585.44921875,-747.0703125,0.0,0,0
1772035578.238215,1772035578.1810002,392.08984375,256.34765625,377.44140625,336.42578125,0.0,0,0
1772035578.238227,1772035578.184895,741.69921875,536.62109375,750.9765625,888.671875,0.0,0,0
1772035578.238237,1772035578.1887896,93.75,101.5625,133.7890625,220.21484375,0.0,0,0
1772035578.2382479,1772035578.1926844,-687.01171875,-483.3984375,-674.8046875,-740.234375,0.0,0,0
1772035578.238258,1772035578.196579,-662.109375,-474.609375,-660.64453125,-805.17578125,0.0,0,0
1772035578.238268,1772035578.2004738,319.3359375,228.515625,321.2890625,272.4609375,0.0,0,0
1772035578.2382789,1772035578.2043686,747.0703125,537.59765625,760.7421875,916.015625,0.0,0,0
1772035578.238344,1772035578.2082632,229.00390625,172.8515625,256.34765625,360.3515625,0.0,0,0
1772035578.238354,1772035578.212158,-610.3515625,-442.3828125,-601.07421875,-627.44140625,0.0,0,0
1772035578.238364,1772035578.2160525,-726.07421875,-549.31640625,-729.4921875,-839.35546875,0.0,0,0
1772035578.238374,1772035578.2199473,196.77734375,134.765625,208.49609375,159.66796875,0.0,0,0
1772035578.297983,1772035578.2239316,718.75,521.97265625,762.6953125,921.875,0.0,0,0
1772035578.298024,1772035578.227826,328.61328125,253.41796875,358.3984375,509.27734375,0.0,0,0
1772035578.2980402,1772035578.231721,-547.36328125,-364.74609375,-543.45703125,-523.4375,0.0,0,0
1772035578.298055,1772035578.2356157,-775.390625,-550.29296875,-764.16015625,-860.3515625,0.0,0,0
1772035578.298069,1772035578.2395103,41.015625,15.625,60.05859375,-14.16015625,0.0,0,0
1772035578.298083,1772035578.243405,682.12890625,462.40234375,734.86328125,868.65234375,0.0,0,0
1772035578.298097,1772035578.2473,419.43359375,321.77734375,472.16796875,641.11328125,0.0,0,0
1772035578.298111,1772035578.2511945,-500.48828125,-338.37890625,-492.1875,-457.03125,0.0,0,0
1772035578.298124,1772035578.2550893,-799.31640625,-603.515625,-804.19921875,-896.97265625,0.0,0,0
1772035578.2981381,1772035578.258984,-95.703125,-96.6796875,-107.91015625,-177.24609375,0.0,0,0
1772035578.298152,1772035578.2628787,652.34375,467.7734375,673.828125,776.3671875,0.0,0,0
1772035578.298165,1772035578.2667735,522.4609375,403.3203125,574.21875,737.3046875,0.0,0,0
1772035578.343223,1772035578.27075,-437.5,-294.43359375,-424.31640625,-388.18359375,0.0,0,0
1772035578.343254,1772035578.2746449,-829.58984375,-580.078125,-794.921875,-938.4765625,0.0,0,0
1772035578.343272,1772035578.2785394,-273.92578125,-160.15625,-218.75,-353.515625,0.0,0,0
1772035578.34329,1772035578.2824342,565.4296875,416.9921875,593.26171875,625.48828125,0.0,0,0
1772035578.343306,1772035578.286329,627.44140625,454.1015625,665.52734375,809.5703125,0.0,0,0
1772035578.343323,1772035578.2902238,-339.84375,-221.6796875,-315.4296875,-282.71484375,0.0,0,0
1772035578.343338,1772035578.2941184,-787.109375,-555.6640625,-781.73828125,-940.91796875,0.0,0,0
1772035578.3433542,1772035578.2980132,-328.125,-258.30078125,-326.66015625,-456.0546875,0.0,0,0
1772035578.343369,1772035578.301908,485.83984375,332.03125,506.8359375,502.44140625,0.0,0,0
1772035578.343385,1772035578.3058026,680.6640625,512.20703125,725.5859375,848.6328125,0.0,0,0
1772035578.343401,1772035578.3096974,-213.8671875,-134.765625,-171.875,-110.3515625,0.0,0,0
1772035578.343416,1772035578.3135922,-814.453125,-591.796875,-790.0390625,-937.98828125,0.0,0,0
1772035578.3886342,1772035578.3176441,-470.21484375,-342.28515625,-457.51953125,-625.48828125,0.0,0,0
1772035578.3886762,1772035578.3215387,441.89453125,327.63671875,459.9609375,412.59765625,0.0,0,0
1772035578.388701,1772035578.3254335,704.1015625,538.57421875,744.140625,867.67578125,0.0,0,0
1772035578.388722,1772035578.3293283,-75.68359375,-19.04296875,-49.8046875,64.94140625,0.0,0,0
1772035578.388743,1772035578.333223,-745.60546875,-510.25390625,-760.25390625,-865.72265625,0.0,0,0
1772035578.3887649,1772035578.337118,-540.0390625,-376.46484375,-551.26953125,-669.43359375,0.0,0,0
1772035578.388785,1772035578.3410127,404.296875,279.78515625,416.015625,419.921875,0.0,0,0
1772035578.3888059,1772035578.3449075,752.44140625,516.6015625,767.578125,894.53125,0.0,0,0
1772035578.3888261,1772035578.348802,89.35546875,54.6875,115.72265625,243.65234375,0.0,0,0
1772035578.3888462,1772035578.352697,-709.47265625,-492.67578125,-674.8046875,-740.234375,0.0,0,0
1772035578.388866,1772035578.3565917,-672.8515625,-462.890625,-627.9296875,-800.29296875,0.0,0,0
1772035578.388886,1772035578.3604865,304.6875,206.0546875,353.515625,304.6875,0.0,0,0
1772035578.4638772,1772035578.3647032,722.65625,510.7421875,792.48046875,924.8046875,0.0,0,0
1772035578.463936,1772035578.368598,186.5234375,154.78515625,279.78515625,371.09375,0.0,0,0
1772035578.463974,1772035578.3724928,-637.20703125,-447.75390625,-594.7265625,-625.48828125,0.0,0,0
1772035578.464011,1772035578.3763876,-747.0703125,-505.37109375,-707.03125,-838.8671875,0.0,0,0
1772035578.4640472,1772035578.3802824,198.2421875,176.26953125,256.8359375,216.30859375,0.0,0,0
1772035578.464084,1772035578.3841772,730.46875,545.41015625,780.2734375,938.4765625,0.0,0,0
1772035578.464121,1772035578.388072,302.24609375,255.859375,359.86328125,508.30078125,0.0,0,0
1772035578.4641569,1772035578.3919668,-560.546875,-408.203125,-539.0625,-504.39453125,0.0,0,0
1772035578.464193,1772035578.3958616,-783.69140625,-573.73046875,-775.87890625,-866.69921875,0.0,0,0
1772035578.4642298,1772035578.3997564,57.6171875,56.15234375,66.40625,49.31640625,0.0,0,0
1772035578.464266,1772035578.4036512,686.5234375,502.44140625,731.93359375,900.390625,0.0,0,0
1772035578.464301,1772035578.407546,390.13671875,313.96484375,455.56640625,616.2109375,0.0,0,0
1772035578.481063,1772035578.4115806,-500.9765625,-342.28515625,-488.28125,-450.1953125,0.0,0,0
1772035578.481156,1772035578.4154754,-775.87890625,-561.5234375,-771.97265625,-890.625,0.0,0,0
1772035578.481187,1772035578.4193702,-43.9453125,-30.2734375,-25.87890625,-134.27734375,0.0,0,0
1772035578.481216,1772035578.423265,686.03515625,482.91015625,721.6796875,805.6640625,0.0,0,0
1772035578.481249,1772035578.4271598,524.4140625,391.11328125,578.125,720.21484375,0.0,0,0
1772035578.481277,1772035578.4310546,-451.171875,-284.66796875,-433.10546875,-393.06640625,0.0,0,0
1772035578.4813051,1772035578.4349496,-786.62109375,-563.4765625,-799.31640625,-920.8984375,0.0,0,0
1772035578.481336,1772035578.4388444,-211.42578125,-141.6015625,-191.89453125,-300.78125,0.0,0,0
1772035578.481364,1772035578.4427392,563.96484375,433.10546875,628.41796875,659.66796875,0.0,0,0
1772035578.4813921,1772035578.446634,587.890625,437.98828125,679.19921875,819.82421875,0.0,0,0
1772035578.481419,1772035578.4505289,-388.18359375,-252.9296875,-324.21875,-269.53125,0.0,0,0
1772035578.481447,1772035578.4544237,-817.3828125,-540.52734375,-790.52734375,-936.5234375,0.0,0,0
1772035578.539781,1772035578.458438,-352.5390625,-209.47265625,-300.78125,-400.390625,0.0,0,0
1772035578.539904,1772035578.4623327,475.5859375,374.51171875,544.43359375,565.91796875,0.0,0,0
1772035578.5399659,1772035578.4662275,627.44140625,517.08984375,724.609375,823.73046875,0.0,0,0
1772035578.5400262,1772035578.4701226,-302.24609375,-114.2578125,-192.87109375,-175.78125,0.0,0,0
1772035578.540085,1772035578.4740174,-857.421875,-527.34375,-785.64453125,-940.91796875,0.0,0,0
1772035578.540143,1772035578.4779122,-512.6953125,-306.15234375,-418.9453125,-528.3203125,0.0,0,0
1772035578.540201,1772035578.481807,377.44140625,343.26171875,489.2578125,485.83984375,0.0,0,0
1772035578.5402591,1772035578.485702,637.6953125,541.9921875,742.1875,849.609375,0.0,0,0
1772035578.540315,1772035578.4895968,-170.41015625,-45.8984375,-79.58984375,-4.8828125,0.0,0,0
1772035578.540373,1772035578.4934916,-822.75390625,-524.90234375,-772.94921875,-897.4609375,0.0,0,0
1772035578.540431,1772035578.4973865,-587.890625,-385.25390625,-548.33984375,-667.48046875,0.0,0,0
1772035578.540491,1772035578.5012815,319.82421875,257.32421875,416.015625,413.57421875,0.0,0,0
1772035578.570152,1772035578.5052955,663.0859375,499.0234375,765.625,886.71875,0.0,0,0
1772035578.570266,1772035578.5091903,59.5703125,36.1328125,81.54296875,215.33203125,0.0,0,0
1772035578.570328,1772035578.5130854,-714.35546875,-479.4921875,-721.6796875,-757.8125,0.0,0,0
1772035578.570388,1772035578.5169802,-664.0625,-434.08203125,-663.0859375,-770.01953125,0.0,0,0
1772035578.5704489,1772035578.520875,337.40234375,256.8359375,348.14453125,338.8671875,0.0,0,0
1772035578.570507,1772035578.52477,728.02734375,550.29296875,772.94921875,908.69140625,0.0,0,0
1772035578.570567,1772035578.5286648,160.15625,130.859375,216.796875,317.87109375,0.0,0,0
1772035578.570625,1772035578.5325596,-640.625,-461.42578125,-626.46484375,-656.73828125,0.0,0,0
1772035578.570693,1772035578.5364547,-714.84375,-504.39453125,-715.8203125,-846.19140625,0.0,0,0
1772035578.570753,1772035578.5403495,240.72265625,182.6171875,257.32421875,210.44921875,0.0,0,0
1772035578.571073,1772035578.5442443,744.140625,556.640625,786.62109375,941.89453125,0.0,0,0
1772035578.571137,1772035578.5481393,298.33984375,249.51171875,338.8671875,467.7734375,0.0,0,0
1772035578.616265,1772035578.5521355,-564.94140625,-423.33984375,-570.80078125,-554.6875,0.0,0,0
1772035578.6163871,1772035578.5560305,-731.4453125,-558.10546875,-760.25390625,-869.62890625,0.0,0,0
1772035578.616454,1772035578.5599253,158.69140625,97.16796875,137.20703125,63.96484375,0.0,0,0
1772035578.6165152,1772035578.5638204,750.0,522.4609375,758.30078125,898.4375,0.0,0,0
1772035578.6165729,1772035578.5677152,430.17578125,305.17578125,405.2734375,543.45703125,0.0,0,0
1772035578.616632,1772035578.5716102,-460.9375,-353.515625,-531.73828125,-503.90625,0.0,0,0
1772035578.61669,1772035578.575505,-728.02734375,-551.7578125,-791.9921875,-883.30078125,0.0,0,0
1772035578.616749,1772035578.5793998,35.64453125,-34.66796875,-28.3203125,-107.421875,0.0,0,0
1772035578.616809,1772035578.5832949,688.96484375,452.1484375,699.21875,820.80078125,0.0,0,0
1772035578.616866,1772035578.5871897,499.0234375,364.74609375,513.18359375,677.734375,0.0,0,0
1772035578.6169229,1772035578.5910847,-430.17578125,-316.89453125,-463.8671875,-438.4765625,0.0,0,0
1772035578.61698,1772035578.5949795,-744.62890625,-566.40625,-794.921875,-908.203125,0.0,0,0
1772035578.66001,1772035578.5989766,-104.4921875,-101.5625,-143.5546875,-277.83203125,0.0,0,0
1772035578.660061,1772035578.6028717,624.51171875,468.26171875,671.38671875,685.546875,0.0,0,0
1772035578.660084,1772035578.6067665,564.453125,449.21875,646.484375,744.140625,0.0,0,0
1772035578.660106,1772035578.6106615,-423.828125,-268.06640625,-386.71875,-382.32421875,0.0,0,0
1772035578.660126,1772035578.6145563,-846.6796875,-552.734375,-815.4296875,-958.0078125,0.0,0,0
1772035578.6601448,1772035578.6184514,-376.953125,-188.4765625,-279.296875,-460.9375,0.0,0,0
1772035578.660162,1772035578.6223462,463.37890625,392.08984375,575.68359375,545.41015625,0.0,0,0
1772035578.66027,1772035578.626241,605.46875,492.67578125,691.89453125,790.0390625,0.0,0,0
1772035578.660293,1772035578.630136,-341.796875,-172.36328125,-293.45703125,-277.83203125,0.0,0,0
1772035578.6603122,1772035578.6340308,-821.77734375,-548.828125,-828.61328125,-960.9375,0.0,0,0
1772035578.660331,1772035578.6379259,-414.0625,-242.67578125,-394.53125,-543.9453125,0.0,0,0
1772035578.660396,1772035578.6418207,427.24609375,391.6015625,504.8828125,467.7734375,0.0,0,0
1772035578.718816,1772035578.645792,634.765625,541.50390625,739.2578125,833.984375,0.0,0,0
1772035578.7188559,1772035578.649687,-231.4453125,-69.3359375,-136.23046875,-93.75,0.0,0,0
1772035578.7188668,1772035578.6535819,-844.23828125,-513.18359375,-803.22265625,-929.6875,0.0,0,0
1772035578.71889,1772035578.657477,-544.43359375,-329.1015625,-508.7890625,-641.11328125,0.0,0,0
1772035578.718952,1772035578.6613717,395.99609375,312.5,447.265625,419.921875,0.0,0,0
1772035578.718965,1772035578.6652668,700.1953125,552.734375,769.04296875,858.88671875,0.0,0,0
1772035578.718975,1772035578.6691616,-7.32421875,28.80859375,17.08984375,107.91015625,0.0,0,0
1772035578.718986,1772035578.6730566,-731.93359375,-539.55078125,-757.32421875,-820.80078125,0.0,0,0
1772035578.718996,1772035578.6769516,-604.98046875,-423.828125,-610.83984375,-713.8671875,0.0,0,0
1772035578.719006,1772035578.6808465,373.046875,261.71875,385.7421875,386.23046875,0.0,0,0
1772035578.7190158,1772035578.6847415,726.07421875,523.4375,772.4609375,910.15625,0.0,0,0
1772035578.7190468,1772035578.6886363,111.81640625,126.46484375,161.62109375,328.61328125,0.0,0,0
1772035578.779027,1772035578.6926944,-681.15234375,-471.6796875,-681.15234375,-676.26953125,0.0,0,0
1772035578.7790642,1772035578.6965895,-684.5703125,-499.51171875,-691.89453125,-784.1796875,0.0,0,0
1772035578.779076,1772035578.7004843,303.22265625,171.875,314.453125,324.21875,0.0,0,0
1772035578.779087,1772035578.7043793,736.328125,519.53125,795.8984375,941.89453125,0.0,0,0
1772035578.779097,1772035578.7082744,263.18359375,218.75,292.96875,443.359375,0.0,0,0
1772035578.779107,1772035578.7121692,-571.2890625,-412.59765625,-597.65625,-568.359375,0.0,0,0
1772035578.779117,1772035578.7160642,-728.515625,-529.78515625,-761.71875,-856.93359375,0.0,0,0
1772035578.7791271,1772035578.7199593,169.921875,101.5625,172.36328125,120.1171875,0.0,0,0
1772035578.7791371,1772035578.723854,717.28515625,495.60546875,784.1796875,911.1328125,0.0,0,0
1772035578.779146,1772035578.727749,354.4921875,270.01953125,375.9765625,482.421875,0.0,0,0
1772035578.779156,1772035578.7316442,-526.3671875,-395.99609375,-557.6171875,-545.8984375,0.0,0,0
1772035578.779166,1772035578.735539,-744.140625,-588.37890625,-782.71484375,-880.37109375,0.0,0,0
1772035578.822911,1772035578.7396665,36.62109375,9.27734375,29.296875,-80.078125,0.0,0,0
1772035578.822952,1772035578.7435615,666.50390625,488.76953125,739.2578125,839.35546875,0.0,0,0
1772035578.822967,1772035578.7474566,482.91015625,338.8671875,493.1640625,623.046875,0.0,0,0
1772035578.8229802,1772035578.7513514,-450.1953125,-345.21484375,-498.046875,-468.26171875,0.0,0,0
1772035578.822994,1772035578.7552464,-760.7421875,-568.84765625,-803.7109375,-892.08984375,0.0,0,0
1772035578.823006,1772035578.7591414,-65.91796875,-66.40625,-117.67578125,-233.88671875,0.0,0,0
1772035578.82302,1772035578.7630365,677.24609375,457.03125,683.59375,729.00390625,0.0,0,0
1772035578.8230321,1772035578.7669315,573.2421875,379.39453125,604.98046875,737.79296875,0.0,0,0
1772035578.823045,1772035578.7708263,-429.19921875,-304.19921875,-432.12890625,-400.390625,0.0,0,0
1772035578.823057,1772035578.7747214,-765.13671875,-546.875,-817.87109375,-925.78125,0.0,0,0
1772035578.82307,1772035578.7786164,-202.63671875,-163.0859375,-271.484375,-398.4375,0.0,0,0
1772035578.823082,1772035578.7825115,571.77734375,405.2734375,568.84765625,568.359375,0.0,0,0
1772035578.8534248,1772035578.7865453,651.3671875,465.33203125,674.8046875,798.33984375,0.0,0,0
1772035578.8534558,1772035578.7904403,-308.10546875,-237.79296875,-326.171875,-299.31640625,0.0,0,0
1772035578.853472,1772035578.7943354,-769.53125,-593.26171875,-832.51953125,-958.984375,0.0,0,0
1772035578.853487,1772035578.7982304,-300.78125,-270.99609375,-350.09765625,-470.703125,0.0,0,0
1772035578.853503,1772035578.8021255,534.66796875,354.4921875,511.23046875,488.28125,0.0,0,0
1772035578.853517,1772035578.8060205,726.5625,518.06640625,705.56640625,793.9453125,0.0,0,0
1772035578.853531,1772035578.8099155,-148.92578125,-102.5390625,-158.203125,-144.53125,0.0,0,0
1772035578.853546,1772035578.8138106,-795.41015625,-575.1953125,-812.5,-945.3125,0.0,0,0
1772035578.853559,1772035578.8177056,-474.12109375,-375.9765625,-485.3515625,-622.0703125,0.0,0,0
1772035578.853573,1772035578.8216007,464.35546875,308.10546875,460.44921875,421.875,0.0,0,0
1772035578.853587,1772035578.8254957,743.65234375,530.2734375,749.51171875,850.5859375,0.0,0,0
1772035578.853601,1772035578.8293905,-27.34375,-20.5078125,-48.828125,35.15625,0.0,0,0
1772035578.90078,1772035578.8334057,-738.28125,-537.109375,-793.45703125,-868.1640625,0.0,0,0
1772035578.900828,1772035578.8373008,-543.9453125,-419.921875,-593.75,-734.86328125,0.0,0,0
1772035578.900845,1772035578.8411958,407.2265625,265.13671875,405.76171875,362.3046875,0.0,0,0
1772035578.900862,1772035578.8450909,727.5390625,516.6015625,760.7421875,880.37109375,0.0,0,0
1772035578.9008782,1772035578.848986,103.515625,73.2421875,100.09765625,194.82421875,0.0,0,0
1772035578.900894,1772035578.852881,-666.015625,-515.13671875,-711.42578125,-752.44140625,0.0,0,0
1772035578.90095,1772035578.856776,-672.8515625,-516.6015625,-698.73046875,-811.5234375,0.0,0,0
1772035578.900984,1772035578.860671,283.203125,193.359375,296.38671875,277.83203125,0.0,0,0
1772035578.9010031,1772035578.864566,724.609375,494.62890625,743.1640625,914.0625,0.0,0,0
1772035578.9010198,1772035578.8684611,214.84375,114.74609375,219.23828125,363.28125,0.0,0,0
1772035578.901036,1772035578.8723562,-618.1640625,-481.93359375,-621.58203125,-607.421875,0.0,0,0
1772035578.9010508,1772035578.8762512,-748.53515625,-549.31640625,-750.48828125,-868.65234375,0.0,0,0
1772035578.943661,1772035578.8802557,166.50390625,122.55859375,186.03515625,123.53515625,0.0,0,0
1772035578.943712,1772035578.884151,701.66015625,512.20703125,774.4140625,917.96875,0.0,0,0
1772035578.943733,1772035578.888046,322.75390625,251.46484375,377.44140625,500.9765625,0.0,0,0
1772035578.9437509,1772035578.891941,-534.1796875,-399.90234375,-546.875,-516.6015625,0.0,0,0
1772035578.943769,1772035578.895836,-733.3984375,-567.87109375,-771.484375,-877.44140625,0.0,0,0
1772035578.943788,1772035578.8997312,91.796875,51.26953125,75.68359375,-10.25390625,0.0,0,0
1772035578.943805,1772035578.9036262,690.4296875,500.0,747.55859375,879.39453125,0.0,0,0
1772035578.943823,1772035578.9075212,401.3671875,316.40625,444.3359375,593.26171875,0.0,0,0
1772035578.94384,1772035578.9114163,-512.20703125,-350.09765625,-522.94921875,-483.3984375,0.0,0,0
1772035578.943858,1772035578.9153113,-785.15625,-583.0078125,-800.78125,-876.953125,0.0,0,0
1772035578.943875,1772035578.9192064,-84.47265625,-66.40625,-97.16796875,-159.66796875,0.0,0,0
1772035578.943892,1772035578.9231014,663.57421875,466.30859375,684.08203125,774.90234375,0.0,0,0
1772035578.989568,1772035578.9270952,550.78125,391.6015625,563.4765625,713.37890625,0.0,0,0
1772035578.989599,1772035578.9309902,-420.41015625,-310.05859375,-462.40234375,-414.55078125,0.0,0,0
1772035578.98962,1772035578.9348853,-753.41796875,-579.58984375,-807.6171875,-925.29296875,0.0,0,0
1772035578.98964,1772035578.9387803,-180.17578125,-165.0390625,-223.6328125,-355.95703125,0.0,0,0
1772035578.989661,1772035578.9426754,607.421875,415.0390625,599.12109375,616.2109375,0.0,0,0
1772035578.989681,1772035578.9465704,663.57421875,469.23828125,674.31640625,791.50390625,0.0,0,0
1772035578.989704,1772035578.9504654,-341.796875,-248.046875,-351.5625,-313.96484375,0.0,0,0
1772035578.989724,1772035578.9543607,-772.4609375,-599.12109375,-837.890625,-957.03125,0.0,0,0
1772035578.9897442,1772035578.9582558,-272.4609375,-256.34765625,-342.28515625,-468.75,0.0,0,0
1772035578.9897642,1772035578.9621508,547.36328125,378.41796875,531.73828125,514.6484375,0.0,0,0
1772035578.989784,1772035578.9660459,740.72265625,531.73828125,727.5390625,835.9375,0.0,0,0
1772035578.989804,1772035578.969941,-173.828125,-136.23046875,-210.9375,-159.66796875,0.0,0,0
1772035579.079267,1772035578.9741042,-752.44140625,-576.171875,-830.078125,-955.56640625,0.0,0,0
1772035579.07937,1772035578.9779992,-371.58203125,-305.17578125,-447.75390625,-595.21484375,0.0,0,0
1772035579.0794082,1772035578.9818943,493.1640625,349.609375,484.86328125,437.5,0.0,0,0
1772035579.079447,1772035578.9857895,730.46875,520.01953125,754.8828125,843.26171875,0.0,0,0
1772035579.079482,1772035578.9896846,-49.31640625,-56.15234375,-46.875,-9.765625,0.0,0,0
1772035579.079516,1772035578.9935796,-719.23828125,-537.59765625,-770.99609375,-893.06640625,0.0,0,0
1772035579.07955,1772035578.997475,-515.625,-387.6953125,-579.1015625,-735.3515625,0.0,0,0
1772035579.079583,1772035579.00137,405.76171875,273.92578125,399.90234375,349.12109375,0.0,0,0
1772035579.079617,1772035579.0052652,745.1171875,522.4609375,755.37109375,863.28125,0.0,0,0
1772035579.079655,1772035579.0091603,81.0546875,56.640625,66.40625,147.4609375,0.0,0,0
1772035579.0796878,1772035579.0130553,-680.6640625,-502.9296875,-724.609375,-781.73828125,0.0,0,0
1772035579.079721,1772035579.0169506,-609.375,-476.5625,-662.59765625,-798.828125,0.0,0,0
1772035579.094141,1772035579.0209382,334.9609375,206.54296875,345.21484375,305.17578125,0.0,0,0
1772035579.094217,1772035579.0248334,702.1484375,520.5078125,769.04296875,914.0625,0.0,0,0
1772035579.0942469,1772035579.0287285,155.76171875,141.11328125,202.1484375,327.63671875,0.0,0,0
1772035579.0942762,1772035579.0326235,-644.04296875,-475.09765625,-645.01953125,-647.4609375,0.0,0,0
1772035579.094305,1772035579.0365188,-727.05078125,-549.8046875,-743.65234375,-845.21484375,0.0,0,0
1772035579.094338,1772035579.0404139,231.4453125,158.203125,239.2578125,202.63671875,0.0,0,0
1772035579.094365,1772035579.0443091,736.328125,535.15625,766.11328125,926.26953125,0.0,0,0
1772035579.094393,1772035579.0482042,315.91796875,207.03125,296.875,448.73046875,0.0,0,0
1772035579.094419,1772035579.0520992,-544.921875,-433.10546875,-574.70703125,-547.36328125,0.0,0,0
1772035579.0944462,1772035579.0559945,-751.953125,-573.73046875,-779.296875,-882.32421875,0.0,0,0
1772035579.094473,1772035579.0598896,127.9296875,75.1953125,86.42578125,15.625,0.0,0,0
1772035579.094499,1772035579.0637848,753.41796875,525.390625,757.8125,891.11328125,0.0,0,0
1772035579.1389482,1772035579.0678313,433.10546875,311.5234375,445.3125,579.58984375,0.0,0,0
1772035579.139125,1772035579.0717263,-492.1875,-349.609375,-508.7890625,-479.98046875,0.0,0,0
1772035579.1391912,1772035579.0756216,-758.30078125,-563.4765625,-790.0390625,-882.8125,0.0,0,0
1772035579.1392379,1772035579.0795166,-19.53125,-54.6875,-41.9921875,-126.953125,0.0,0,0
1772035579.139283,1772035579.083412,683.59375,448.2421875,710.44921875,809.5703125,0.0,0,0
1772035579.139328,1772035579.087307,527.34375,380.859375,546.38671875,682.6171875,0.0,0,0
1772035579.13937,1772035579.0912023,-451.171875,-312.5,-462.890625,-442.87109375,0.0,0,0
1772035579.139411,1772035579.0950973,-778.80859375,-586.9140625,-811.03515625,-904.78515625,0.0,0,0
1772035579.139481,1772035579.0989926,-162.59765625,-141.11328125,-193.84765625,-275.390625,0.0,0,0
1772035579.139543,1772035579.1028876,601.5625,429.6875,619.140625,678.22265625,0.0,0,0
1772035579.139593,1772035579.106783,595.703125,454.1015625,634.765625,773.92578125,0.0,0,0
1772035579.1396532,1772035579.110678,-387.6953125,-260.7421875,-380.37109375,-351.07421875,0.0,0,0
1772035579.1867049,1772035579.1147177,-789.55078125,-585.9375,-821.2890625,-947.75390625,0.0,0,0
1772035579.186859,1772035579.1186128,-299.31640625,-243.1640625,-318.359375,-432.12890625,0.0,0,0
1772035579.186922,1772035579.122508,525.87890625,361.328125,542.96875,543.9453125,0.0,0,0
1772035579.1869812,1772035579.1264033,686.5234375,500.0,709.9609375,822.75390625,0.0,0,0
1772035579.187038,1772035579.1302984,-252.44140625,-168.9453125,-255.37109375,-196.2890625,0.0,0,0
1772035579.1871061,1772035579.1341937,-780.2734375,-565.91796875,-824.70703125,-947.265625,0.0,0,0
1772035579.187165,1772035579.138089,-399.4140625,-291.50390625,-427.734375,-560.546875,0.0,0,0
1772035579.1872241,1772035579.141984,468.26171875,334.47265625,481.4453125,455.56640625,0.0,0,0
1772035579.1873002,1772035579.1458793,698.2421875,520.5078125,724.12109375,847.65625,0.0,0,0
1772035579.187357,1772035579.1497743,-141.6015625,-69.3359375,-122.0703125,-41.50390625,0.0,0,0
1772035579.187414,1772035579.1536696,-786.1328125,-575.1953125,-804.6875,-914.55078125,0.0,0,0
1772035579.1874712,1772035579.1575649,-542.96875,-396.97265625,-541.015625,-645.5078125,0.0,0,0
1772035579.229315,1772035579.1615925,400.390625,279.78515625,420.41015625,420.8984375,0.0,0,0
1772035579.229503,1772035579.1654875,729.4921875,531.25,740.234375,866.2109375,0.0,0,0
1772035579.229558,1772035579.1693828,39.0625,45.41015625,35.64453125,140.625,0.0,0,0
1772035579.229601,1772035579.173278,-722.16796875,-511.71875,-739.74609375,-807.6171875,0.0,0,0
1772035579.2296371,1772035579.1771734,-643.5546875,-447.265625,-647.94921875,-761.71875,0.0,0,0
1772035579.229674,1772035579.1810684,346.19140625,263.671875,365.72265625,351.5625,0.0,0,0
1772035579.229708,1772035579.1849637,717.7734375,525.87890625,769.53125,891.11328125,0.0,0,0
1772035579.229741,1772035579.188859,144.04296875,99.609375,179.6875,292.48046875,0.0,0,0
1772035579.2298,1772035579.192754,-639.6484375,-471.6796875,-654.296875,-662.109375,0.0,0,0
1772035579.229859,1772035579.1966493,-712.890625,-511.71875,-727.5390625,-822.75390625,0.0,0,0
1772035579.2298958,1772035579.2005446,248.046875,185.05859375,263.18359375,247.55859375,0.0,0,0
1772035579.229931,1772035579.2044399,730.95703125,542.48046875,762.6953125,924.31640625,0.0,0,0
1772035579.274981,1772035579.2084613,288.0859375,227.05078125,289.0625,466.796875,0.0,0,0
1772035579.27507,1772035579.2123566,-558.10546875,-407.71484375,-569.82421875,-529.78515625,0.0,0,0
1772035579.275111,1772035579.2162516,-743.1640625,-551.26953125,-750.9765625,-854.4921875,0.0,0,0
1772035579.2752588,1772035579.220147,140.625,89.35546875,132.8125,112.3046875,0.0,0,0
1772035579.275299,1772035579.2240422,713.8671875,518.06640625,750.0,920.8984375,0.0,0,0
1772035579.2753348,1772035579.2279375,374.0234375,282.2265625,403.3203125,562.01171875,0.0,0,0
1772035579.275376,1772035579.2318327,-506.34765625,-372.0703125,-523.92578125,-484.86328125,0.0,0,0
1772035579.275412,1772035579.2357278,-737.3046875,-550.78125,-775.390625,-880.859375,0.0,0,0
1772035579.275448,1772035579.239623,11.71875,8.30078125,-8.30078125,-85.9375,0.0,0,0
1772035579.275483,1772035579.2435184,674.8046875,500.9765625,699.70703125,837.890625,0.0,0,0
1772035579.275518,1772035579.2474136,509.27734375,388.671875,516.11328125,680.6640625,0.0,0,0
1772035579.275554,1772035579.2513087,-425.29296875,-308.10546875,-452.1484375,-425.78125,0.0,0,0
1772035579.321682,1772035579.2553136,-773.92578125,-587.890625,-797.8515625,-912.59765625,0.0,0,0
1772035579.321829,1772035579.259209,-126.953125,-127.9296875,-170.8984375,-284.1796875,0.0,0,0
1772035579.321897,1772035579.2631042,648.92578125,451.66015625,632.32421875,690.4296875,0.0,0,0
1772035579.321944,1772035579.2669995,599.609375,445.3125,601.07421875,748.046875,0.0,0,0
1772035579.321986,1772035579.2708948,-381.34765625,-276.3671875,-410.15625,-389.6484375,0.0,0,0
1772035579.322028,1772035579.2747898,-748.53515625,-577.1484375,-814.453125,-939.94140625,0.0,0,0
1772035579.322072,1772035579.278685,-211.42578125,-198.73046875,-283.69140625,-404.78515625,0.0,0,0
1772035579.3221152,1772035579.2825804,583.0078125,398.92578125,561.03515625,565.91796875,0.0,0,0
1772035579.3221602,1772035579.2864757,716.30859375,491.2109375,679.19921875,785.64453125,0.0,0,0
1772035579.322201,1772035579.290371,-240.72265625,-220.21484375,-290.0390625,-277.34375,0.0,0,0
1772035579.3222451,1772035579.2942662,-730.46875,-614.2578125,-810.05859375,-955.078125,0.0,0,0
1772035579.3222861,1772035579.2981615,-286.62109375,-323.73046875,-398.4375,-521.97265625,0.0,0,0
1772035579.3806531,1772035579.3021576,533.69140625,328.61328125,496.09375,481.4453125,0.0,0,0
1772035579.380803,1772035579.306053,744.62890625,516.11328125,736.81640625,833.49609375,0.0,0,0
1772035579.380932,1772035579.3099482,-108.88671875,-99.12109375,-135.25390625,-93.75,0.0,0,0
1772035579.381054,1772035579.3138435,-718.26171875,-567.87109375,-797.36328125,-923.828125,0.0,0,0
1772035579.381129,1772035579.3177388,-433.59375,-368.1640625,-520.5078125,-654.296875,0.0,0,0
1772035579.381189,1772035579.321634,432.12890625,310.05859375,428.22265625,403.80859375,0.0,0,0
1772035579.381248,1772035579.3255293,743.65234375,535.15625,752.9296875,853.515625,0.0,0,0
1772035579.381305,1772035579.3294246,49.8046875,-7.8125,11.71875,54.6875,0.0,0,0
1772035579.381411,1772035579.33332,-658.203125,-546.38671875,-737.79296875,-845.703125,0.0,0,0
1772035579.3814778,1772035579.3372152,-549.31640625,-463.37890625,-613.76953125,-771.484375,0.0,0,0
1772035579.381525,1772035579.3411102,375.48828125,251.953125,366.69921875,310.546875,0.0,0,0
1772035579.381572,1772035579.3450055,744.140625,532.71484375,745.1171875,884.27734375,0.0,0,0
1772035579.424968,1772035579.3490026,154.78515625,90.8203125,125.0,250.0,0.0,0,0
1772035579.4250891,1772035579.352898,-649.90234375,-500.48828125,-684.5703125,-700.68359375,0.0,0,0
1772035579.425153,1772035579.3567932,-673.33984375,-523.4375,-709.47265625,-847.65625,0.0,0,0
1772035579.425212,1772035579.3606884,300.29296875,189.94140625,273.92578125,224.609375,0.0,0,0
1772035579.425256,1772035579.3645837,737.79296875,515.13671875,749.0234375,911.1328125,0.0,0,0
1772035579.425298,1772035579.368479,255.37109375,181.15234375,268.06640625,370.60546875,0.0,0,0
1772035579.425341,1772035579.3723743,-581.54296875,-426.7578125,-585.9375,-596.6796875,0.0,0,0
1772035579.425385,1772035579.3762696,-752.9296875,-582.51953125,-766.11328125,-868.1640625,0.0,0,0
1772035579.425432,1772035579.3801649,154.78515625,78.61328125,152.83203125,100.5859375,0.0,0,0
1772035579.425476,1772035579.3840601,722.16796875,520.99609375,745.60546875,912.59765625,0.0,0,0
1772035579.4255202,1772035579.3879554,363.76953125,279.78515625,356.93359375,511.71875,0.0,0,0
1772035579.425565,1772035579.3918507,-507.32421875,-391.6015625,-541.9921875,-511.23046875,0.0,0,0
1772035579.469964,1772035579.395838,-774.4140625,-603.02734375,-796.875,-887.6953125,0.0,0,0
1772035579.470088,1772035579.3997333,-1.46484375,2.44140625,-3.90625,-104.00390625,0.0,0,0
1772035579.4701371,1772035579.4036286,670.8984375,505.37109375,709.9609375,827.1484375,0.0,0,0
1772035579.4701838,1772035579.4075239,442.87109375,339.84375,465.33203125,625.48828125,0.0,0,0
1772035579.47023,1772035579.4114192,-485.83984375,-360.3515625,-494.140625,-472.16796875,0.0,0,0
1772035579.470273,1772035579.4153144,-765.625,-594.7265625,-795.8984375,-889.6484375,0.0,0,0
1772035579.4703171,1772035579.4192097,-98.14453125,-95.703125,-132.8125,-211.42578125,0.0,0,0
1772035579.470361,1772035579.4231052,633.7890625,438.96484375,644.04296875,734.86328125,0.0,0,0
1772035579.470418,1772035579.4270005,572.265625,395.5078125,569.3359375,722.65625,0.0,0,0
1772035579.4704618,1772035579.4308958,-399.4140625,-310.546875,-420.41015625,-395.5078125,0.0,0,0
1772035579.470506,1772035579.434791,-770.01953125,-598.14453125,-795.41015625,-923.828125,0.0,0,0
1772035579.470551,1772035579.4386864,-212.890625,-192.3828125,-256.8359375,-365.72265625,0.0,0,0
1772035579.530586,1772035579.4428253,570.80078125,401.3671875,565.4296875,596.6796875,0.0,0,0
1772035579.5307178,1772035579.4467206,644.53125,471.19140625,649.4140625,817.3828125,0.0,0,0
1772035579.5307672,1772035579.450616,-299.31640625,-228.02734375,-321.77734375,-250.9765625,0.0,0,0
1772035579.5308118,1772035579.4545112,-777.83203125,-604.00390625,-812.5,-954.1015625,0.0,0,0
1772035579.530856,1772035579.4584067,-359.375,-292.96875,-375.48828125,-508.30078125,0.0,0,0
1772035579.530901,1772035579.462302,488.28125,362.79296875,506.34765625,488.76953125,0.0,0,0
1772035579.530945,1772035579.4661973,673.828125,506.34765625,706.0546875,840.8203125,0.0,0,0
1772035579.530987,1772035579.4700925,-212.40234375,-165.52734375,-179.6875,-99.609375,0.0,0,0
1772035579.531057,1772035579.473988,-769.53125,-584.47265625,-783.69140625,-924.31640625,0.0,0,0
1772035579.5311282,1772035579.4778833,-458.49609375,-331.0546875,-465.8203125,-606.93359375,0.0,0,0
1772035579.5311701,1772035579.4817786,416.9921875,326.66015625,446.77734375,428.7109375,0.0,0,0
1772035579.531212,1772035579.485674,703.61328125,541.015625,745.60546875,862.3046875,0.0,0,0
1772035579.559684,1772035579.4897132,-48.33984375,-27.34375,-22.94921875,89.84375,0.0,0,0
1772035579.5597792,1772035579.4936085,-737.3046875,-551.26953125,-738.28125,-842.7734375,0.0,0,0
1772035579.559838,1772035579.4975038,-579.1015625,-421.38671875,-554.6875,-714.35546875,0.0,0,0
1772035579.559896,1772035579.5013993,373.046875,259.27734375,389.16015625,389.16015625,0.0,0,0
1772035579.559953,1772035579.5052946,742.67578125,539.0625,740.234375,884.27734375,0.0,0,0
1772035579.56001,1772035579.5091898,90.8203125,84.47265625,107.421875,228.515625,0.0,0,0
1772035579.560072,1772035579.5130854,-686.5234375,-496.09375,-682.12890625,-726.07421875,0.0,0,0
1772035579.560132,1772035579.5169806,-654.78515625,-489.2578125,-667.96875,-794.43359375,0.0,0,0
1772035579.560195,1772035579.520876,288.0859375,196.2890625,291.50390625,295.8984375,0.0,0,0
1772035579.560255,1772035579.5247715,707.03125,520.5078125,719.7265625,915.52734375,0.0,0,0
1772035579.5603142,1772035579.5286667,215.33203125,180.6640625,219.23828125,376.46484375,0.0,0,0
1772035579.560373,1772035579.532562,-600.5859375,-440.91796875,-608.3984375,-602.05078125,0.0,0,0
1772035579.6064708,1772035579.5365863,-715.33203125,-543.9453125,-737.79296875,-851.07421875,0.0,0,0
1772035579.606574,1772035579.5404818,192.87109375,134.765625,174.31640625,152.83203125,0.0,0,0
1772035579.606634,1772035579.544377,697.265625,532.71484375,725.09765625,912.59765625,0.0,0,0
1772035579.606692,1772035579.5482724,317.3828125,264.6484375,346.19140625,502.44140625,0.0,0,0
1772035579.6067488,1772035579.552168,-531.73828125,-393.06640625,-539.0625,-510.7421875,0.0,0,0
1772035579.606972,1772035579.5560632,-748.046875,-535.64453125,-758.30078125,-869.62890625,0.0,0,0
1772035579.607039,1772035579.5599587,65.4296875,71.2890625,65.91796875,1.953125,0.0,0,0
1772035579.6070988,1772035579.563854,706.54296875,518.5546875,721.19140625,874.0234375,0.0,0,0
1772035579.607171,1772035579.5677493,475.5859375,340.33203125,455.56640625,609.86328125,0.0,0,0
1772035579.6072278,1772035579.5716448,-443.84765625,-365.72265625,-490.234375,-461.9140625,0.0,0,0
1772035579.607286,1772035579.57554,-737.79296875,-591.796875,-778.80859375,-888.18359375,0.0,0,0
1772035579.6073432,1772035579.5794356,-42.96875,-53.7109375,-86.9140625,-184.5703125,0.0,0,0
1772035579.648875,1772035579.5834448,667.48046875,518.06640625,663.57421875,759.765625,0.0,0,0
1772035579.649,1772035579.58734,559.08203125,437.5,546.38671875,720.21484375,0.0,0,0
1772035579.6490471,1772035579.5912356,-398.4375,-305.6640625,-439.94140625,-384.27734375,0.0,0,0
1772035579.6490922,1772035579.595131,-731.93359375,-568.84765625,-783.69140625,-931.640625,0.0,0,0
1772035579.6491368,1772035579.5990264,-161.1328125,-130.37109375,-207.03125,-392.578125,0.0,0,0
1772035579.649179,1772035579.6029217,590.8203125,458.984375,598.14453125,599.12109375,0.0,0,0
1772035579.649222,1772035579.6068172,619.62890625,474.609375,634.27734375,773.4375,0.0,0,0
1772035579.649264,1772035579.6107125,-332.03125,-255.37109375,-353.515625,-332.03125,0.0,0,0
1772035579.649306,1772035579.614608,-764.16015625,-583.984375,-799.31640625,-954.1015625,0.0,0,0
1772035579.649348,1772035579.6185033,-307.6171875,-247.0703125,-330.56640625,-479.4921875,0.0,0,0
1772035579.64939,1772035579.6223989,519.53125,397.94921875,529.78515625,503.90625,0.0,0,0
1772035579.649431,1772035579.6262941,683.10546875,525.87890625,697.265625,836.42578125,0.0,0,0
1772035579.694145,1772035579.630294,-178.7109375,-155.2734375,-220.21484375,-135.25390625,0.0,0,0
1772035579.6942568,1772035579.6341894,-730.95703125,-549.8046875,-786.1328125,-929.6875,0.0,0,0
1772035579.694294,1772035579.638085,-403.80859375,-324.70703125,-443.359375,-561.03515625,0.0,0,0
1772035579.694329,1772035579.6419804,477.05078125,313.96484375,449.70703125,456.54296875,0.0,0,0
1772035579.6943629,1772035579.6458757,733.3984375,529.296875,725.5859375,863.76953125,0.0,0,0
1772035579.694397,1772035579.6497712,-50.78125,-34.1796875,-61.03515625,67.87109375,0.0,0,0
1772035579.6944408,1772035579.6536665,-712.40234375,-546.875,-750.0,-858.3984375,0.0,0,0
1772035579.694477,1772035579.657562,-500.0,-388.18359375,-533.203125,-705.56640625,0.0,0,0
1772035579.69451,1772035579.6614573,400.390625,302.734375,406.73828125,383.7890625,0.0,0,0
1772035579.6945431,1772035579.6653528,702.63671875,542.48046875,739.74609375,863.76953125,0.0,0,0
1772035579.694576,1772035579.6692483,60.546875,69.82421875,78.125,160.64453125,0.0,0,0
1772035579.6946108,1772035579.6731436,-659.1796875,-509.765625,-701.66015625,-774.4140625,0.0,0,0
1772035579.7399669,1772035579.6771317,-589.35546875,-485.3515625,-643.5546875,-783.69140625,0.0,0,0
1772035579.740122,1772035579.681027,350.09765625,247.0703125,331.0546875,311.5234375,0.0,0,0
1772035579.740191,1772035579.6849225,732.421875,564.453125,735.83984375,899.90234375,0.0,0,0
1772035579.740254,1772035579.6888177,203.61328125,158.203125,191.40625,314.453125,0.0,0,0
1772035579.740319,1772035579.6927133,-599.609375,-477.5390625,-634.27734375,-641.11328125,0.0,0,0
1772035579.7403781,1772035579.6966088,-686.5234375,-541.9921875,-740.234375,-866.2109375,0.0,0,0
1772035579.740426,1772035579.700504,216.30859375,192.87109375,197.265625,127.44140625,0.0,0,0
1772035579.740468,1772035579.7043996,669.921875,534.66796875,703.61328125,902.34375,0.0,0,0
1772035579.74051,1772035579.708295,270.5078125,217.28515625,281.25,449.70703125,0.0,0,0
1772035579.740551,1772035579.7121904,-541.015625,-403.80859375,-565.4296875,-554.19921875,0.0,0,0
1772035579.740602,1772035579.716086,-729.98046875,-561.5234375,-766.11328125,-864.74609375,0.0,0,0
1772035579.740644,1772035579.7199812,93.26171875,79.1015625,73.73046875,18.5546875,0.0,0,0
1772035579.829634,1772035579.7239609,641.6015625,516.11328125,676.26953125,867.67578125,0.0,0,0
1772035579.829775,1772035579.7278564,350.09765625,298.33984375,377.44140625,564.453125,0.0,0,0
1772035579.829825,1772035579.7317517,-498.046875,-338.37890625,-502.44140625,-482.421875,0.0,0,0
1772035579.829869,1772035579.7356472,-774.90234375,-558.59375,-768.06640625,-883.7890625,0.0,0,0
1772035579.829912,1772035579.7395427,-61.03515625,-44.921875,-62.5,-166.9921875,0.0,0,0
1772035579.830005,1772035579.743438,617.1875,478.02734375,612.79296875,763.671875,0.0,0,0
1772035579.830082,1772035579.7473335,460.44921875,376.46484375,461.9140625,681.640625,0.0,0,0
1772035579.8302011,1772035579.751229,-418.45703125,-299.31640625,-432.12890625,-414.55078125,0.0,0,0
1772035579.8302772,1772035579.7551243,-723.14453125,-554.19921875,-757.8125,-914.55078125,0.0,0,0
1772035579.830326,1772035579.7590199,-186.5234375,-123.046875,-206.0546875,-345.21484375,0.0,0,0
1772035579.830407,1772035579.7629154,530.2734375,453.61328125,541.9921875,621.09375,0.0,0,0
1772035579.8304582,1772035579.7668107,549.8046875,458.49609375,564.453125,741.2109375,0.0,0,0
1772035579.842593,1772035579.7707973,-361.81640625,-241.2109375,-343.26171875,-357.421875,0.0,0,0
1772035579.842719,1772035579.7746928,-744.62890625,-532.71484375,-749.51171875,-948.73046875,0.0,0,0
1772035579.842787,1772035579.7785883,-290.52734375,-203.61328125,-314.94140625,-484.375,0.0,0,0
1772035579.84285,1772035579.7824836,479.4921875,363.28125,458.984375,498.53515625,0.0,0,0
1772035579.84291,1772035579.786379,622.0703125,481.93359375,610.3515625,807.12890625,0.0,0,0
1772035579.8429692,1772035579.7902746,-221.6796875,-134.27734375,-233.3984375,-180.17578125,0.0,0,0
1772035579.843029,1772035579.7941701,-724.12109375,-511.71875,-742.67578125,-922.36328125,0.0,0,0
1772035579.8430889,1772035579.7980654,-373.53515625,-277.83203125,-417.48046875,-573.2421875,0.0,0,0
1772035579.8431659,1772035579.801961,429.19921875,318.359375,383.30078125,439.94140625,0.0,0,0
1772035579.8432431,1772035579.8058565,642.08984375,514.6484375,621.58203125,834.9609375,0.0,0,0
1772035579.843314,1772035579.809752,-91.30859375,-33.203125,-121.09375,-4.39453125,0.0,0,0
1772035579.84338,1772035579.8136473,-683.10546875,-511.23046875,-746.09375,-863.28125,0.0,0,0
1772035579.8898518,1772035579.8176873,-458.984375,-346.6796875,-517.578125,-683.10546875,0.0,0,0
1772035579.889986,1772035579.8215828,370.60546875,290.52734375,338.8671875,378.41796875,0.0,0,0
1772035579.890049,1772035579.8254783,651.85546875,529.78515625,645.01953125,858.3984375,0.0,0,0
1772035579.8901088,1772035579.8293738,37.109375,72.75390625,23.92578125,151.85546875,0.0,0,0
1772035579.890168,1772035579.8332694,-651.3671875,-454.58984375,-675.78125,-765.625,0.0,0,0
1772035579.890226,1772035579.8371649,-577.1484375,-389.6484375,-588.8671875,-788.0859375,0.0,0,0
1772035579.890284,1772035579.8410604,293.9453125,240.72265625,274.4140625,278.80859375,0.0,0,0
1772035579.890342,1772035579.8449557,663.0859375,509.765625,638.18359375,877.9296875,0.0,0,0
1772035579.8904,1772035579.8488512,156.25,164.0625,149.4140625,324.70703125,0.0,0,0
1772035579.890458,1772035579.8527467,-601.5625,-412.59765625,-621.09375,-617.1875,0.0,0,0
1772035579.8905358,1772035579.8566422,-659.1796875,-473.14453125,-695.80078125,-834.47265625,0.0,0,0
1772035579.890595,1772035579.8605378,214.35546875,160.15625,174.8046875,194.82421875,0.0,0,0
1772035579.9343512,1772035579.86457,653.3203125,500.48828125,628.90625,903.80859375,0.0,0,0
1772035579.934494,1772035579.8684654,253.41796875,231.93359375,233.3984375,436.5234375,0.0,0,0
1772035579.9345431,1772035579.872361,-541.9921875,-363.28125,-571.2890625,-544.921875,0.0,0,0
1772035579.934588,1772035579.8762565,-722.65625,-527.83203125,-751.953125,-869.140625,0.0,0,0
1772035579.9346309,1772035579.880152,82.51953125,78.61328125,65.91796875,16.11328125,0.0,0,0
1772035579.934675,1772035579.8840475,619.140625,526.3671875,641.11328125,852.05078125,0.0,0,0
1772035579.934717,1772035579.887943,337.40234375,304.6875,349.609375,559.08203125,0.0,0,0
1772035579.934905,1772035579.8918386,-495.60546875,-364.74609375,-516.11328125,-474.12109375,0.0,0,0
1772035579.934952,1772035579.895734,-748.53515625,-566.40625,-783.203125,-880.37109375,0.0,0,0
1772035579.934995,1772035579.8996296,-26.3671875,2.44140625,-62.98828125,-131.8359375,0.0,0,0
1772035579.935037,1772035579.903525,600.09765625,494.62890625,592.28515625,785.15625,0.0,0,0
1772035579.9350789,1772035579.9074206,445.3125,368.1640625,433.10546875,662.59765625,0.0,0,0
1772035579.981481,1772035579.9114454,-405.76171875,-294.921875,-449.21875,-430.17578125,0.0,0,0
1772035579.981633,1772035579.915341,-720.21484375,-539.0625,-773.4375,-896.484375,0.0,0,0
1772035579.9817002,1772035579.9192364,-138.671875,-107.421875,-187.01171875,-290.0390625,0.0,0,0
1772035579.98176,1772035579.923132,556.15234375,423.828125,554.19921875,656.73828125,0.0,0,0
1772035579.981819,1772035579.9270277,528.3203125,421.38671875,539.0625,764.16015625,0.0,0,0
1772035579.98188,1772035579.9309232,-366.2109375,-260.25390625,-377.9296875,-333.49609375,0.0,0,0
1772035579.9819388,1772035579.9348187,-733.88671875,-564.94140625,-777.34375,-925.29296875,0.0,0,0
1772035579.981998,1772035579.9387143,-271.484375,-209.47265625,-320.3125,-430.6640625,0.0,0,0
1772035579.982056,1772035579.9426098,472.16796875,375.0,462.890625,522.94921875,0.0,0,0
1772035579.982116,1772035579.9465053,598.6328125,487.79296875,598.6328125,812.98828125,0.0,0,0
1772035579.982174,1772035579.9504008,-261.71875,-157.2265625,-281.25,-194.82421875,0.0,0,0
1772035579.9822621,1772035579.9542964,-740.72265625,-550.78125,-795.8984375,-920.8984375,0.0,0,0
1772035580.026298,1772035579.958312,-375.0,-292.48046875,-430.6640625,-542.96875,0.0,0,0
1772035580.026419,1772035579.9622076,402.83203125,307.12890625,403.3203125,446.77734375,0.0,0,0
1772035580.026471,1772035579.966103,629.8828125,492.67578125,635.25390625,837.890625,0.0,0,0
1772035580.026518,1772035579.9699988,-131.8359375,-85.44921875,-143.5546875,-30.76171875,0.0,0,0
1772035580.026561,1772035579.9738944,-711.9140625,-525.87890625,-742.67578125,-877.44140625,0.0,0,0
1772035580.0266051,1772035579.9777899,-454.1015625,-353.02734375,-513.671875,-651.3671875,0.0,0,0
1772035580.026648,1772035579.9816854,391.11328125,277.83203125,348.14453125,397.4609375,0.0,0,0
1772035580.02669,1772035579.985581,654.78515625,521.484375,645.99609375,862.79296875,0.0,0,0
1772035580.0267332,1772035579.9894764,-36.1328125,12.6953125,-32.2265625,127.44140625,0.0,0,0
1772035580.026776,1772035579.993372,-685.05859375,-532.71484375,-717.28515625,-796.38671875,0.0,0,0
1772035580.026818,1772035579.9972675,-543.45703125,-458.984375,-604.98046875,-749.0234375,0.0,0,0
1772035580.02686,1772035580.001163,312.98828125,230.95703125,292.48046875,320.3125,0.0,0,0
1772035580.069343,1772035580.0051656,643.5546875,515.13671875,655.2734375,882.32421875,0.0,0,0
1772035580.0694652,1772035580.009061,123.046875,109.86328125,116.69921875,279.296875,0.0,0,0
1772035580.069539,1772035580.0129566,-605.95703125,-462.40234375,-637.6953125,-672.8515625,0.0,0,0
1772035580.069587,1772035580.0168524,-624.0234375,-494.62890625,-675.78125,-842.28515625,0.0,0,0
1772035580.0696352,1772035580.020748,276.85546875,153.80859375,198.2421875,187.5,0.0,0,0
1772035580.069678,1772035580.0246434,689.94140625,493.65234375,653.3203125,894.53125,0.0,0,0
1772035580.06972,1772035580.028539,274.4140625,207.51953125,249.51171875,401.85546875,0.0,0,0
1772035580.0697632,1772035580.0324345,-490.72265625,-409.1796875,-571.77734375,-572.75390625,0.0,0,0
1772035580.0698051,1772035580.03633,-657.71484375,-553.7109375,-731.93359375,-852.5390625,0.0,0,0
1772035580.069847,1772035580.0402257,165.52734375,67.3828125,105.95703125,80.56640625,0.0,0,0
1772035580.06989,1772035580.0441213,689.94140625,497.0703125,654.78515625,883.7890625,0.0,0,0
1772035580.069931,1772035580.0480168,365.234375,257.32421875,345.21484375,549.31640625,0.0,0,0
1772035580.131017,1772035580.0521019,-458.984375,-402.34375,-520.99609375,-483.88671875,0.0,0,0
1772035580.1311219,1772035580.0559974,-681.640625,-578.125,-767.08984375,-864.2578125,0.0,0,0
1772035580.131166,1772035580.059893,56.15234375,-5.37109375,-7.32421875,-50.78125,0.0,0,0
1772035580.131209,1772035580.0637884,663.0859375,461.42578125,650.390625,830.078125,0.0,0,0
1772035580.131263,1772035580.0676842,461.9140625,318.359375,456.54296875,693.84765625,0.0,0,0
1772035580.131305,1772035580.0715797,-408.69140625,-333.49609375,-440.91796875,-391.11328125,0.0,0,0
1772035580.131348,1772035580.0754752,-699.70703125,-589.84375,-770.5078125,-879.8828125,0.0,0,0
1772035580.131402,1772035580.079371,-76.171875,-127.9296875,-145.01953125,-201.66015625,0.0,0,0
1772035580.131454,1772035580.0832665,603.515625,414.0625,586.42578125,714.35546875,0.0,0,0
1772035580.131495,1772035580.087162,550.29296875,384.27734375,536.1328125,760.7421875,0.0,0,0
1772035580.1315358,1772035580.0910578,-349.12109375,-288.0859375,-369.140625,-330.56640625,0.0,0,0
1772035580.1315782,1772035580.0949533,-712.40234375,-593.75,-770.99609375,-913.57421875,0.0,0,0
1772035580.1602838,1772035580.0989406,-224.609375,-232.421875,-288.0859375,-361.81640625,0.0,0,0
1772035580.160383,1772035580.1028361,521.484375,360.3515625,494.140625,583.984375,0.0,0,0
1772035580.160438,1772035580.106732,640.13671875,447.265625,600.09765625,814.453125,0.0,0,0
1772035580.160482,1772035580.1106274,-221.19140625,-230.95703125,-284.1796875,-208.984375,0.0,0,0
1772035580.160525,1772035580.114523,-677.24609375,-585.9375,-756.34765625,-915.52734375,0.0,0,0
1772035580.160567,1772035580.1184187,-294.43359375,-271.484375,-366.2109375,-489.2578125,0.0,0,0
1772035580.16061,1772035580.1223142,489.74609375,315.4296875,437.5,486.81640625,0.0,0,0
1772035580.160651,1772035580.1262097,671.875,446.77734375,641.6015625,841.30859375,0.0,0,0
1772035580.160693,1772035580.1301055,-118.1640625,-139.16015625,-152.83203125,-30.76171875,0.0,0,0
1772035580.160734,1772035580.134001,-653.80859375,-539.55078125,-722.16796875,-875.0,0.0,0,0
1772035580.160792,1772035580.1378965,-381.8359375,-335.44921875,-448.73046875,-596.19140625,0.0,0,0
1772035580.160834,1772035580.1417923,422.36328125,258.30078125,395.99609375,448.2421875,0.0,0,0
1772035580.218852,1772035580.145763,686.5234375,462.890625,672.36328125,854.00390625,0.0,0,0
1772035580.2189991,1772035580.1496587,18.5546875,-35.15625,-15.13671875,137.20703125,0.0,0,0
1772035580.2190452,1772035580.1535542,-613.76953125,-542.96875,-695.3125,-785.64453125,0.0,0,0
1772035580.2190888,1772035580.15745,-470.703125,-441.89453125,-563.96484375,-709.47265625,0.0,0,0
1772035580.219143,1772035580.1613455,372.0703125,203.125,320.80078125,383.7890625,0.0,0,0
1772035580.219187,1772035580.165241,715.8203125,463.37890625,682.12890625,883.7890625,0.0,0,0
1772035580.219229,1772035580.1691368,162.59765625,66.89453125,123.53515625,300.29296875,0.0,0,0
1772035580.219271,1772035580.1730323,-576.66015625,-492.67578125,-630.859375,-656.25,0.0,0,0
1772035580.2193122,1772035580.176928,-570.80078125,-507.32421875,-638.671875,-770.99609375,0.0,0,0
1772035580.2193542,1772035580.1808236,303.7109375,161.1328125,241.69921875,306.15234375,0.0,0,0
1772035580.219396,1772035580.184719,710.44921875,489.2578125,665.52734375,917.48046875,0.0,0,0
1772035580.2194371,1772035580.1886148,296.38671875,157.71484375,233.3984375,444.82421875,0.0,0,0
1772035580.264849,1772035580.1926599,-487.3046875,-464.35546875,-567.87109375,-547.36328125,0.0,0,0
1772035580.264967,1772035580.1965556,-617.1875,-571.2890625,-697.265625,-837.890625,0.0,0,0
1772035580.265014,1772035580.2004511,219.7265625,80.078125,168.9453125,141.11328125,0.0,0,0
1772035580.265057,1772035580.204347,704.58984375,460.44921875,679.6875,900.390625,0.0,0,0
1772035580.265101,1772035580.2082424,375.0,199.70703125,327.1484375,539.55078125,0.0,0,0
1772035580.265142,1772035580.2121382,-451.66015625,-424.8046875,-504.39453125,-487.79296875,0.0,0,0
1772035580.265184,1772035580.2160337,-667.48046875,-620.1171875,-735.83984375,-863.76953125,0.0,0,0
1772035580.2652318,1772035580.2199295,91.796875,-55.6640625,19.04296875,-33.203125,0.0,0,0
1772035580.265273,1772035580.223825,695.3125,406.25,642.08984375,838.8671875,0.0,0,0
1772035580.2654579,1772035580.2277207,485.3515625,255.37109375,443.359375,656.73828125,0.0,0,0
1772035580.265505,1772035580.2316163,-378.41796875,-386.71875,-417.96875,-420.41015625,0.0,0,0
1772035580.265547,1772035580.235512,-661.1328125,-626.46484375,-721.19140625,-880.37109375,0.0,0,0
1772035580.312329,1772035580.23955,0.9765625,-140.13671875,-76.171875,-182.6171875,0.0,0,0
1772035580.312468,1772035580.2434456,679.19921875,402.34375,631.8359375,734.86328125,0.0,0,0
1772035580.312531,1772035580.2473414,569.82421875,349.12109375,551.26953125,754.8828125,0.0,0,0
1772035580.312588,1772035580.251237,-303.7109375,-335.44921875,-336.9140625,-324.70703125,0.0,0,0
1772035580.312639,1772035580.2551327,-639.6484375,-613.28125,-688.96484375,-900.87890625,0.0,0,0
1772035580.312683,1772035580.2590284,-132.8125,-239.2578125,-168.9453125,-326.66015625,0.0,0,0
1772035580.312726,1772035580.262924,618.1640625,318.84765625,575.68359375,612.79296875,0.0,0,0
1772035580.312767,1772035580.2668197,681.640625,381.8359375,622.0703125,800.78125,0.0,0,0
1772035580.312809,1772035580.2707152,-206.0546875,-281.25,-265.13671875,-252.44140625,0.0,0,0
1772035580.312869,1772035580.274611,-627.9296875,-604.4921875,-695.80078125,-917.96875,0.0,0,0
1772035580.312911,1772035580.2785068,-212.890625,-295.8984375,-269.04296875,-458.0078125,0.0,0,0
1772035580.312952,1772035580.2824023,552.734375,284.66796875,523.4375,492.1875,0.0,0,0
1772035580.3554502,1772035580.2864294,711.9140625,410.15625,699.70703125,837.890625,0.0,0,0
1772035580.355564,1772035580.2903252,-103.02734375,-199.70703125,-117.67578125,-59.5703125,0.0,0,0
1772035580.3556118,1772035580.2942207,-632.32421875,-614.74609375,-671.38671875,-880.37109375,0.0,0,0
1772035580.355659,1772035580.2981164,-326.171875,-384.765625,-381.8359375,-556.640625,0.0,0,0
1772035580.355703,1772035580.3020122,479.98046875,249.51171875,456.0546875,466.796875,0.0,0,0
1772035580.355756,1772035580.3059077,731.93359375,451.66015625,730.46875,866.2109375,0.0,0,0
1772035580.355799,1772035580.3098035,37.59765625,-109.86328125,2.9296875,124.51171875,0.0,0,0
1772035580.355841,1772035580.3136992,-562.5,-619.140625,-642.578125,-796.38671875,0.0,0,0
1772035580.355901,1772035580.317595,-383.7890625,-482.91015625,-453.125,-664.55078125,0.0,0,0
1772035580.355961,1772035580.3214905,454.1015625,207.51953125,420.41015625,408.69140625,0.0,0,0
1772035580.356032,1772035580.3253863,773.92578125,476.5625,758.7890625,875.9765625,0.0,0,0
1772035580.356092,1772035580.329282,165.0390625,0.0,152.34375,261.23046875,0.0,0,0
1772035580.429954,1772035580.3334613,-568.84765625,-582.03125,-590.33203125,-700.68359375,0.0,0,0
1772035580.430073,1772035580.337357,-514.16015625,-547.8515625,-535.15625,-743.65234375,0.0,0,0
1772035580.43012,1772035580.3412528,385.7421875,160.64453125,378.41796875,366.2109375,0.0,0,0
1772035580.430165,1772035580.3451483,779.78515625,466.30859375,761.23046875,906.73828125,0.0,0,0
1772035580.43021,1772035580.349044,321.2890625,86.42578125,264.16015625,409.1796875,0.0,0,0
1772035580.4302568,1772035580.3529398,-451.171875,-504.39453125,-512.6953125,-560.05859375,0.0,0,0
1772035580.430302,1772035580.3568356,-546.875,-563.96484375,-590.8203125,-810.05859375,0.0,0,0
1772035580.430345,1772035580.3607314,315.4296875,108.88671875,287.109375,236.81640625,0.0,0,0
1772035580.4304059,1772035580.3646271,766.11328125,454.58984375,748.53515625,922.8515625,0.0,0,0
1772035580.430466,1772035580.368523,387.20703125,139.6484375,366.2109375,514.16015625,0.0,0,0
1772035580.430519,1772035580.3724186,-421.875,-493.1640625,-449.21875,-491.69921875,0.0,0,0
1772035580.430563,1772035580.3763142,-619.140625,-663.0859375,-650.390625,-844.23828125,0.0,0,0
1772035580.445719,1772035580.3803196,187.98828125,-33.69140625,142.578125,80.56640625,0.0,0,0
1772035580.445835,1772035580.3842154,775.390625,403.3203125,732.421875,891.6015625,0.0,0,0
1772035580.445905,1772035580.388111,522.4609375,186.03515625,479.4921875,674.8046875,0.0,0,0
1772035580.445981,1772035580.3920069,-356.93359375,-464.84375,-417.48046875,-406.25,0.0,0,0
1772035580.446041,1772035580.3959026,-608.88671875,-645.01953125,-657.71484375,-821.2890625,0.0,0,0
1772035580.446101,1772035580.3997984,109.375,-80.078125,75.1953125,-7.32421875,0.0,0,0
1772035580.446162,1772035580.4036942,733.3984375,389.6484375,695.3125,794.43359375,0.0,0,0
1772035580.446219,1772035580.40759,610.83984375,286.1328125,571.2890625,750.48828125,0.0,0,0
1772035580.446282,1772035580.4114857,-297.36328125,-410.64453125,-327.63671875,-331.54296875,0.0,0,0
1772035580.4463518,1772035580.4153814,-642.578125,-687.5,-659.1796875,-873.53515625,0.0,0,0
1772035580.446409,1772035580.4192772,-59.5703125,-248.046875,-88.8671875,-212.40234375,0.0,0,0
1772035580.4464781,1772035580.423173,667.96875,331.54296875,644.04296875,682.6171875,0.0,0,0
1772035580.490348,1772035580.4271648,670.8984375,353.515625,668.45703125,814.94140625,0.0,0,0
1772035580.4905012,1772035580.4310606,-249.51171875,-371.58203125,-247.0703125,-222.16796875,0.0,0,0
1772035580.490568,1772035580.4349563,-663.57421875,-699.21875,-658.69140625,-901.85546875,0.0,0,0
1772035580.49063,1772035580.438852,-193.84765625,-306.640625,-183.10546875,-360.3515625,0.0,0,0
1772035580.490689,1772035580.4427478,593.26171875,287.109375,600.5859375,587.40234375,0.0,0,0
1772035580.490748,1772035580.4466436,751.46484375,369.140625,751.46484375,836.9140625,0.0,0,0
1772035580.490808,1772035580.4505394,-90.33203125,-273.92578125,-95.21484375,-104.98046875,0.0,0,0
1772035580.490867,1772035580.454435,-590.8203125,-672.36328125,-625.9765625,-887.20703125,0.0,0,0
1772035580.490925,1772035580.4583309,-223.14453125,-412.109375,-274.90234375,-488.28125,0.0,0,0
1772035580.490984,1772035580.4622266,560.546875,223.6328125,534.1796875,500.0,0.0,0,0
1772035580.491043,1772035580.4661224,786.1328125,406.73828125,761.23046875,847.65625,0.0,0,0
1772035580.491101,1772035580.4700181,74.70703125,-195.3125,18.5546875,70.3125,0.0,0,0
1772035580.533705,1772035580.4739966,-519.04296875,-661.1328125,-584.47265625,-820.3125,0.0,0,0
1772035580.5338318,1772035580.4778924,-279.78515625,-487.3046875,-348.14453125,-613.28125,0.0,0,0
1772035580.5338712,1772035580.4817882,542.48046875,166.9921875,492.1875,449.70703125,0.0,0,0
1772035580.533901,1772035580.485684,806.640625,404.78515625,783.69140625,867.67578125,0.0,0,0
1772035580.5339289,1772035580.4895797,196.2890625,-94.7265625,158.69140625,235.3515625,0.0,0,0
1772035580.5340009,1772035580.4934754,-513.671875,-618.1640625,-543.45703125,-717.28515625,0.0,0,0
1772035580.534034,1772035580.4973712,-407.71484375,-523.92578125,-447.265625,-716.30859375,0.0,0,0
1772035580.5340722,1772035580.501267,498.046875,156.73828125,439.453125,393.06640625,0.0,0,0
1772035580.534102,1772035580.5051627,834.9609375,414.55078125,807.6171875,909.66796875,0.0,0,0
1772035580.5341299,1772035580.5090585,338.37890625,23.92578125,311.5234375,391.6015625,0.0,0,0
1772035580.534165,1772035580.5129542,-416.50390625,-559.08203125,-459.9609375,-590.8203125,0.0,0,0
1772035580.5341928,1772035580.51685,-472.16796875,-611.81640625,-500.9765625,-790.52734375,0.0,0,0
1772035580.593308,1772035580.5208142,410.15625,59.08203125,366.69921875,277.83203125,0.0,0,0
1772035580.593476,1772035580.52471,847.65625,423.828125,818.84765625,927.734375,0.0,0,0
1772035580.593629,1772035580.5286057,458.49609375,136.71875,445.3125,541.50390625,0.0,0,0
1772035580.5937128,1772035580.5325015,-338.8671875,-515.13671875,-386.23046875,-471.19140625,0.0,0,0
1772035580.593854,1772035580.5363972,-513.18359375,-660.15625,-564.94140625,-828.61328125,0.0,0,0
1772035580.5939589,1772035580.540293,281.25,-5.37109375,261.71875,117.67578125,0.0,0,0
1772035580.594094,1772035580.544189,818.84765625,435.05859375,818.84765625,892.578125,0.0,0,0
1772035580.5941591,1772035580.5480847,559.08203125,210.9375,538.57421875,640.13671875,0.0,0,0
1772035580.594215,1772035580.5519805,-303.7109375,-462.40234375,-325.68359375,-406.25,0.0,0,0
1772035580.5942578,1772035580.5558763,-561.03515625,-642.08984375,-564.94140625,-848.14453125,0.0,0,0
1772035580.594304,1772035580.559772,164.0625,-67.3828125,154.78515625,-30.2734375,0.0,0,0
1772035580.597,1772035580.5636678,790.0390625,391.6015625,775.87890625,824.21875,0.0,0,0
1772035580.638349,1772035580.567703,655.76171875,279.78515625,641.6015625,725.09765625,0.0,0,0
1772035580.6384242,1772035580.5715988,-243.1640625,-395.99609375,-240.234375,-327.1484375,0.0,0,0
1772035580.638454,1772035580.5754945,-613.28125,-698.2421875,-602.05078125,-905.76171875,0.0,0,0
1772035580.638483,1772035580.5793903,134.27734375,-150.390625,125.0,-85.9375,0.0,0,0
1772035580.63851,1772035580.583286,634.27734375,264.6484375,634.27734375,615.234375,0.0,0,0
1772035580.638537,1772035580.587182,-138.18359375,-318.84765625,-133.30078125,-375.9765625,0.0,0,0
1772035580.638565,1772035580.5910778,-166.9921875,-341.30859375,-163.0859375,-464.84375,0.0,0,0
1772035580.638592,1772035580.5949736,707.03125,344.23828125,710.44921875,640.13671875,0.0,0,0
1772035580.638619,1772035580.5988693,750.48828125,365.234375,772.4609375,839.84375,0.0,0,0
1772035580.6386461,1772035580.602765,-116.69921875,-296.38671875,-37.59765625,-114.74609375,0.0,0,0
1772035580.6386728,1772035580.606661,-589.35546875,-658.203125,-524.90234375,-890.13671875,0.0,0,0
1772035580.6387,1772035580.6105568,-151.3671875,-344.7265625,-116.69921875,-450.1953125,0.0,0,0
1772035580.728333,1772035580.614585,596.6796875,253.90625,619.62890625,518.06640625,0.0,0,0
1772035580.728411,1772035580.6184807,798.828125,428.22265625,806.640625,853.02734375,0.0,0,0
1772035580.728443,1772035580.6223767,52.24609375,-190.91796875,87.40234375,16.6015625,0.0,0,0
1772035580.728472,1772035580.6262724,-537.109375,-632.32421875,-500.0,-853.02734375,0.0,0,0
1772035580.7285,1772035580.6301682,-264.16015625,-429.19921875,-236.328125,-592.7734375,0.0,0,0
1772035580.7285278,1772035580.6340642,530.2734375,204.1015625,557.12890625,439.453125,0.0,0,0
1772035580.728555,1772035580.63796,814.94140625,451.171875,826.66015625,865.234375,0.0,0,0
1772035580.7285829,1772035580.6418557,201.171875,-67.3828125,200.68359375,176.26953125,0.0,0,0
1772035580.72861,1772035580.6457515,-501.953125,-624.51171875,-502.44140625,-762.6953125,0.0,0,0
1772035580.728637,1772035580.6496475,-375.9765625,-517.578125,-338.8671875,-694.3359375,0.0,0,0
1772035580.7286642,1772035580.6535432,486.328125,175.78125,529.78515625,387.20703125,0.0,0,0
1772035580.728692,1772035580.657439,831.0546875,446.77734375,854.98046875,904.78515625,0.0,0,0
1772035580.7306728,1772035580.6614673,286.62109375,0.0,322.265625,291.015625,0.0,0,0
1772035580.730727,1772035580.6653633,-480.95703125,-585.9375,-466.796875,-694.82421875,0.0,0,0
1772035580.730758,1772035580.669259,-447.75390625,-561.5234375,-435.05859375,-790.0390625,0.0,0,0
1772035580.730787,1772035580.673155,436.5234375,118.1640625,473.14453125,274.4140625,0.0,0,0
1772035580.730815,1772035580.6770508,830.56640625,454.58984375,867.67578125,916.9921875,0.0,0,0
1772035580.7308428,1772035580.6809466,418.9453125,130.859375,456.0546875,487.3046875,0.0,0,0
1772035580.73087,1772035580.6848426,-376.46484375,-527.34375,-367.67578125,-518.06640625,0.0,0,0
1772035580.730897,1772035580.6887383,-510.25390625,-641.6015625,-508.30078125,-799.31640625,0.0,0,0
1772035580.730929,1772035580.692634,353.02734375,49.31640625,362.79296875,218.26171875,0.0,0,0
1772035580.730956,1772035580.69653,840.33203125,474.12109375,870.60546875,938.96484375,0.0,0,0
1772035580.730984,1772035580.7004259,507.32421875,214.84375,567.3828125,608.3984375,0.0,0,0
1772035580.73101,1772035580.7043219,-313.96484375,-495.60546875,-325.1953125,-450.68359375,0.0,0,0
1772035580.788307,1772035580.7083244,-504.39453125,-672.8515625,-566.40625,-842.7734375,0.0,0,0
1772035580.7884438,1772035580.7122204,271.97265625,-33.203125,236.328125,30.76171875,0.0,0,0
1772035580.7885141,1772035580.7161162,843.75,438.96484375,839.35546875,867.67578125,0.0,0,0
1772035580.7885802,1772035580.720012,648.4375,294.921875,658.69140625,655.76171875,0.0,0,0
1772035580.78865,1772035580.723908,-244.140625,-407.71484375,-262.6953125,-429.19921875,0.0,0,0
1772035580.788714,1772035580.7278037,-541.50390625,-662.59765625,-590.8203125,-851.5625,0.0,0,0
1772035580.788776,1772035580.7316997,112.3046875,-141.6015625,93.26171875,-129.39453125,0.0,0,0
1772035580.7888372,1772035580.7355955,757.8125,409.1796875,770.5078125,752.9296875,0.0,0,0
1772035580.788896,1772035580.7394915,726.07421875,340.33203125,724.12109375,769.04296875,0.0,0,0
1772035580.7889569,1772035580.7433872,-177.24609375,-393.5546875,-216.30859375,-340.8203125,0.0,0,0
1772035580.7890182,1772035580.7472832,-552.734375,-654.296875,-604.4921875,-897.4609375,0.0,0,0
1772035580.789077,1772035580.751179,-19.04296875,-231.4453125,-7.8125,-286.1328125,0.0,0,0
1772035580.834456,1772035580.7552576,675.29296875,371.58203125,703.61328125,624.51171875,0.0,0,0
1772035580.834646,1772035580.7591536,753.90625,434.5703125,776.3671875,826.171875,0.0,0,0
1772035580.834733,1772035580.7630494,-121.58203125,-313.4765625,-106.4453125,-224.12109375,0.0,0,0
1772035580.83479,1772035580.7669454,-562.98828125,-676.26953125,-597.65625,-911.1328125,0.0,0,0
1772035580.834829,1772035580.7708411,-155.76171875,-331.54296875,-119.140625,-399.90234375,0.0,0,0
1772035580.834935,1772035580.7747371,579.58984375,331.0546875,646.97265625,549.31640625,0.0,0,0
1772035580.834995,1772035580.7786329,765.625,451.171875,778.80859375,811.5234375,0.0,0,0
1772035580.835052,1772035580.7825289,-35.15625,-227.5390625,-16.11328125,-112.3046875,0.0,0,0
1772035580.8351119,1772035580.7864249,-585.44921875,-640.13671875,-597.65625,-891.6015625,0.0,0,0
1772035580.835177,1772035580.7903206,-271.484375,-430.6640625,-258.30078125,-588.37890625,0.0,0,0
1772035580.835246,1772035580.7942166,543.9453125,222.16796875,582.03125,438.96484375,0.0,0,0
1772035580.835286,1772035580.7981124,773.4375,453.61328125,806.15234375,839.84375,0.0,0,0
1772035580.8797162,1772035580.8021781,60.05859375,-88.8671875,136.23046875,42.96875,0.0,0,1
1772035580.879871,1772035580.8060741,-603.515625,-608.3984375,-554.6875,-843.26171875,0.0,0,0
1772035580.879915,1772035580.8099701,-410.64453125,-492.1875,-371.09375,-706.54296875,0.0,0,0
1772035580.879956,1772035580.813866,478.515625,225.09765625,534.1796875,375.0,0.0,0,0
1772035580.8799932,1772035580.817762,806.15234375,494.140625,833.984375,861.328125,0.0,0,0
1772035580.880033,1772035580.821658,227.05078125,39.0625,288.0859375,198.73046875,0.0,0,0
1772035580.880069,1772035580.8255537,-538.0859375,-562.98828125,-497.0703125,-721.6796875,0.0,0,0
1772035580.880106,1772035580.8294497,-493.1640625,-593.26171875,-482.91015625,-813.4765625,0.0,0,0
1772035580.880142,1772035580.8333457,418.45703125,152.83203125,472.16796875,258.30078125,0.0,0,0
1772035580.880179,1772035580.8372416,809.5703125,514.6484375,858.3984375,900.390625,0.0,0,0
1772035580.880215,1772035580.8411374,355.95703125,171.38671875,414.0625,375.0,0.0,0,0
1772035580.880251,1772035580.8450334,-482.421875,-459.9609375,-415.0390625,-590.33203125,0.0,0,0
1772035580.923456,1772035580.8490875,-619.62890625,-584.9609375,-540.52734375,-831.0546875,0.0,0,0
1772035580.923573,1772035580.8529835,260.7421875,101.07421875,371.09375,159.66796875,0.0,0,0
1772035580.9236128,1772035580.8568795,770.5078125,479.00390625,854.4921875,906.25,0.0,0,0
1772035580.923647,1772035580.8607755,427.734375,211.9140625,507.32421875,525.390625,0.0,0,0
1772035580.9236832,1772035580.8646715,-428.7109375,-414.0625,-364.2578125,-495.60546875,0.0,0,0
1772035580.923717,1772035580.8685672,-578.125,-582.51953125,-585.9375,-850.09765625,0.0,0,0
1772035580.9237509,1772035580.8724632,250.9765625,5.37109375,226.5625,7.8125,0.0,0,0
1772035580.923785,1772035580.8763592,832.03125,486.81640625,823.2421875,863.28125,0.0,0,0
1772035580.923829,1772035580.8802552,584.47265625,339.84375,605.46875,663.57421875,0.0,0,0
1772035580.923862,1772035580.8841512,-305.6640625,-382.8125,-311.03515625,-420.41015625,0.0,0,0
1772035580.923894,1772035580.888047,-564.453125,-621.09375,-609.375,-886.23046875,0.0,0,0
1772035580.923927,1772035580.891943,51.26953125,-72.75390625,104.4921875,-186.5234375,0.0,0,0
1772035580.969474,1772035580.8959901,707.51953125,489.2578125,785.64453125,750.0,0.0,0,0
1772035580.9696379,1772035580.8998861,642.578125,417.48046875,695.80078125,727.5390625,0.0,0,0
1772035580.969814,1772035580.903782,-332.03125,-337.890625,-254.8828125,-388.671875,0.0,0,0
1772035580.969863,1772035580.907678,-711.42578125,-616.69921875,-626.953125,-904.296875,0.0,0,0
1772035580.969908,1772035580.911574,-103.515625,-182.12890625,-28.80859375,-298.828125,0.0,0,0
1772035580.969951,1772035580.91547,650.87890625,401.3671875,697.265625,641.6015625,0.0,0,0
1772035580.9699929,1772035580.919366,736.81640625,425.29296875,751.953125,799.31640625,0.0,0,0
1772035580.970036,1772035580.923262,-183.10546875,-282.71484375,-160.64453125,-277.34375,0.0,0,0
1772035580.970078,1772035580.9271579,-635.25390625,-589.84375,-628.90625,-938.96484375,0.0,0,0
1772035580.97012,1772035580.9310539,-155.76171875,-260.7421875,-128.41796875,-422.8515625,0.0,0,0
1772035580.9701629,1772035580.9349496,610.3515625,357.421875,636.71875,547.36328125,0.0,0,0
1772035580.9702048,1772035580.9388456,769.53125,490.72265625,799.8046875,844.7265625,0.0,0,0
1772035581.043327,1772035580.9429665,-91.796875,-176.26953125,-11.71875,-88.37890625,0.0,0,0
1772035581.043526,1772035580.9468625,-680.17578125,-585.9375,-614.74609375,-906.73828125,0.0,0,0
1772035581.043591,1772035580.9507585,-322.265625,-326.171875,-244.140625,-545.8984375,0.0,0,0
1772035581.043652,1772035580.9546545,518.06640625,350.5859375,582.03125,465.8203125,0.0,0,0
1772035581.043715,1772035580.9585505,777.83203125,575.68359375,818.84765625,893.06640625,0.0,0,0
1772035581.043774,1772035580.9624465,22.94921875,-43.45703125,114.2578125,121.09375,0.0,0,0
1772035581.043832,1772035580.9663424,-645.99609375,-575.1953125,-602.5390625,-847.65625,0.0,0,0
1772035581.043902,1772035580.9702384,-418.9453125,-397.94921875,-363.76953125,-680.17578125,0.0,0,0
1772035581.043984,1772035580.9741344,469.7265625,309.5703125,543.45703125,402.34375,0.0,0,0
1772035581.0440478,1772035580.9780304,800.78125,560.546875,833.49609375,885.25390625,0.0,0,0
1772035581.044126,1772035580.9819264,192.87109375,53.7109375,241.2109375,233.88671875,0.0,0,0
1772035581.044193,1772035580.9858224,-564.453125,-530.2734375,-555.6640625,-745.1171875,0.0,0,0
1772035581.059564,1772035580.989853,-473.14453125,-477.05078125,-454.58984375,-753.90625,0.0,0,0
1772035581.05966,1772035580.993749,469.7265625,231.93359375,516.6015625,364.74609375,0.0,0,0
1772035581.0597079,1772035580.9976451,830.078125,551.26953125,856.4453125,917.48046875,0.0,0,0
1772035581.059754,1772035581.0015411,346.6796875,181.15234375,361.328125,375.0,0.0,0,0
1772035581.059797,1772035581.0054371,-500.48828125,-460.44921875,-499.0234375,-608.3984375,0.0,0,0
1772035581.059841,1772035581.0093331,-622.0703125,-541.50390625,-560.546875,-829.1015625,0.0,0,0
1772035581.059884,1772035581.0132291,332.51953125,167.48046875,415.0390625,224.609375,0.0,0,0
1772035581.059926,1772035581.0171251,812.5,559.08203125,871.09375,930.6640625,0.0,0,0
1772035581.059967,1772035581.0210211,410.64453125,249.0234375,476.07421875,485.3515625,0.0,0,0
1772035581.06001,1772035581.0249171,-467.28515625,-440.91796875,-432.12890625,-522.4609375,0.0,0,0
1772035581.060052,1772035581.0288131,-660.64453125,-600.5859375,-625.48828125,-857.91015625,0.0,0,0
1772035581.060117,1772035581.0327091,201.171875,56.640625,296.38671875,55.6640625,0.0,0,0
1772035581.10461,1772035581.0367255,799.31640625,531.25,862.79296875,891.6015625,0.0,0,0
1772035581.104766,1772035581.0406215,538.57421875,333.49609375,563.4765625,604.98046875,0.0,0,0
1772035581.104814,1772035581.0445175,-390.625,-360.3515625,-363.76953125,-457.51953125,0.0,0,0
1772035581.105046,1772035581.0484135,-685.05859375,-602.05078125,-658.69140625,-872.0703125,0.0,0,0
1772035581.105185,1772035581.0523095,83.0078125,-38.0859375,107.91015625,-71.77734375,0.0,0,0
1772035581.10524,1772035581.0562057,772.94921875,506.34765625,788.0859375,833.984375,0.0,0,0
1772035581.105314,1772035581.0601017,629.8828125,375.0,632.32421875,723.14453125,0.0,0,0
1772035581.105365,1772035581.0639977,-314.94140625,-346.6796875,-329.1015625,-384.27734375,0.0,0,0
1772035581.1054,1772035581.0678937,-667.96875,-597.16796875,-669.43359375,-898.4375,0.0,0,0
1772035581.105435,1772035581.0717897,-87.40234375,-136.23046875,-33.203125,-271.484375,0.0,0,0
1772035581.1054678,1772035581.075686,658.69140625,452.63671875,700.68359375,665.0390625,0.0,0,0
1772035581.105501,1772035581.079582,693.359375,438.4765625,724.609375,801.26953125,0.0,0,0
1772035581.162983,1772035581.0835848,-247.0703125,-316.40625,-231.4453125,-289.55078125,0.0,0,0
1772035581.16308,1772035581.0874808,-640.13671875,-608.88671875,-679.19921875,-946.2890625,0.0,0,0
1772035581.163111,1772035581.091377,-149.4140625,-231.93359375,-155.76171875,-390.13671875,0.0,0,0
1772035581.163139,1772035581.095273,608.3984375,408.203125,623.53515625,582.51953125,0.0,0,0
1772035581.163168,1772035581.099169,765.625,520.01953125,770.01953125,857.421875,0.0,0,0
1772035581.163195,1772035581.103065,-109.86328125,-180.6640625,-103.515625,-125.0,0.0,0,0
1772035581.163223,1772035581.1069613,-636.71875,-570.3125,-679.19921875,-927.734375,0.0,0,0
1772035581.16325,1772035581.1108572,-249.51171875,-286.62109375,-272.4609375,-470.703125,0.0,0,0
1772035581.163278,1772035581.1147532,549.8046875,348.14453125,569.82421875,533.203125,0.0,0,0
1772035581.163305,1772035581.1186492,773.92578125,535.15625,799.31640625,838.8671875,0.0,0,0
1772035581.1633332,1772035581.1225455,2.44140625,-83.984375,38.0859375,0.48828125,0.0,0,0
1772035581.16336,1772035581.1264415,-610.3515625,-584.47265625,-633.30078125,-874.0234375,0.0,0,0
1772035581.208441,1772035581.130514,-352.5390625,-371.58203125,-355.46875,-611.81640625,0.0,0,0
1772035581.208543,1772035581.13441,485.3515625,317.3828125,535.64453125,454.1015625,0.0,0,0
1772035581.208575,1772035581.138306,774.90234375,531.73828125,803.22265625,839.35546875,0.0,0,0
1772035581.2086039,1772035581.1422021,148.4375,28.3203125,167.96875,111.328125,0.0,0,0
1772035581.208632,1772035581.1460981,-587.890625,-506.34765625,-595.703125,-793.9453125,0.0,0,0
1772035581.20866,1772035581.1499941,-513.671875,-413.57421875,-484.375,-796.875,0.0,0,0
1772035581.208688,1772035581.1538904,416.9921875,279.78515625,481.93359375,296.38671875,0.0,0,0
1772035581.208716,1772035581.1577864,792.96875,520.99609375,833.49609375,895.01953125,0.0,0,0
1772035581.208744,1772035581.1616826,253.41796875,99.12109375,299.31640625,245.1171875,0.0,0,0
1772035581.2087722,1772035581.1655786,-579.1015625,-488.28125,-545.8984375,-713.8671875,0.0,0,0
1772035581.2088,1772035581.1694746,-643.06640625,-520.5078125,-578.125,-839.84375,0.0,0,0
1772035581.2088268,1772035581.1733708,296.38671875,196.2890625,422.8515625,200.68359375,0.0,0,0
1772035581.253908,1772035581.177432,731.4453125,536.62109375,857.421875,902.83203125,0.0,0,0
1772035581.254059,1772035581.181328,301.7578125,200.68359375,410.64453125,381.34765625,0.0,0,0
1772035581.254129,1772035581.1852243,-496.58203125,-449.21875,-478.02734375,-597.16796875,0.0,0,0
1772035581.254195,1772035581.1891203,-606.93359375,-569.3359375,-643.5546875,-861.81640625,0.0,0,0
1772035581.2542589,1772035581.1930165,262.20703125,117.1875,287.109375,75.68359375,0.0,0,0
1772035581.2543209,1772035581.1969125,811.03515625,516.6015625,845.21484375,910.64453125,0.0,0,0
1772035581.254384,1772035581.2008088,482.421875,247.0703125,514.6484375,601.07421875,0.0,0,0
1772035581.254446,1772035581.2047048,-474.609375,-425.78125,-410.64453125,-456.54296875,0.0,0,0
1772035581.254519,1772035581.2086008,-732.91015625,-583.984375,-678.22265625,-853.515625,0.0,0,0
1772035581.25457,1772035581.212497,52.24609375,40.52734375,148.92578125,-12.6953125,0.0,0,0
1772035581.254613,1772035581.216393,697.265625,522.4609375,817.87109375,862.79296875,0.0,0,0
1772035581.254655,1772035581.2202892,518.06640625,390.13671875,624.0234375,691.89453125,0.0,0,0
1772035581.3301508,1772035581.224502,-414.0625,-315.4296875,-351.5625,-414.0625,0.0,0,0
1772035581.330278,1772035581.228398,-668.9453125,-569.82421875,-685.05859375,-879.39453125,0.0,0,0
1772035581.330343,1772035581.2322943,59.5703125,-67.87109375,38.0859375,-152.34375,0.0,0,0
1772035581.330403,1772035581.2361906,741.2109375,496.09375,756.8359375,752.9296875,0.0,0,0
1772035581.330461,1772035581.2400866,685.05859375,475.5859375,714.84375,790.0390625,0.0,0,0
1772035581.3306072,1772035581.2439828,-248.046875,-249.0234375,-242.1875,-308.10546875,0.0,0,0
1772035581.330671,1772035581.247879,-615.234375,-547.8515625,-652.34375,-896.97265625,0.0,0,0
1772035581.33073,1772035581.251775,-86.42578125,-133.30078125,-64.453125,-263.671875,0.0,0,0
1772035581.3307872,1772035581.2556713,633.7890625,469.7265625,674.31640625,645.5078125,0.0,0,0
1772035581.3308449,1772035581.2595675,737.79296875,534.66796875,772.94921875,833.49609375,0.0,0,0
1772035581.330903,1772035581.2634637,-165.0390625,-177.734375,-118.1640625,-186.03515625,0.0,0,0
1772035581.3309598,1772035581.2673597,-704.58984375,-548.828125,-643.06640625,-930.17578125,0.0,0,0
1772035581.344594,1772035581.2714071,-284.1796875,-234.375,-171.38671875,-452.63671875,0.0,0,0
1772035581.344689,1772035581.2753034,560.546875,391.6015625,610.3515625,525.390625,0.0,0,0
1772035581.344738,1772035581.2791996,746.09375,552.734375,790.0390625,848.14453125,0.0,0,0
1772035581.344782,1772035581.2830958,-88.8671875,-71.2890625,-5.859375,-33.69140625,0.0,0,0
1772035581.3448262,1772035581.2869918,-712.890625,-539.0625,-664.55078125,-891.6015625,0.0,0,0
1772035581.3448699,1772035581.290888,-367.67578125,-317.3828125,-324.21875,-565.4296875,0.0,0,0
1772035581.344913,1772035581.2947843,525.390625,357.421875,557.12890625,467.28515625,0.0,0,0
1772035581.344956,1772035581.2986805,796.38671875,573.73046875,805.17578125,866.2109375,0.0,0,0
1772035581.3449988,1772035581.3025765,135.7421875,56.640625,130.37109375,164.0625,0.0,0,0
1772035581.3450408,1772035581.3064728,-566.89453125,-489.74609375,-620.1171875,-798.828125,0.0,0,0
1772035581.345091,1772035581.310369,-406.25,-388.671875,-446.2890625,-697.75390625,0.0,0,0
1772035581.345133,1772035581.3142653,503.90625,296.38671875,502.44140625,423.33984375,0.0,0,0
1772035581.388899,1772035581.3182952,833.49609375,570.3125,829.58984375,904.78515625,0.0,0,0
1772035581.389036,1772035581.3221915,292.48046875,142.08984375,263.671875,291.50390625,0.0,0,0
1772035581.3891,1772035581.3260877,-475.5859375,-456.54296875,-553.22265625,-693.84765625,0.0,0,0
1772035581.389162,1772035581.329984,-471.19140625,-455.078125,-532.2265625,-795.8984375,0.0,0,0
1772035581.3892338,1772035581.3338802,454.58984375,260.7421875,455.078125,308.59375,0.0,0,0
1772035581.389293,1772035581.3377762,847.16796875,574.70703125,856.4453125,931.15234375,0.0,0,0
1772035581.389354,1772035581.3416724,379.8828125,187.5,379.39453125,438.4765625,0.0,0,0
1772035581.3894122,1772035581.3455687,-479.4921875,-459.47265625,-507.32421875,-554.6875,0.0,0,0
1772035581.3894851,1772035581.349465,-641.6015625,-583.0078125,-666.015625,-838.37890625,0.0,0,0
1772035581.389548,1772035581.3533611,233.3984375,116.69921875,285.64453125,161.1328125,0.0,0,0
1772035581.389607,1772035581.3572574,749.0234375,527.34375,829.58984375,918.45703125,0.0,0,0
1772035581.389672,1772035581.3611536,395.99609375,247.0703125,464.84375,530.2734375,0.0,0,0
1772035581.435251,1772035581.365172,-503.41796875,-407.2265625,-462.40234375,-497.55859375,0.0,0,0
1772035581.43546,1772035581.3690681,-722.65625,-583.49609375,-703.125,-864.74609375,0.0,0,0
1772035581.4355268,1772035581.3729644,94.23828125,23.92578125,147.4609375,-22.4609375,0.0,0,0
1772035581.435589,1772035581.3768606,732.91015625,494.140625,795.8984375,854.4921875,0.0,0,0
1772035581.435661,1772035581.3807569,520.5078125,317.87109375,582.03125,680.6640625,0.0,0,0
1772035581.4357219,1772035581.384653,-390.625,-371.09375,-373.046875,-406.25,0.0,0,0
1772035581.435797,1772035581.3885493,-690.91796875,-615.72265625,-709.47265625,-879.39453125,0.0,0,0
1772035581.4358559,1772035581.3924456,-25.87890625,-109.86328125,12.6953125,-159.1796875,0.0,0,0
1772035581.4359329,1772035581.3963418,687.5,465.33203125,750.48828125,763.18359375,0.0,0,0
1772035581.436018,1772035581.400238,576.66015625,418.9453125,685.546875,762.6953125,0.0,0,0
1772035581.436091,1772035581.4041343,-392.08984375,-320.80078125,-310.05859375,-363.28125,0.0,0,0
1772035581.436149,1772035581.4080305,-756.34765625,-613.28125,-725.09765625,-915.52734375,0.0,0,0
1772035581.4790158,1772035581.412042,-202.63671875,-220.21484375,-137.20703125,-315.91796875,0.0,0,0
1772035581.4791229,1772035581.4159381,591.796875,385.7421875,645.01953125,624.51171875,0.0,0,0
1772035581.479161,1772035581.4198344,692.87109375,491.2109375,734.86328125,812.01171875,0.0,0,0
1772035581.4791958,1772035581.4237306,-206.0546875,-237.79296875,-225.09765625,-258.7890625,0.0,0,0
1772035581.47923,1772035581.4276268,-649.90234375,-589.84375,-728.02734375,-940.91796875,0.0,0,0
1772035581.479263,1772035581.431523,-227.05078125,-237.79296875,-238.28125,-435.05859375,0.0,0,0
1772035581.479296,1772035581.4354193,548.33984375,355.46875,581.54296875,536.62109375,0.0,0,0
1772035581.479329,1772035581.4393156,734.86328125,480.95703125,773.4375,844.23828125,0.0,0,0
1772035581.479362,1772035581.4432118,-116.69921875,-144.04296875,-80.56640625,-97.16796875,0.0,0,0
1772035581.4793952,1772035581.447108,-691.89453125,-569.82421875,-725.09765625,-924.8046875,0.0,0,0
1772035581.479437,1772035581.4510043,-384.27734375,-354.4921875,-370.1171875,-565.4296875,0.0,0,0
1772035581.4794712,1772035581.4549005,472.16796875,317.3828125,530.76171875,462.890625,0.0,0,0
1772035581.5384839,1772035581.4589002,738.28125,539.55078125,789.55078125,860.3515625,0.0,0,0
1772035581.538646,1772035581.4627964,-5.37109375,-54.19921875,43.9453125,81.54296875,0.0,0,0
1772035581.538694,1772035581.4666927,-698.73046875,-600.5859375,-705.078125,-853.02734375,0.0,0,0
1772035581.538739,1772035581.470589,-492.1875,-437.5,-475.5859375,-681.15234375,0.0,0,0
1772035581.538782,1772035581.4744852,442.87109375,282.2265625,493.65234375,423.33984375,0.0,0,0
1772035581.538825,1772035581.4783814,778.80859375,546.38671875,799.31640625,894.53125,0.0,0,0
1772035581.538867,1772035581.4822776,186.5234375,85.9375,202.1484375,283.203125,0.0,0,0
1772035581.538908,1772035581.4861739,-639.16015625,-506.8359375,-603.02734375,-701.171875,0.0,0,0
1772035581.538956,1772035581.49007,-636.71875,-494.140625,-562.98828125,-768.5546875,0.0,0,0
1772035581.5389981,1772035581.4939663,339.35546875,234.375,447.265625,347.65625,0.0,0,0
1772035581.5390599,1772035581.4978626,750.48828125,562.98828125,839.35546875,930.6640625,0.0,0,0
1772035581.5391018,1772035581.501759,254.8828125,187.01171875,341.796875,420.8984375,0.0,0,0
1772035581.629042,1772035581.505831,-571.77734375,-470.703125,-533.203125,-583.0078125,0.0,0,0
1772035581.629212,1772035581.5097272,-658.203125,-549.31640625,-653.3203125,-827.63671875,0.0,0,0
1772035581.629329,1772035581.5136237,296.38671875,192.87109375,334.9609375,225.5859375,0.0,0,0
1772035581.629419,1772035581.51752,790.52734375,580.078125,847.16796875,940.91796875,0.0,0,0
1772035581.629483,1772035581.5214162,400.390625,255.37109375,431.640625,536.1328125,0.0,0,0
1772035581.629544,1772035581.5253124,-448.73046875,-409.1796875,-486.81640625,-488.28125,0.0,0,0
1772035581.629604,1772035581.5292087,-659.1796875,-561.5234375,-692.87109375,-838.8671875,0.0,0,0
1772035581.6296651,1772035581.5331051,126.46484375,73.73046875,193.359375,87.40234375,0.0,0,0
1772035581.629725,1772035581.5370014,753.90625,551.26953125,817.87109375,908.203125,0.0,0,0
1772035581.6297688,1772035581.5408976,546.38671875,375.48828125,554.19921875,635.7421875,0.0,0,0
1772035581.629817,1772035581.5447938,-382.32421875,-334.47265625,-402.83203125,-437.5,0.0,0,0
1772035581.629859,1772035581.54869,-687.98828125,-579.58984375,-722.16796875,-870.60546875,0.0,0,0
1772035581.630924,1772035581.5527651,44.921875,-12.20703125,30.2734375,-124.0234375,0.0,0,0
1772035581.6309829,1772035581.5566614,766.6015625,548.828125,767.08984375,790.0390625,0.0,0,0
1772035581.631028,1772035581.5605576,664.0625,442.3828125,634.27734375,735.3515625,0.0,0,0
1772035581.63107,1772035581.564454,-303.7109375,-288.0859375,-370.1171875,-382.32421875,0.0,0,0
1772035581.631124,1772035581.5683503,-659.66796875,-581.0546875,-752.9296875,-915.0390625,0.0,0,0
1772035581.631167,1772035581.5722466,-78.61328125,-157.2265625,-147.94921875,-335.9375,0.0,0,0
1772035581.631209,1772035581.576143,653.3203125,455.078125,646.97265625,616.69921875,0.0,0,0
1772035581.6313741,1772035581.5800393,694.82421875,484.375,695.3125,776.85546875,0.0,0,0
1772035581.631419,1772035581.5839355,-260.7421875,-250.0,-288.57421875,-323.73046875,0.0,0,0
1772035581.6314602,1772035581.5878317,-725.5859375,-599.12109375,-746.58203125,-944.82421875,0.0,0,0
1772035581.631505,1772035581.5917282,-214.35546875,-240.234375,-239.2578125,-417.96875,0.0,0,0
1772035581.631547,1772035581.5956244,605.95703125,397.4609375,584.47265625,556.15234375,0.0,0,0
1772035581.673942,1772035581.5996728,753.41796875,543.45703125,744.140625,825.1953125,0.0,0,0
1772035581.674091,1772035581.603569,-108.88671875,-137.20703125,-159.66796875,-172.8515625,0.0,0,0
1772035581.6741388,1772035581.6074653,-683.59375,-582.51953125,-748.53515625,-952.63671875,0.0,0,0
1772035581.674183,1772035581.6113617,-332.51953125,-310.05859375,-362.79296875,-594.7265625,0.0,0,0
1772035581.674227,1772035581.615258,519.53125,375.48828125,521.97265625,434.08203125,0.0,0,0
1772035581.67427,1772035581.6191545,777.34375,572.265625,771.484375,846.19140625,0.0,0,0
1772035581.674313,1772035581.6230507,21.484375,-44.43359375,-30.2734375,-3.90625,0.0,0,0
1772035581.674355,1772035581.626947,-656.73828125,-541.9921875,-729.4921875,-887.6953125,0.0,0,0
1772035581.674397,1772035581.6308434,-419.43359375,-375.0,-467.28515625,-681.640625,0.0,0,0
1772035581.674438,1772035581.6347396,470.21484375,326.66015625,469.23828125,399.4140625,0.0,0,0
1772035581.6744802,1772035581.638636,783.203125,566.40625,767.578125,850.5859375,0.0,0,0
1772035581.6745222,1772035581.6425323,177.734375,65.4296875,118.1640625,151.85546875,0.0,0,0
1772035581.719386,1772035581.6465704,-592.7734375,-504.8828125,-649.4140625,-765.13671875,0.0,0,0
1772035581.719538,1772035581.6504667,-561.5234375,-472.16796875,-582.03125,-773.92578125,0.0,0,0
1772035581.71957,1772035581.6543632,371.58203125,257.32421875,390.625,327.63671875,0.0,0,0
1772035581.719599,1772035581.6582594,764.16015625,562.98828125,791.9921875,906.73828125,0.0,0,0
1772035581.719626,1772035581.6621559,240.72265625,160.15625,260.7421875,326.171875,0.0,0,0
1772035581.7196548,1772035581.666052,-589.84375,-459.47265625,-584.47265625,-642.578125,0.0,0,0
1772035581.719692,1772035581.6699486,-644.53125,-540.0390625,-647.4609375,-828.61328125,0.0,0,0
1772035581.71972,1772035581.6738448,281.73828125,183.59375,322.75390625,206.54296875,0.0,0,0
1772035581.7197618,1772035581.677741,729.4921875,548.828125,792.48046875,912.59765625,0.0,0,0
1772035581.719789,1772035581.6816375,333.0078125,231.93359375,364.74609375,451.66015625,0.0,0,0
1772035581.719836,1772035581.6855338,-510.25390625,-424.31640625,-514.6484375,-542.48046875,0.0,0,0
1772035581.719882,1772035581.6894302,-725.5859375,-561.03515625,-693.84765625,-858.3984375,0.0,0,0
1772035581.76425,1772035581.6934597,105.95703125,110.83984375,179.6875,56.640625,0.0,0,0
1772035581.764398,1772035581.6973562,685.05859375,545.41015625,779.78515625,902.34375,0.0,0,0
1772035581.7644448,1772035581.7012527,421.38671875,344.7265625,495.60546875,613.76953125,0.0,0,0
1772035581.764491,1772035581.705149,-462.40234375,-357.421875,-458.0078125,-459.47265625,0.0,0,0
1772035581.7645361,1772035581.7090454,-729.98046875,-579.58984375,-737.79296875,-875.9765625,0.0,0,0
1772035581.76458,1772035581.7129416,55.6640625,6.34765625,40.0390625,-123.53515625,0.0,0,0
1772035581.7646239,1772035581.7168381,765.625,514.16015625,749.0234375,795.41015625,0.0,0,0
1772035581.764666,1772035581.7207344,606.93359375,388.18359375,587.890625,665.0390625,0.0,0,0
1772035581.7647092,1772035581.7246308,-365.72265625,-336.42578125,-395.5078125,-448.73046875,0.0,0,0
1772035581.764752,1772035581.728527,-713.37890625,-609.375,-735.83984375,-909.66796875,0.0,0,0
1772035581.764794,1772035581.7324235,-113.76953125,-145.5078125,-109.86328125,-313.4765625,0.0,0,0
1772035581.764837,1772035581.73632,644.53125,459.9609375,659.66796875,651.3671875,0.0,0,0
1772035581.809393,1772035581.7403398,636.71875,476.5625,656.73828125,743.1640625,0.0,0,0
1772035581.809576,1772035581.7442362,-330.078125,-255.859375,-332.03125,-376.953125,0.0,0,0
1772035581.809626,1772035581.7481327,-709.9609375,-579.58984375,-740.72265625,-934.08203125,0.0,0,0
1772035581.8096719,1772035581.752029,-223.14453125,-222.65625,-212.40234375,-421.875,0.0,0,0
1772035581.809716,1772035581.7559254,557.6171875,399.90234375,587.890625,544.43359375,0.0,0,0
1772035581.8097699,1772035581.7598217,706.0546875,534.1796875,722.16796875,797.36328125,0.0,0,0
1772035581.809834,1772035581.7637181,-166.015625,-160.64453125,-190.4296875,-239.2578125,0.0,0,0
