timestamp,lsl_timestamp,TP9,AF7,AF8,TP10,Right AUX,keypress_A,keypress_B
1772214069.431366,1772214069.3681474,985.3515625,76.171875,124.0234375,93.26171875,0.0,0,0
1772214069.431495,1772214069.3720417,790.0390625,20.5078125,0.9765625,96.6796875,0.0,0,0
1772214069.431529,1772214069.375936,-430.17578125,-51.7578125,-261.71875,-9.27734375,0.0,0,0
1772214069.4315572,1772214069.3798304,-1000.0,-45.41015625,-289.55078125,-64.453125,0.0,0,0
1772214069.4315782,1772214069.3837245,-435.546875,40.0390625,-49.31640625,-19.04296875,0.0,0,0
1772214069.4315991,1772214069.3876188,872.55859375,92.28515625,159.66796875,80.078125,0.0,0,0
1772214069.4316192,1772214069.391513,921.38671875,37.59765625,72.75390625,96.19140625,0.0,0,0
1772214069.431638,1772214069.3954074,-279.78515625,-42.96875,-186.5234375,-4.8828125,0.0,0,0
1772214069.431658,1772214069.3993018,-1000.0,-57.6171875,-301.7578125,-84.47265625,0.0,0,0
1772214069.431678,1772214069.403196,-594.23828125,2.44140625,-140.625,-37.59765625,0.0,0,0
1772214069.4316978,1772214069.4070904,660.64453125,58.59375,70.80078125,72.75390625,0.0,0,0
1772214069.4317179,1772214069.4109845,-959.9609375,33.203125,44.43359375,91.796875,0.0,0,0
1772214069.4893818,1772214069.414976,-106.4453125,-28.80859375,-178.22265625,8.7890625,0.0,0,0
1772214069.489481,1772214069.4188702,-1000.0,-50.29296875,-286.62109375,-64.94140625,0.0,0,0
1772214069.489522,1772214069.4227645,-723.14453125,-4.39453125,-91.30859375,-41.015625,0.0,0,0
1772214069.489554,1772214069.4266589,481.4453125,53.22265625,161.62109375,73.2421875,0.0,0,0
1772214069.4895859,1772214069.4305532,-897.94921875,39.55078125,162.59765625,126.953125,0.0,0,0
1772214069.4896169,1772214069.4344475,34.66796875,-27.83203125,-123.53515625,33.203125,0.0,0,0
1772214069.489648,1772214069.4383419,-1000.0,-58.59375,-303.22265625,-80.56640625,0.0,0,0
1772214069.489677,1772214069.4422362,-827.63671875,-18.06640625,-138.671875,-57.6171875,0.0,0,0
1772214069.4897768,1772214069.4461305,350.09765625,43.9453125,153.80859375,51.7578125,0.0,0,0
1772214069.4898372,1772214069.4500248,-851.5625,36.1328125,166.9921875,112.79296875,0.0,0,0
1772214069.48987,1772214069.4539192,171.38671875,-48.33984375,-129.39453125,50.29296875,0.0,0,0
1772214069.48995,1772214069.4578135,-1000.0,-95.21484375,-333.984375,-65.91796875,0.0,0,0
1772214069.535912,1772214069.4618833,-963.8671875,-63.4765625,-217.7734375,-71.2890625,0.0,0,0
1772214069.535993,1772214069.4657776,147.4609375,-29.78515625,34.66796875,26.85546875,0.0,0,0
1772214069.536022,1772214069.469672,-842.7734375,-55.6640625,48.33984375,84.47265625,0.0,0,0
1772214069.5360498,1772214069.4735663,322.75390625,-131.34765625,-166.9921875,19.53125,0.0,0,0
1772214069.536074,1772214069.4774606,-932.12890625,-193.359375,-304.6875,-96.6796875,0.0,0,0
1772214069.536099,1772214069.481355,-1000.0,-157.71484375,-198.2421875,-107.91015625,0.0,0,0
1772214069.5361228,1772214069.4852493,9.27734375,-88.8671875,88.8671875,0.48828125,0.0,0,0
1772214069.53615,1772214069.4891436,-859.375,-80.078125,244.62890625,101.5625,0.0,0,0
1772214069.536174,1772214069.493038,449.70703125,-125.9765625,73.2421875,71.2890625,0.0,0,0
1772214069.536198,1772214069.4969323,-818.359375,-166.015625,-161.62109375,-39.0625,0.0,0,0
1772214069.536222,1772214069.5008268,-1000.0,-109.86328125,-108.88671875,-62.98828125,0.0,0,0
1772214069.536245,1772214069.5047212,-107.91015625,1.953125,148.4375,12.6953125,0.0,0,0
1772214069.580916,1772214069.508779,-893.06640625,30.76171875,250.9765625,104.4921875,0.0,0,0
1772214069.580971,1772214069.5126734,591.796875,-32.71484375,83.984375,89.35546875,0.0,0,0
1772214069.580996,1772214069.5165677,-660.15625,-64.453125,-154.78515625,-25.390625,0.0,0,0
1772214069.5810208,1772214069.520462,-1000.0,-28.80859375,-161.1328125,-71.77734375,0.0,0,0
1772214069.5810618,1772214069.5243566,-195.80078125,41.015625,125.48828125,0.9765625,0.0,0,0
1772214069.581088,1772214069.528251,-941.89453125,78.125,352.05078125,89.35546875,0.0,0,0
1772214069.581121,1772214069.5321453,739.2578125,8.7890625,224.609375,67.87109375,0.0,0,0
1772214069.581144,1772214069.5360396,-470.21484375,-62.5,4.8828125,-51.26953125,0.0,0,0
1772214069.5811682,1772214069.539934,-1000.0,-38.0859375,42.96875,-121.09375,0.0,0,0
1772214069.581215,1772214069.5438282,-281.25,69.3359375,319.3359375,-49.31640625,0.0,0,0
1772214069.58127,1772214069.5477228,996.58203125,115.72265625,493.1640625,69.82421875,0.0,0,0
1772214069.581318,1772214069.5516171,876.46484375,44.921875,289.55078125,80.56640625,0.0,0,0
1772214069.626119,1772214069.5556617,-295.41015625,-35.64453125,-36.62109375,-59.08203125,0.0,0,0
1772214069.6261709,1772214069.559556,-1000.0,-35.64453125,-131.8359375,-146.97265625,0.0,0,0
1772214069.626196,1772214069.5634506,-328.125,31.73828125,131.34765625,-43.45703125,0.0,0,0
1772214069.62622,1772214069.567345,935.546875,80.56640625,393.5546875,91.30859375,0.0,0,0
1772214069.626247,1772214069.5712392,-989.2578125,59.08203125,255.37109375,89.35546875,0.0,0,0
1772214069.626271,1772214069.5751336,-67.3828125,-6.34765625,-76.171875,-29.296875,0.0,0,0
1772214069.626294,1772214069.5790281,-1000.0,-39.55078125,-199.21875,-105.95703125,0.0,0,0
1772214069.626316,1772214069.5829225,-457.51953125,11.71875,-1.953125,-70.80078125,0.0,0,0
1772214069.626341,1772214069.5868168,821.77734375,72.265625,246.09375,39.55078125,0.0,0,0
1772214069.626364,1772214069.5907114,-912.109375,47.8515625,235.83984375,88.37890625,0.0,0,0
1772214069.626389,1772214069.5946057,60.546875,-22.4609375,-1.46484375,-13.18359375,0.0,0,0
1772214069.626413,1772214069.5985,-1000.0,-57.12890625,-138.18359375,-131.8359375,0.0,0,0
1772214069.670874,1772214069.6025343,-613.28125,-2.9296875,23.92578125,-84.47265625,0.0,0,0
1772214069.670961,1772214069.6064286,664.55078125,50.29296875,291.9921875,52.24609375,0.0,0,0
1772214069.670989,1772214069.6103232,-869.62890625,32.2265625,339.35546875,93.26171875,0.0,0,0
1772214069.671017,1772214069.6142175,131.34765625,-17.578125,99.609375,16.11328125,0.0,0,0
1772214069.671045,1772214069.618112,-1000.0,-40.0390625,-73.2421875,-110.3515625,0.0,0,0
1772214069.671071,1772214069.6220064,-741.69921875,14.6484375,127.44140625,-105.95703125,0.0,0,0
1772214069.6710951,1772214069.6259007,506.8359375,61.03515625,388.671875,38.57421875,0.0,0,0
1772214069.6711192,1772214069.6297953,-845.703125,28.80859375,373.53515625,101.07421875,0.0,0,0
1772214069.6711428,1772214069.6336896,182.12890625,-29.296875,119.62890625,10.25390625,0.0,0,0
1772214069.671167,1772214069.6375842,-1000.0,-60.05859375,-76.66015625,-125.48828125,0.0,0,0
1772214069.671191,1772214069.6414785,-926.26953125,-13.671875,66.40625,-131.8359375,0.0,0,0
1772214069.671214,1772214069.6453729,241.69921875,47.8515625,367.1875,7.8125,0.0,0,0
1772214069.7159739,1772214069.649394,-827.1484375,35.15625,397.94921875,101.5625,0.0,0,0
1772214069.716056,1772214069.6532884,322.75390625,-33.69140625,119.140625,22.4609375,0.0,0,0
1772214069.716083,1772214069.657183,-963.8671875,-69.3359375,-112.3046875,-104.98046875,0.0,0,0
1772214069.716108,1772214069.6610773,-1000.0,-24.90234375,8.7890625,-108.88671875,0.0,0,0
1772214069.7161338,1772214069.6649718,101.07421875,42.96875,341.796875,4.8828125,0.0,0,0
1772214069.716157,1772214069.6688662,-840.8203125,69.82421875,453.125,99.609375,0.0,0,0
1772214069.716181,1772214069.6727607,414.0625,2.9296875,204.1015625,47.8515625,0.0,0,0
1772214069.7162051,1772214069.676655,-860.83984375,-54.19921875,-87.890625,-98.14453125,0.0,0,0
1772214069.7162292,1772214069.6805496,-1000.0,-11.71875,-110.3515625,-134.765625,0.0,0,0
1772214069.7162519,1772214069.684444,-61.5234375,41.015625,118.65234375,-9.765625,0.0,0,0
1772214069.716278,1772214069.6883385,-873.53515625,49.31640625,240.234375,109.86328125,0.0,0,0
1772214069.7163022,1772214069.6922328,583.49609375,-4.8828125,50.29296875,71.77734375,0.0,0,0
1772214069.7620978,1772214069.6962466,-689.94140625,-72.265625,-150.390625,-47.36328125,0.0,0,0
1772214069.762218,1772214069.700141,-1000.0,-63.96484375,-101.5625,-86.42578125,0.0,0,0
1772214069.76226,1772214069.7040355,-127.44140625,6.34765625,199.21875,25.390625,0.0,0,0
1772214069.762298,1772214069.7079298,-909.66796875,32.2265625,368.1640625,157.71484375,0.0,0,0
1772214069.7630541,1772214069.7118244,700.1953125,-34.66796875,183.59375,121.09375,0.0,0,0
1772214069.7631009,1772214069.715719,-530.76171875,-96.19140625,-56.640625,-42.48046875,0.0,0,0
1772214069.7631402,1772214069.7196133,-1000.0,-86.9140625,-69.82421875,-122.55859375,0.0,0,0
1772214069.7631779,1772214069.723508,-274.4140625,-41.015625,179.19921875,-32.2265625,0.0,0,0
1772214069.7632158,1772214069.7274022,-985.3515625,-9.27734375,344.23828125,104.00390625,0.0,0,0
1772214069.763253,1772214069.7312968,843.75,-38.0859375,179.6875,109.375,0.0,0,0
1772214069.763289,1772214069.735191,-344.23828125,-102.5390625,-110.3515625,-25.390625,0.0,0,0
1772214069.763326,1772214069.7390857,-1000.0,-96.6796875,-185.546875,-125.0,0.0,0,0
1772214069.835711,1772214069.7432656,-408.203125,-15.625,84.47265625,-41.015625,0.0,0,0
1772214069.835822,1772214069.74716,903.3203125,27.34375,335.44921875,113.28125,0.0,0,0
1772214069.835855,1772214069.7510545,974.609375,-8.7890625,227.05078125,132.8125,0.0,0,0
1772214069.835885,1772214069.754949,-169.921875,-92.7734375,-56.640625,15.13671875,0.0,0,0
1772214069.8359098,1772214069.7588437,-1000.0,-124.0234375,-130.37109375,-120.1171875,0.0,0,0
1772214069.8359349,1772214069.762738,-542.96875,-42.96875,101.5625,-86.9140625,0.0,0,0
1772214069.8359601,1772214069.7666326,772.4609375,20.01953125,294.921875,69.82421875,0.0,0,0
1772214069.8359838,1772214069.7705271,-960.44921875,-20.01953125,226.5625,126.953125,0.0,0,0
1772214069.8360078,1772214069.7744217,-90.33203125,-108.88671875,-38.57421875,23.92578125,0.0,0,0
1772214069.836034,1772214069.778316,-1000.0,-127.9296875,-135.25390625,-105.46875,0.0,0,0
1772214069.8360581,1772214069.7822106,-688.4765625,-55.6640625,117.1875,-76.171875,0.0,0,0
1772214069.836084,1772214069.7861052,582.03125,6.34765625,347.16796875,61.03515625,0.0,0,0
1772214069.864264,1772214069.7900987,-878.41796875,-20.99609375,315.91796875,117.1875,0.0,0,0
1772214069.864326,1772214069.7939932,55.17578125,-102.5390625,61.5234375,23.4375,0.0,0,0
1772214069.864353,1772214069.7978878,-1000.0,-136.71875,-132.8125,-108.3984375,0.0,0,0
1772214069.864376,1772214069.8017824,-811.5234375,-87.40234375,23.4375,-85.9375,0.0,0,0
1772214069.864404,1772214069.8056767,408.69140625,-16.11328125,300.78125,58.59375,0.0,0,0
1772214069.864429,1772214069.8095713,-832.51953125,-17.578125,327.1484375,136.71875,0.0,0,0
1772214069.864453,1772214069.8134658,199.70703125,-98.6328125,20.01953125,49.8046875,0.0,0,0
1772214069.864477,1772214069.8173604,-1000.0,-132.8125,-207.51953125,-99.609375,0.0,0,0
1772214069.8645,1772214069.821255,-923.33984375,-86.9140625,-62.01171875,-113.28125,0.0,0,0
1772214069.8645241,1772214069.8251495,239.2578125,-0.9765625,196.2890625,27.34375,0.0,0,0
1772214069.8645482,1772214069.829044,-834.47265625,3.41796875,218.75,135.7421875,0.0,0,0
1772214069.8645718,1772214069.8329384,336.9140625,-80.078125,-72.265625,71.2890625,0.0,0,0
1772214069.910609,1772214069.8369136,-940.91796875,-112.79296875,-296.875,-63.96484375,0.0,0,0
1772214069.910709,1772214069.8408082,-1000.0,-81.54296875,-226.5625,-91.796875,0.0,0,0
1772214069.910738,1772214069.8447027,70.3125,-25.390625,30.2734375,19.53125,0.0,0,0
1772214069.910764,1772214069.8485973,-855.46875,-16.11328125,117.1875,140.625,0.0,0,0
1772214069.91079,1772214069.8524919,495.1171875,-79.1015625,-111.328125,98.6328125,0.0,0,0
1772214069.910815,1772214069.8563864,-789.55078125,-125.48828125,-321.2890625,-61.5234375,0.0,0,0
1772214069.910839,1772214069.860281,-1000.0,-108.3984375,-262.20703125,-115.72265625,0.0,0,0
1772214069.9108632,1772214069.8641756,-58.59375,-43.9453125,-0.9765625,5.37109375,0.0,0,0
1772214069.910887,1772214069.8680701,-885.25390625,-19.04296875,156.73828125,144.53125,0.0,0,0
1772214069.910913,1772214069.8719645,622.55859375,-61.5234375,8.7890625,111.328125,0.0,0,0
1772214069.910936,1772214069.875859,-637.6953125,-101.5625,-213.37890625,-44.921875,0.0,0,0
1772214069.910959,1772214069.8797536,-1000.0,-90.33203125,-159.66796875,-120.1171875,0.0,0,0
1772214069.956044,1772214069.883811,-178.7109375,-18.5546875,137.20703125,-21.97265625,0.0,0,0
1772214069.956653,1772214069.8877056,-937.5,13.18359375,307.12890625,128.41796875,0.0,0,0
1772214069.9571562,1772214069.8916001,754.8828125,-51.26953125,171.38671875,116.2109375,0.0,0,0
1772214069.9574752,1772214069.8954947,-449.21875,-104.4921875,-84.47265625,-39.55078125,0.0,0,0
1772214069.9583402,1772214069.8993893,-1000.0,-93.75,-140.13671875,-129.39453125,0.0,0,0
1772214069.958542,1772214069.9032838,-285.64453125,-23.92578125,119.140625,-46.875,0.0,0,0
1772214069.959008,1772214069.9071784,990.72265625,-1.46484375,328.125,101.5625,0.0,0,0
1772214069.9592252,1772214069.911073,890.13671875,-52.24609375,203.61328125,120.60546875,0.0,0,0
1772214069.959403,1772214069.9149675,-253.90625,-97.65625,-52.24609375,-1.953125,0.0,0,0
1772214069.9595048,1772214069.918862,-1000.0,-92.7734375,-147.4609375,-111.81640625,0.0,0,0
1772214069.959549,1772214069.9227567,-447.75390625,-28.80859375,20.5078125,-64.94140625,0.0,0,0
1772214069.959575,1772214069.9266512,865.234375,8.7890625,192.3828125,95.21484375,0.0,0,0
1772214070.0012648,1772214069.9306972,991.2109375,-24.90234375,93.75,140.13671875,0.0,0,0
1772214070.001377,1772214069.9345918,-130.859375,-88.8671875,-187.5,7.32421875,0.0,0,0
1772214070.0014029,1772214069.9384863,-1000.0,-104.00390625,-306.640625,-101.5625,0.0,0,0
1772214070.001429,1772214069.942381,-604.4921875,-37.109375,-112.79296875,-67.87109375,0.0,0,0
1772214070.0014532,1772214069.9462755,687.5,6.8359375,84.9609375,66.40625,0.0,0,0
1772214070.001477,1772214069.95017,-932.12890625,-10.25390625,53.7109375,150.390625,0.0,0,0
1772214070.001534,1772214069.9540648,-20.01953125,-74.21875,-134.27734375,49.8046875,0.0,0,0
1772214070.0015638,1772214069.9579594,-1000.0,-109.86328125,-247.55859375,-90.33203125,0.0,0,0
1772214070.001589,1772214069.961854,-745.60546875,-38.0859375,-66.40625,-68.359375,0.0,0,0
1772214070.001615,1772214069.9657485,494.62890625,9.765625,206.54296875,71.2890625,0.0,0,0
1772214070.001639,1772214069.969643,-877.44140625,-24.4140625,199.70703125,160.15625,0.0,0,0
1772214070.001663,1772214069.9735377,96.19140625,-61.5234375,-73.73046875,74.70703125,0.0,0,0
1772214070.046884,1772214069.9775732,-1000.0,-72.265625,-248.53515625,-72.265625,0.0,0,0
1772214070.047044,1772214069.9814677,-845.703125,-43.45703125,-129.39453125,-59.08203125,0.0,0,0
1772214070.0470881,1772214069.9853623,331.54296875,-5.37109375,124.51171875,66.89453125,0.0,0,0
1772214070.047128,1772214069.989257,-853.02734375,-12.6953125,217.28515625,137.6953125,0.0,0,0
1772214070.047167,1772214069.9931517,268.5546875,-62.5,-1.953125,73.2421875,0.0,0,0
1772214070.047206,1772214069.9970462,-977.05078125,-88.37890625,-182.6171875,-57.6171875,0.0,0,0
1772214070.047244,1772214070.0009408,-972.65625,-72.265625,-37.109375,-59.08203125,0.0,0,0
1772214070.047282,1772214070.0048356,151.85546875,-23.4375,203.125,77.1484375,0.0,0,0
1772214070.047318,1772214070.0087302,-860.83984375,-0.48828125,239.74609375,144.53125,0.0,0,0
1772214070.047362,1772214070.0126247,414.0625,-48.828125,33.69140625,76.171875,0.0,0,0
1772214070.0473979,1772214070.0165193,-850.5859375,-87.40234375,-176.7578125,-44.43359375,0.0,0,0
1772214070.0474398,1772214070.0204139,-1000.0,-60.546875,-128.41796875,-93.26171875,0.0,0,0
1772214070.135453,1772214070.024702,36.1328125,-3.90625,162.109375,24.4140625,0.0,0,0
1772214070.1354911,1772214070.0285969,-885.7421875,3.90625,333.0078125,164.0625,0.0,0,0
1772214070.135503,1772214070.0324914,585.44921875,-53.22265625,194.82421875,133.30078125,0.0,0,0
1772214070.135517,1772214070.0363863,-671.875,-95.21484375,-11.23046875,-34.66796875,0.0,0,0
1772214070.135558,1772214070.0402808,-1000.0,-77.63671875,23.4375,-99.12109375,0.0,0,0
1772214070.135571,1772214070.0441756,-68.84765625,-2.9296875,301.7578125,23.4375,0.0,0,0
1772214070.135582,1772214070.0480702,-916.50390625,47.36328125,447.75390625,169.921875,0.0,0,0
1772214070.1356668,1772214070.051965,683.10546875,-13.18359375,277.83203125,162.109375,0.0,0,0
1772214070.13568,1772214070.0558596,-534.1796875,-88.37890625,34.66796875,9.27734375,0.0,0,0
1772214070.135757,1772214070.0597544,-1000.0,-63.96484375,25.390625,-81.0546875,0.0,0,0
1772214070.135767,1772214070.063649,-226.07421875,7.8125,240.72265625,-2.44140625,0.0,0,0
1772214070.135777,1772214070.0675437,-981.93359375,27.34375,396.97265625,154.296875,0.0,0,0
1772214070.164178,1772214070.0715702,795.8984375,-41.015625,248.53515625,167.48046875,0.0,0,0
1772214070.164216,1772214070.075465,-379.39453125,-110.83984375,-47.8515625,8.30078125,0.0,0,0
1772214070.1642299,1772214070.0793595,-1000.0,-105.95703125,-113.28125,-114.2578125,0.0,0,0
1772214070.1642408,1772214070.0832543,-348.6328125,-40.0390625,145.5078125,-56.15234375,0.0,0,0
1772214070.1642518,1772214070.087149,927.24609375,-7.32421875,342.28515625,98.14453125,0.0,0,0
1772214070.164263,1772214070.0910437,898.92578125,-36.1328125,222.65625,128.90625,0.0,0,0
1772214070.164274,1772214070.0949385,-230.46875,-90.8203125,-57.6171875,-11.23046875,0.0,0,0
1772214070.164284,1772214070.098833,-1000.0,-105.46875,-152.83203125,-134.765625,0.0,0,0
1772214070.164295,1772214070.102728,-516.6015625,-40.52734375,109.375,-78.61328125,0.0,0,0
1772214070.164305,1772214070.1066225,776.85546875,-2.9296875,373.53515625,69.82421875,0.0,0,0
1772214070.164316,1772214070.1105173,999.51171875,-17.578125,312.5,119.62890625,0.0,0,0
1772214070.164326,1772214070.114412,-102.05078125,-71.2890625,14.6484375,-0.9765625,0.0,0,0
1772214070.1805,1772214070.1184123,-1000.0,-130.859375,-99.609375,-153.80859375,0.0,0,0
1772214070.180521,1772214070.122307,-650.87890625,-91.30859375,85.44921875,-125.0,0.0,0,0
1772214070.180532,1772214070.1262016,621.09375,-31.73828125,304.6875,33.203125,0.0,0,0
1772214070.180543,1772214070.1300964,-936.03515625,-53.22265625,230.46875,85.9375,0.0,0,0
1772214070.180568,1772214070.1339912,-1.46484375,-121.58203125,-98.6328125,-15.625,0.0,0,0
1772214070.180591,1772214070.1378858,-1000.0,-108.88671875,-265.13671875,-127.9296875,0.0,0,0
1772214070.180604,1772214070.1417806,-778.3203125,-25.87890625,-119.62890625,-118.65234375,0.0,0,0
1772214070.1806169,1772214070.1456754,429.6875,-4.39453125,125.9765625,27.83203125,0.0,0,0
1772214070.180634,1772214070.14957,-880.37109375,-34.66796875,112.79296875,125.48828125,0.0,0,0
1772214070.180646,1772214070.1534648,181.640625,-77.63671875,-131.8359375,25.87890625,0.0,0,0
1772214070.180657,1772214070.1573596,-1000.0,-107.91015625,-269.04296875,-112.79296875,0.0,0,0
1772214070.180684,1772214070.1612542,-854.00390625,-54.6875,-129.39453125,-104.98046875,0.0,0,0
1772214070.2255769,1772214070.1652381,312.5,6.8359375,122.0703125,28.3203125,0.0,0,0
1772214070.225621,1772214070.1691327,-865.72265625,-9.765625,156.73828125,133.7890625,0.0,0,0
1772214070.2256372,1772214070.1730275,355.46875,-81.0546875,-55.6640625,56.15234375,0.0,0,0
1772214070.225651,1772214070.1769223,-910.64453125,-110.3515625,-229.00390625,-112.3046875,0.0,0,0
1772214070.225664,1772214070.180817,-973.14453125,-65.4296875,-165.52734375,-156.25,0.0,0,0
1772214070.225695,1772214070.1847117,156.25,-3.41796875,122.0703125,-22.4609375,0.0,0,0
1772214070.225718,1772214070.1886065,-880.37109375,2.9296875,238.28125,115.72265625,0.0,0,0
1772214070.225733,1772214070.1925013,472.16796875,-66.89453125,12.6953125,58.59375,0.0,0,0
1772214070.2257469,1772214070.1963959,-781.73828125,-127.44140625,-163.0859375,-95.21484375,0.0,0,0
1772214070.22576,1772214070.2002907,-1000.0,-96.6796875,-81.0546875,-148.4375,0.0,0,0
1772214070.2257721,1772214070.2041855,32.2265625,-7.8125,179.6875,-26.85546875,0.0,0,0
1772214070.2258,1772214070.2080803,-909.66796875,9.765625,277.83203125,118.1640625,0.0,0,0
1772214070.2845562,1772214070.2120528,645.01953125,-61.5234375,53.22265625,102.5390625,0.0,0,0
1772214070.284599,1772214070.2159474,-584.9609375,-114.2578125,-235.83984375,-41.9921875,0.0,0,0
1772214070.284616,1772214070.2198422,-1000.0,-81.54296875,-289.55078125,-134.765625,0.0,0,0
1772214070.284631,1772214070.223737,-99.12109375,-0.48828125,-61.5234375,-53.7109375,0.0,0,0
1772214070.284684,1772214070.2276318,-952.63671875,12.6953125,118.65234375,101.07421875,0.0,0,0
1772214070.284704,1772214070.2315266,777.83203125,-47.36328125,-1.46484375,120.60546875,0.0,0,0
1772214070.284719,1772214070.2354212,-403.80859375,-115.234375,-250.9765625,-29.296875,0.0,0,0
1772214070.284734,1772214070.239316,-1000.0,-107.91015625,-292.48046875,-129.39453125,0.0,0,0
1772214070.284748,1772214070.2432108,-265.625,-35.15625,-80.56640625,-42.48046875,0.0,0,0
1772214070.2847629,1772214070.2471056,966.796875,-7.8125,94.23828125,101.07421875,0.0,0,0
1772214070.284777,1772214070.2510004,864.2578125,-43.9453125,15.13671875,129.39453125,0.0,0,0
1772214070.284791,1772214070.254895,-279.78515625,-107.91015625,-271.484375,-8.7890625,0.0,0,0
1772214070.3307729,1772214070.2589447,-1000.0,-115.72265625,-374.0234375,-140.625,0.0,0,0
1772214070.330818,1772214070.2628396,-444.3359375,-44.43359375,-125.48828125,-84.9609375,0.0,0,0
1772214070.330842,1772214070.2667344,842.7734375,-6.34765625,84.9609375,63.96484375,0.0,0,0
1772214070.330863,1772214070.270629,941.89453125,-36.62109375,31.25,104.00390625,0.0,0,0
1772214070.330883,1772214070.2745237,-190.4296875,-108.88671875,-196.77734375,-21.97265625,0.0,0,0
1772214070.3309052,1772214070.2784185,-1000.0,-125.0,-288.0859375,-129.39453125,0.0,0,0
1772214070.330924,1772214070.2823133,-621.58203125,-51.26953125,-86.9140625,-90.8203125,0.0,0,0
1772214070.3309429,1772214070.2862082,648.4375,2.44140625,142.08984375,54.19921875,0.0,0,0
1772214070.330963,1772214070.290103,-970.703125,-18.5546875,116.2109375,118.1640625,0.0,0,0
1772214070.330982,1772214070.2939978,-56.15234375,-80.56640625,-139.16015625,3.90625,0.0,0,0
1772214070.3310342,1772214070.2978926,-1000.0,-105.95703125,-275.87890625,-125.0,0.0,0,0
1772214070.3310652,1772214070.3017874,-726.5625,-52.734375,-105.95703125,-107.91015625,0.0,0,0
1772214070.376587,1772214070.3058274,502.44140625,-9.27734375,146.97265625,41.9921875,0.0,0,0
1772214070.37664,1772214070.3097222,-905.2734375,-29.78515625,160.64453125,129.8828125,0.0,0,0
1772214070.376673,1772214070.313617,100.5859375,-89.35546875,-52.24609375,31.25,0.0,0,0
1772214070.376704,1772214070.3175118,-1000.0,-115.234375,-204.58984375,-121.58203125,0.0,0,0
1772214070.376735,1772214070.3214066,-850.09765625,-49.31640625,-99.609375,-126.953125,0.0,0,0
1772214070.376765,1772214070.3253014,323.73046875,24.90234375,144.04296875,18.5546875,0.0,0,0
1772214070.376838,1772214070.3291962,-884.27734375,15.625,191.89453125,130.859375,0.0,0,0
1772214070.376894,1772214070.333091,221.19140625,-73.2421875,-53.7109375,53.22265625,0.0,0,0
1772214070.376927,1772214070.3369858,-976.07421875,-131.34765625,-249.51171875,-110.3515625,0.0,0,0
1772214070.376958,1772214070.3408806,-940.91796875,-87.40234375,-174.8046875,-140.13671875,0.0,0,0
1772214070.3769898,1772214070.3447754,176.26953125,-14.16015625,81.0546875,-1.46484375,0.0,0,0
1772214070.37702,1772214070.3486702,-871.58203125,-6.8359375,206.0546875,134.765625,0.0,0,0
1772214070.4497752,1772214070.3527925,445.3125,-82.51953125,17.08984375,86.9140625,0.0,0,0
1772214070.449835,1772214070.3566873,-820.80078125,-133.7890625,-237.79296875,-77.63671875,0.0,0,0
1772214070.4498508,1772214070.360582,-1000.0,-105.46875,-229.98046875,-126.953125,0.0,0,0
1772214070.4498649,1772214070.364477,43.45703125,-47.8515625,63.4765625,-26.3671875,0.0,0,0
1772214070.449878,1772214070.3683717,-893.5546875,-36.62109375,211.42578125,103.02734375,0.0,0,0
1772214070.449939,1772214070.3722665,575.68359375,-95.703125,7.8125,99.609375,0.0,0,0
1772214070.4499671,1772214070.3761616,-678.22265625,-140.625,-207.51953125,-56.15234375,0.0,0,0
1772214070.449982,1772214070.3800564,-1000.0,-119.140625,-173.33984375,-141.11328125,0.0,0,0
1772214070.450023,1772214070.3839512,-52.734375,-54.19921875,115.234375,-42.96875,0.0,0,0
1772214070.45004,1772214070.387846,-937.01171875,-24.90234375,303.22265625,104.4921875,0.0,0,0
1772214070.4500842,1772214070.3917408,719.7265625,-65.91796875,158.69140625,102.5390625,0.0,0,0
1772214070.450125,1772214070.3956356,-477.05078125,-109.375,-62.01171875,-44.921875,0.0,0,0
1772214070.465513,1772214070.3996577,-1000.0,-102.5390625,-69.3359375,-141.6015625,0.0,0,0
1772214070.4656231,1772214070.4035525,-193.359375,-41.9921875,211.42578125,-64.453125,0.0,0,0
1772214070.465641,1772214070.4074473,-999.51171875,-5.859375,391.11328125,92.28515625,0.0,0,0
1772214070.465655,1772214070.4113424,840.8203125,-51.7578125,256.8359375,121.09375,0.0,0,0
1772214070.4656682,1772214070.4152372,-306.15234375,-124.51171875,-6.34765625,-26.3671875,0.0,0,0
1772214070.4656808,1772214070.419132,-1000.0,-116.2109375,-89.35546875,-140.625,0.0,0,0
1772214070.465694,1772214070.4230268,-372.55859375,-27.83203125,159.66796875,-69.82421875,0.0,0,0
1772214070.465707,1772214070.4269218,894.04296875,0.48828125,357.421875,73.2421875,0.0,0,0
1772214070.4657202,1772214070.4308167,913.0859375,-49.31640625,255.37109375,109.86328125,0.0,0,0
1772214070.465733,1772214070.4347115,-206.54296875,-96.6796875,0.9765625,-8.7890625,0.0,0,0
1772214070.465745,1772214070.4386063,-1000.0,-95.703125,-89.35546875,-132.8125,0.0,0,0
1772214070.4657578,1772214070.4425013,-504.39453125,-27.34375,111.81640625,-103.02734375,0.0,0,0
1772214070.510574,1772214070.446506,757.32421875,12.20703125,309.5703125,46.875,0.0,0,0
1772214070.5106099,1772214070.4504008,-969.7265625,-14.16015625,259.765625,110.3515625,0.0,0,0
1772214070.510626,1772214070.4542959,-24.90234375,-74.21875,-11.71875,-2.44140625,0.0,0,0
1772214070.5106409,1772214070.4581907,-1000.0,-112.79296875,-141.6015625,-134.765625,0.0,0,0
1772214070.510656,1772214070.4620855,-658.203125,-55.17578125,113.28125,-109.375,0.0,0,0
1772214070.5106702,1772214070.4659805,588.8671875,13.671875,402.34375,33.203125,0.0,0,0
1772214070.510685,1772214070.4698753,-906.73828125,-6.8359375,416.015625,114.74609375,0.0,0,0
1772214070.510699,1772214070.4737701,112.3046875,-93.75,168.45703125,42.96875,0.0,0,0
1772214070.510713,1772214070.4776652,-1000.0,-112.3046875,-19.04296875,-109.86328125,0.0,0,0
1772214070.510727,1772214070.48156,-817.87109375,-44.921875,67.3828125,-125.0,0.0,0,0
1772214070.510741,1772214070.4854548,372.55859375,4.39453125,261.23046875,20.99609375,0.0,0,0
1772214070.510755,1772214070.4893498,-888.18359375,-16.6015625,284.66796875,103.515625,0.0,0,0
1772214070.5554938,1772214070.493343,215.33203125,-79.1015625,37.59765625,29.296875,0.0,0,0
1772214070.55552,1772214070.497238,-984.375,-113.28125,-162.59765625,-96.6796875,0.0,0,0
1772214070.555539,1772214070.501133,-915.0390625,-85.44921875,-53.22265625,-108.3984375,0.0,0,0
1772214070.555555,1772214070.5050278,226.5625,-33.203125,207.51953125,24.4140625,0.0,0,0
1772214070.555572,1772214070.5089226,-884.765625,-15.13671875,269.04296875,123.046875,0.0,0,0
1772214070.555588,1772214070.5128176,364.2578125,-41.015625,57.6171875,66.40625,0.0,0,0
1772214070.555628,1772214070.5167124,-855.46875,-79.58984375,-165.52734375,-75.1953125,0.0,0,0
1772214070.555661,1772214070.5206075,-1000.0,-67.3828125,-121.09375,-121.09375,0.0,0,0
1772214070.555679,1772214070.5245023,63.96484375,10.25390625,156.73828125,1.953125,0.0,0,0
1772214070.555696,1772214070.528397,-899.90234375,22.4609375,310.546875,144.04296875,0.0,0,0
1772214070.555713,1772214070.5322921,513.671875,-61.5234375,147.4609375,141.11328125,0.0,0,0
1772214070.5557299,1772214070.536187,-704.58984375,-103.515625,-108.3984375,-0.9765625,0.0,0,0
1772214070.614049,1772214070.540169,-1000.0,-56.640625,-117.67578125,-111.328125,0.0,0,0
1772214070.614086,1772214070.5440638,-47.8515625,10.25390625,133.7890625,-30.76171875,0.0,0,0
1772214070.6140978,1772214070.5479586,-930.17578125,25.87890625,282.2265625,117.67578125,0.0,0,0
1772214070.6141078,1772214070.5518537,657.71484375,-28.80859375,162.109375,77.63671875,0.0,0,0
1772214070.6141179,1772214070.5557485,-549.31640625,-64.94140625,-24.4140625,-105.46875,0.0,0,0
1772214070.6141272,1772214070.5596435,-1000.0,-25.87890625,-20.01953125,-183.59375,0.0,0,0
1772214070.6141372,1772214070.5635383,-189.453125,25.87890625,203.125,-91.30859375,0.0,0,0
1772214070.614146,1772214070.5674334,973.6328125,56.640625,346.19140625,36.62109375,0.0,0,0
1772214070.614157,1772214070.5713282,775.390625,36.1328125,198.2421875,29.296875,0.0,0,0
1772214070.614166,1772214070.5752232,-398.4375,-18.06640625,-68.84765625,-86.42578125,0.0,0,0
1772214070.614175,1772214070.579118,-1000.0,-22.4609375,-114.2578125,-154.78515625,0.0,0,0
1772214070.6141849,1772214070.583013,-413.0859375,41.9921875,85.9375,-90.33203125,0.0,0,0
1772214070.6606112,1772214070.586985,850.09765625,67.87109375,241.69921875,56.15234375,0.0,0,0
1772214070.660646,1772214070.59088,822.75390625,16.11328125,117.1875,89.35546875,0.0,0,0
1772214070.660657,1772214070.594775,-348.14453125,-56.15234375,-162.109375,-28.3203125,0.0,0,0
1772214070.6606662,1772214070.5986698,-1000.0,-89.84375,-296.38671875,-121.58203125,0.0,0,0
1772214070.660674,1772214070.6025648,-609.375,-40.0390625,-176.26953125,-72.75390625,0.0,0,0
1772214070.660683,1772214070.6064596,666.015625,27.83203125,4.39453125,60.546875,0.0,0,0
1772214070.660691,1772214070.6103547,916.9921875,-9.765625,-33.203125,97.65625,0.0,0,0
1772214070.6606998,1772214070.6142495,-226.07421875,-82.03125,-250.9765625,0.0,0.0,0,0
1772214070.6607082,1772214070.6181445,-1000.0,-79.58984375,-331.0546875,-105.95703125,0.0,0,0
1772214070.660716,1772214070.6220393,-691.40625,-34.66796875,-136.23046875,-85.44921875,0.0,0,0
1772214070.660724,1772214070.6259344,517.578125,-3.41796875,100.5859375,58.59375,0.0,0,0
1772214070.660733,1772214070.6298292,-986.328125,-24.4140625,149.90234375,141.11328125,0.0,0,0
1772214070.73549,1772214070.6340523,-19.04296875,-82.03125,-20.99609375,52.24609375,0.0,0,0
1772214070.7355242,1772214070.637947,-1000.0,-105.95703125,-206.54296875,-98.6328125,0.0,0,0
1772214070.7355342,1772214070.6418421,-790.52734375,-59.5703125,-105.95703125,-104.98046875,0.0,0,0
1772214070.735543,1772214070.6457372,399.4140625,-9.27734375,112.3046875,41.50390625,0.0,0,0
1772214070.735552,1772214070.6496322,-933.10546875,-21.97265625,134.765625,136.71875,0.0,0,0
1772214070.73556,1772214070.653527,180.17578125,-71.77734375,-45.41015625,70.3125,0.0,0,0
1772214070.735569,1772214070.657422,-953.125,-114.2578125,-214.84375,-58.10546875,0.0,0,0
1772214070.735577,1772214070.661317,-886.23046875,-77.63671875,-104.98046875,-78.61328125,0.0,0,0
1772214070.735585,1772214070.665212,258.7890625,-3.41796875,189.94140625,23.92578125,0.0,0,0
1772214070.735594,1772214070.669107,-916.015625,-4.39453125,291.015625,114.2578125,0.0,0,0
1772214070.735602,1772214070.673002,313.96484375,-70.80078125,66.89453125,73.73046875,0.0,0,0
1772214070.73561,1772214070.676897,-853.02734375,-101.07421875,-135.25390625,-60.05859375,0.0,0,0
1772214070.764307,1772214070.680938,-972.16796875,-68.84765625,-47.8515625,-104.98046875,0.0,0,0
1772214070.764343,1772214070.684833,95.21484375,-14.16015625,206.54296875,4.8828125,0.0,0,0
1772214070.764353,1772214070.688728,-921.38671875,4.39453125,315.4296875,119.62890625,0.0,0,0
1772214070.764362,1772214070.6926231,441.89453125,-55.17578125,155.76171875,83.984375,0.0,0,0
1772214070.764371,1772214070.6965182,-742.1875,-94.7265625,-20.01953125,-53.7109375,0.0,0,0
1772214070.764381,1772214070.7004132,-1000.0,-78.125,-14.16015625,-117.67578125,0.0,0,0
1772214070.76439,1772214070.7043083,-176.26953125,-29.78515625,182.12890625,-31.25,0.0,0,0
1772214070.764398,1772214070.708203,964.35546875,0.9765625,289.55078125,95.21484375,0.0,0,0
1772214070.764406,1772214070.7120981,522.4609375,-45.8984375,66.40625,82.51953125,0.0,0,0
1772214070.764415,1772214070.7159932,-672.8515625,-87.40234375,-170.8984375,-44.43359375,0.0,0,0
1772214070.764423,1772214070.7198882,-1000.0,-71.2890625,-165.52734375,-113.76953125,0.0,0,0
1772214070.764431,1772214070.7237833,-297.36328125,-10.7421875,106.93359375,-24.90234375,0.0,0,0
1772214070.795421,1772214070.727808,906.73828125,17.08984375,313.4765625,112.79296875,0.0,0,0
1772214070.795451,1772214070.731703,697.75390625,-33.69140625,165.52734375,114.74609375,0.0,0,0
1772214070.79546,1772214070.735598,-496.09375,-98.14453125,-28.3203125,3.41796875,0.0,0,0
1772214070.795469,1772214070.7394931,-1000.0,-109.86328125,11.71875,-79.58984375,0.0,0,0
1772214070.795477,1772214070.7433882,-420.41015625,-51.7578125,278.80859375,-33.69140625,0.0,0,0
1772214070.795533,1772214070.7472832,803.7109375,-4.39453125,447.75390625,91.30859375,0.0,0,0
1772214070.795542,1772214070.7511783,839.35546875,-41.50390625,275.87890625,112.79296875,0.0,0,0
1772214070.795551,1772214070.7550733,-294.43359375,-97.65625,-12.6953125,-0.48828125,0.0,0,0
1772214070.79556,1772214070.7589684,-1000.0,-98.14453125,-102.5390625,-102.05078125,0.0,0,0
1772214070.7955682,1772214070.7628634,-437.01171875,-44.921875,94.23828125,-57.12890625,0.0,0,0
1772214070.795577,1772214070.7667584,747.0703125,-8.7890625,295.8984375,79.58984375,0.0,0,0
1772214070.795585,1772214070.7706535,952.1484375,-34.1796875,233.88671875,122.55859375,0.0,0,0
1772214070.8404741,1772214070.7746673,7.32421875,-83.984375,0.0,21.97265625,0.0,0,0
1772214070.840498,1772214070.7785623,-1000.0,-96.6796875,-91.30859375,-104.98046875,0.0,0,0
1772214070.8405068,1772214070.7824574,-602.05078125,-47.36328125,91.796875,-92.7734375,0.0,0,0
1772214070.840516,1772214070.7863524,608.88671875,-0.9765625,319.3359375,27.34375,0.0,0,0
1772214070.840524,1772214070.7902474,-985.83984375,-8.30078125,330.078125,90.8203125,0.0,0,0
1772214070.840533,1772214070.7941425,167.48046875,-47.8515625,113.76953125,16.6015625,0.0,0,0
1772214070.840541,1772214070.7980375,-930.17578125,-79.1015625,-35.15625,-113.28125,0.0,0,0
1772214070.8405492,1772214070.8019326,-748.53515625,-47.36328125,78.125,-112.3046875,0.0,0,0
1772214070.840558,1772214070.8058276,441.89453125,5.859375,310.05859375,10.7421875,0.0,0,0
1772214070.840566,1772214070.8097227,-937.01171875,10.7421875,418.9453125,87.890625,0.0,0,0
1772214070.840575,1772214070.8136177,397.94921875,-39.0625,349.12109375,22.4609375,0.0,0,0
1772214070.8405828,1772214070.8175128,-766.6015625,-75.1953125,239.2578125,-92.7734375,0.0,0,0
1772214070.8854568,1772214070.8215156,-815.4296875,-33.203125,315.4296875,-107.421875,0.0,0,0
1772214070.885488,1772214070.8254106,346.19140625,20.01953125,573.2421875,8.7890625,0.0,0,0
1772214070.8855,1772214070.8293056,-939.453125,24.4140625,675.78125,110.83984375,0.0,0,0
1772214070.885509,1772214070.8332007,264.16015625,-36.62109375,483.3984375,50.29296875,0.0,0,0
1772214070.8855171,1772214070.8370957,-867.67578125,-78.61328125,276.85546875,-89.84375,0.0,0,0
1772214070.885526,1772214070.840991,-963.37890625,-35.64453125,308.59375,-107.91015625,0.0,0,0
1772214070.885534,1772214070.844886,-104.98046875,8.7890625,483.88671875,1.46484375,0.0,0,0
1772214070.8855429,1772214070.848781,879.39453125,11.71875,576.171875,94.23828125,0.0,0,0
1772214070.8855512,1772214070.8526762,414.0625,-36.1328125,441.40625,57.12890625,0.0,0,0
1772214070.885559,1772214070.8565712,-771.484375,-73.73046875,220.703125,-76.66015625,0.0,0,0
1772214070.885567,1772214070.8604662,-1000.0,-32.71484375,223.14453125,-121.09375,0.0,0,0
1772214070.885576,1772214070.8643613,-172.8515625,28.80859375,448.2421875,-26.85546875,0.0,0,0
1772214070.930465,1772214070.8683534,881.8359375,41.9921875,565.91796875,90.33203125,0.0,0,0
1772214070.930497,1772214070.8722484,566.89453125,-12.20703125,414.0625,83.984375,0.0,0,0
1772214070.930507,1772214070.8761435,-626.953125,-56.640625,196.77734375,-42.96875,0.0,0,0
1772214070.930515,1772214070.8800387,-1000.0,-38.0859375,197.265625,-118.1640625,0.0,0,0
1772214070.9305239,1772214070.8839338,-285.64453125,20.5078125,429.6875,-41.50390625,0.0,0,0
1772214070.9305332,1772214070.8878288,844.23828125,48.828125,567.87109375,93.75,0.0,0,0
1772214070.930541,1772214070.8917239,677.24609375,1.46484375,390.13671875,90.33203125,0.0,0,0
1772214070.930549,1772214070.895619,-517.08984375,-44.921875,110.3515625,-44.921875,0.0,0,0
1772214070.930573,1772214070.899514,-1000.0,-48.828125,87.890625,-125.0,0.0,0,0
1772214070.93059,1772214070.903409,-505.37109375,3.90625,315.91796875,-54.19921875,0.0,0,0
1772214070.930599,1772214070.9073043,667.48046875,56.15234375,519.04296875,86.9140625,0.0,0,0
1772214070.930608,1772214070.9111993,782.2265625,29.296875,465.8203125,114.2578125,0.0,0,0
1772214070.9754748,1772214070.9151804,-359.375,-41.015625,276.3671875,5.37109375,0.0,0,0
1772214070.975511,1772214070.9190757,-1000.0,-51.7578125,239.2578125,-93.26171875,0.0,0,0
1772214070.975522,1772214070.9229708,-587.890625,9.27734375,452.1484375,-51.7578125,0.0,0,0
1772214070.975531,1772214070.9268658,544.921875,53.22265625,657.2265625,70.3125,0.0,0,0
1772214070.975539,1772214070.9307609,792.48046875,22.4609375,612.79296875,88.8671875,0.0,0,0
1772214070.9755478,1772214070.934656,-252.9296875,-44.921875,395.99609375,-22.4609375,0.0,0,0
1772214070.9755561,1772214070.9385512,-1000.0,-62.98828125,223.6328125,-110.3515625,0.0,0,0
1772214070.975565,1772214070.9424462,-719.7265625,-33.69140625,335.9375,-64.453125,0.0,0,0
1772214070.975573,1772214070.9463413,355.46875,13.671875,556.15234375,60.05859375,0.0,0,0
1772214070.975581,1772214070.9502363,832.51953125,33.203125,502.9296875,106.4453125,0.0,0,0
1772214070.97559,1772214070.9541316,-71.2890625,-19.04296875,240.72265625,18.5546875,0.0,0,0
1772214070.975598,1772214070.9580266,-968.75,-48.33984375,65.4296875,-96.6796875,0.0,0,0
1772214071.036743,1772214070.9620879,-806.640625,-4.8828125,161.62109375,-72.265625,0.0,0,0
1772214071.03677,1772214070.965983,147.4609375,39.0625,296.875,54.6875,0.0,0,0
1772214071.036779,1772214070.9698782,793.45703125,22.4609375,277.83203125,120.1171875,0.0,0,0
1772214071.036787,1772214070.9737732,70.3125,-24.4140625,78.61328125,39.0625,0.0,0,0
1772214071.0367959,1772214070.9776683,-903.80859375,-56.15234375,-84.9609375,-94.7265625,0.0,0,0
1772214071.0368042,1772214070.9815636,-854.4921875,-11.71875,-7.32421875,-85.9375,0.0,0,0
1772214071.036813,1772214070.9854586,21.484375,44.921875,185.546875,40.0390625,0.0,0,0
1772214071.036821,1772214070.9893537,758.30078125,15.13671875,301.26953125,116.2109375,0.0,0,0
1772214071.03683,1772214070.993249,231.93359375,-32.71484375,207.51953125,56.15234375,0.0,0,0
1772214071.0368378,1772214070.997144,-780.76171875,-58.10546875,88.37890625,-78.61328125,0.0,0,0
1772214071.036847,1772214071.001039,-891.11328125,-41.015625,176.7578125,-83.0078125,0.0,0,0
1772214071.036855,1772214071.0049343,-70.80078125,7.8125,446.77734375,28.3203125,0.0,0,0
1772214071.081716,1772214071.0089843,788.0859375,21.97265625,535.15625,103.515625,0.0,0,0
1772214071.0817459,1772214071.0128794,461.42578125,-20.99609375,309.5703125,72.265625,0.0,0,0
1772214071.0817559,1772214071.0167747,-626.46484375,-58.10546875,98.14453125,-46.875,0.0,0,0
1772214071.0817652,1772214071.0206697,-903.80859375,-50.29296875,151.85546875,-86.42578125,0.0,0,0
1772214071.081774,1772214071.024565,-194.3359375,-6.34765625,354.98046875,19.53125,0.0,0,0
1772214071.081783,1772214071.02846,712.890625,9.765625,433.59375,123.046875,0.0,0,0
1772214071.081791,1772214071.032355,561.03515625,-40.52734375,240.234375,85.44921875,0.0,0,0
1772214071.0818,1772214071.0362504,-518.06640625,-102.5390625,-1.46484375,-28.3203125,0.0,0,0
1772214071.0818079,1772214071.0401454,-925.78125,-86.9140625,-60.05859375,-78.125,0.0,0,0
1772214071.081816,1772214071.0440407,-326.66015625,18.5546875,89.84375,-15.625,0.0,0,0
1772214071.081826,1772214071.0479357,588.37890625,52.24609375,220.21484375,79.1015625,0.0,0,0
1772214071.081834,1772214071.051831,574.70703125,5.859375,81.0546875,74.70703125,0.0,0,0
1772214071.125511,1772214071.0558658,-370.60546875,-27.34375,-143.5546875,-55.17578125,0.0,0,0
1772214071.125545,1772214071.0597608,-910.64453125,-6.34765625,-190.4296875,-148.4375,0.0,0,0
1772214071.125556,1772214071.063656,-506.34765625,55.6640625,15.13671875,-101.5625,0.0,0,0
1772214071.1255648,1772214071.0675511,456.0546875,83.984375,208.49609375,22.94921875,0.0,0,0
1772214071.1255732,1772214071.0714464,621.58203125,66.40625,120.1171875,32.2265625,0.0,0,0
1772214071.125582,1772214071.0753415,-145.5078125,34.66796875,-101.07421875,-106.93359375,0.0,0,0
1772214071.125591,1772214071.0792367,-745.1171875,33.203125,-140.625,-210.9375,0.0,0,0
1772214071.125599,1772214071.083132,-537.59765625,73.2421875,40.52734375,-163.57421875,0.0,0,0
1772214071.125607,1772214071.087027,344.23828125,117.67578125,181.640625,-39.0625,0.0,0,0
1772214071.125616,1772214071.0909224,631.34765625,125.48828125,90.8203125,-20.5078125,0.0,0,0
1772214071.1282182,1772214071.0948174,30.2734375,79.58984375,-162.59765625,-132.8125,0.0,0,0
1772214071.1282291,1772214071.0987127,-608.88671875,54.19921875,-286.62109375,-220.703125,0.0,0,0
1772214071.170479,1772214071.102736,-527.83203125,81.0546875,-93.26171875,-173.33984375,0.0,0,0
1772214071.170511,1772214071.1066313,295.41015625,117.1875,182.12890625,-33.69140625,0.0,0,0
1772214071.1705222,1772214071.1105263,694.82421875,114.2578125,187.98828125,24.4140625,0.0,0,0
1772214071.17053,1772214071.1144216,261.71875,67.3828125,-26.3671875,-81.54296875,0.0,0,0
1772214071.170539,1772214071.118317,-442.3828125,36.62109375,-94.23828125,-205.078125,0.0,0,0
1772214071.170547,1772214071.122212,-544.43359375,77.1484375,43.45703125,-175.78125,0.0,0,0
1772214071.1705558,1772214071.1261072,32.71484375,110.83984375,208.984375,-21.97265625,0.0,0,0
1772214071.1705642,1772214071.1300023,467.7734375,90.8203125,258.30078125,57.12890625,0.0,0,0
1772214071.170572,1772214071.1338975,335.9375,29.78515625,193.359375,-30.76171875,0.0,0,0
1772214071.17058,1772214071.1377928,-332.03125,-4.39453125,155.76171875,-169.921875,0.0,0,0
1772214071.170589,1772214071.1416879,-520.01953125,27.83203125,237.3046875,-165.52734375,0.0,0,0
1772214071.170611,1772214071.1455832,-55.6640625,57.6171875,349.609375,-41.9921875,0.0,0,0
1772214071.215461,1772214071.1495957,382.8125,41.015625,364.2578125,18.5546875,0.0,0,0
1772214071.215494,1772214071.1534908,367.1875,-3.90625,174.31640625,-36.1328125,0.0,0,0
1772214071.215504,1772214071.157386,-229.4921875,-23.4375,-5.859375,-161.1328125,0.0,0,0
1772214071.215513,1772214071.1612813,-481.93359375,-15.13671875,90.33203125,-182.6171875,0.0,0,0
1772214071.215522,1772214071.1651764,-206.54296875,17.578125,306.15234375,-51.7578125,0.0,0,0
1772214071.215599,1772214071.1690717,229.4921875,31.25,358.3984375,57.12890625,0.0,0,0
1772214071.215619,1772214071.172967,395.5078125,-2.44140625,202.63671875,11.23046875,0.0,0,0
1772214071.21563,1772214071.1768622,-110.3515625,-39.0625,20.01953125,-123.046875,0.0,0,0
1772214071.215659,1772214071.1807573,-450.68359375,-34.1796875,31.73828125,-148.4375,0.0,0,0
1772214071.215677,1772214071.1846526,-289.55078125,26.3671875,225.5859375,-17.578125,0.0,0,0
1772214071.215688,1772214071.1885478,141.6015625,36.1328125,277.34375,102.5390625,0.0,0,0
1772214071.215706,1772214071.192443,359.86328125,-9.765625,121.09375,73.73046875,0.0,0,0
1772214071.2604249,1772214071.1964443,-48.828125,-62.5,-48.828125,-77.63671875,0.0,0,0
1772214071.2604532,1772214071.2003396,-416.9921875,-68.84765625,-69.82421875,-149.4140625,0.0,0,0
1772214071.2604642,1772214071.2042348,-470.703125,-21.97265625,89.84375,-44.921875,0.0,0,0
1772214071.260473,1772214071.2081301,-71.77734375,-2.9296875,212.890625,83.49609375,0.0,0,0
1772214071.260481,1772214071.2120252,262.6953125,-23.92578125,101.5625,71.2890625,0.0,0,0
1772214071.26049,1772214071.2159204,74.21875,-37.109375,-69.3359375,-47.36328125,0.0,0,0
1772214071.2604978,1772214071.2198157,-242.67578125,-56.15234375,-74.70703125,-112.79296875,0.0,0,0
1772214071.2605062,1772214071.223711,-501.953125,-44.43359375,90.8203125,-35.64453125,0.0,0,0
1772214071.260515,1772214071.227606,-177.734375,-8.30078125,205.078125,110.83984375,0.0,0,0
1772214071.260535,1772214071.2315013,175.78125,-22.4609375,93.26171875,116.69921875,0.0,0,0
1772214071.260556,1772214071.2353966,125.48828125,-71.77734375,-88.8671875,-32.71484375,0.0,0,0
1772214071.260566,1772214071.239292,-211.42578125,-87.890625,-67.3828125,-122.55859375,0.0,0,0
1772214071.335511,1772214071.2434547,-660.64453125,-44.43359375,153.80859375,-42.48046875,0.0,0,0
1772214071.33555,1772214071.24735,-189.453125,-1.46484375,350.5859375,114.74609375,0.0,0,0
1772214071.3355641,1772214071.2512453,350.5859375,-17.08984375,287.59765625,139.16015625,0.0,0,0
1772214071.335579,1772214071.2551405,197.265625,-63.96484375,3.90625,-7.8125,0.0,0,0
1772214071.3355908,1772214071.2590358,-313.4765625,-90.8203125,-155.76171875,-114.2578125,0.0,0,0
1772214071.335603,1772214071.262931,-735.3515625,-55.6640625,-49.8046875,-34.1796875,0.0,0,0
1772214071.335615,1772214071.2668262,-320.80078125,15.13671875,93.26171875,128.90625,0.0,0,0
1772214071.335627,1772214071.2707214,249.51171875,8.30078125,118.65234375,176.7578125,0.0,0,0
1772214071.335638,1772214071.2746167,313.96484375,-58.10546875,-35.15625,48.828125,0.0,0,0
1772214071.335649,1772214071.278512,-180.6640625,-77.63671875,-192.87109375,-99.609375,0.0,0,0
1772214071.3356612,1772214071.2824073,-693.84765625,-32.71484375,-133.7890625,-76.171875,0.0,0,0
1772214071.3356721,1772214071.2863026,-363.76953125,15.13671875,63.96484375,95.703125,0.0,0,0
1772214071.363884,1772214071.2902858,272.4609375,-0.9765625,127.9296875,180.17578125,0.0,0,0
1772214071.3639019,1772214071.294181,212.40234375,-58.10546875,-45.8984375,48.828125,0.0,0,0
1772214071.363915,1772214071.2980764,-479.00390625,-55.17578125,-212.890625,-120.60546875,0.0,0,0
1772214071.363928,1772214071.3019717,-602.5390625,-6.8359375,-86.42578125,-111.81640625,0.0,0,0
1772214071.3639412,1772214071.305867,-54.6875,17.578125,161.1328125,52.734375,0.0,0,0
1772214071.3639538,1772214071.3097622,321.2890625,16.11328125,187.98828125,151.85546875,0.0,0,0
1772214071.3639839,1772214071.3136575,97.16796875,-49.8046875,3.41796875,48.33984375,0.0,0,0
1772214071.364029,1772214071.3175528,-526.3671875,-112.3046875,-155.2734375,-119.62890625,0.0,0,0
1772214071.364062,1772214071.321448,-600.09765625,-64.453125,-15.13671875,-121.58203125,0.0,0,0
1772214071.364081,1772214071.3253434,-125.9765625,6.34765625,298.33984375,29.78515625,0.0,0,0
1772214071.364096,1772214071.3292387,241.2109375,-5.859375,384.27734375,150.390625,0.0,0,0
1772214071.3641112,1772214071.333134,115.72265625,-67.87109375,150.87890625,66.89453125,0.0,0,0
1772214071.4096792,1772214071.337103,-424.31640625,-102.5390625,-85.44921875,-109.86328125,0.0,0,0
1772214071.409717,1772214071.3409982,-548.33984375,-63.96484375,-45.41015625,-111.328125,0.0,0,0
1772214071.40973,1772214071.3448935,-166.9921875,9.27734375,201.66015625,38.57421875,0.0,0,0
1772214071.409742,1772214071.348789,191.89453125,-1.46484375,218.75,163.57421875,0.0,0,0
1772214071.409754,1772214071.3526843,145.01953125,-59.08203125,-68.359375,103.02734375,0.0,0,0
1772214071.409765,1772214071.3565795,-304.19921875,-76.171875,-272.4609375,-73.2421875,0.0,0,0
1772214071.409775,1772214071.3604748,-509.27734375,-64.94140625,-292.96875,-132.8125,0.0,0,0
1772214071.4097862,1772214071.36437,-200.68359375,-24.4140625,-91.30859375,4.8828125,0.0,0,0
1772214071.4097972,1772214071.3682654,279.296875,6.34765625,59.08203125,158.203125,0.0,0,0
1772214071.4098072,1772214071.3721607,307.6171875,-26.3671875,-106.4453125,108.88671875,0.0,0,0
1772214071.4098182,1772214071.376056,-184.08203125,-67.87109375,-312.01171875,-79.58984375,0.0,0,0
1772214071.4098282,1772214071.3799512,-464.35546875,-54.19921875,-294.43359375,-156.73828125,0.0,0,0
1772214071.45557,1772214071.3839948,-218.75,5.37109375,-25.390625,-11.23046875,0.0,0,0
1772214071.455601,1772214071.3878903,271.484375,28.80859375,166.9921875,167.48046875,0.0,0,0
1772214071.455617,1772214071.3917856,360.3515625,-15.13671875,62.01171875,142.578125,0.0,0,0
1772214071.455631,1772214071.395681,64.94140625,-68.84765625,-149.4140625,-45.41015625,0.0,0,0
1772214071.455644,1772214071.3995762,-279.78515625,-65.91796875,-218.26171875,-146.484375,0.0,0,0
1772214071.455657,1772214071.4034715,-506.34765625,-16.6015625,-16.11328125,-25.390625,0.0,0,0
1772214071.45567,1772214071.4073668,-317.87109375,3.41796875,112.79296875,142.578125,0.0,0,0
1772214071.4556842,1772214071.4112623,45.41015625,-32.71484375,9.765625,142.08984375,0.0,0,0
1772214071.4556968,1772214071.4151576,261.23046875,-72.265625,-96.19140625,-22.94921875,0.0,0,0
1772214071.455709,1772214071.4190528,98.14453125,-58.59375,-106.4453125,-159.66796875,0.0,0,0
1772214071.455738,1772214071.4229481,-385.7421875,-16.11328125,54.6875,-74.21875,0.0,0,0
1772214071.4557571,1772214071.4268434,-303.7109375,-4.39453125,252.9296875,128.90625,0.0,0,0
1772214071.501444,1772214071.430876,-2.44140625,-31.73828125,216.796875,148.4375,0.0,0,0
1772214071.501539,1772214071.4347713,206.54296875,-32.71484375,37.109375,-36.62109375,0.0,0,0
1772214071.501559,1772214071.4386668,78.61328125,-23.92578125,-44.43359375,-177.24609375,0.0,0,0
1772214071.501577,1772214071.442562,-364.74609375,-4.39453125,56.15234375,-93.75,0.0,0,0
1772214071.501594,1772214071.4464574,-340.8203125,35.15625,194.82421875,104.98046875,0.0,0,0
1772214071.501611,1772214071.4503527,-28.80859375,29.296875,228.515625,163.57421875,0.0,0,0
1772214071.501628,1772214071.4542482,254.8828125,-35.15625,108.88671875,29.296875,0.0,0,0
1772214071.501645,1772214071.4581435,131.8359375,-65.4296875,26.3671875,-116.69921875,0.0,0,0
1772214071.501662,1772214071.4620388,-252.44140625,-5.37109375,194.82421875,-89.84375,0.0,0,0
1772214071.501678,1772214071.465934,-371.09375,52.24609375,429.19921875,60.546875,0.0,0,0
1772214071.501694,1772214071.4698296,-159.1796875,43.9453125,455.078125,128.90625,0.0,0,0
1772214071.5017111,1772214071.4737248,248.53515625,18.06640625,241.69921875,-4.8828125,0.0,0,0
1772214071.545606,1772214071.4777472,150.87890625,-11.23046875,106.4453125,-189.453125,0.0,0,0
1772214071.545633,1772214071.4816425,-202.1484375,4.8828125,208.984375,-164.55078125,0.0,0,0
1772214071.545652,1772214071.4855378,-351.5625,47.36328125,428.22265625,33.69140625,0.0,0,0
1772214071.545671,1772214071.4894333,-181.15234375,48.33984375,484.375,143.5546875,0.0,0,0
1772214071.545704,1772214071.4933286,241.2109375,18.5546875,216.796875,28.3203125,0.0,0,0
1772214071.545753,1772214071.4972239,195.80078125,14.6484375,40.52734375,-160.15625,0.0,0,0
1772214071.545789,1772214071.5011194,-97.16796875,18.5546875,200.1953125,-172.36328125,0.0,0,0
1772214071.545815,1772214071.5050147,-359.375,20.99609375,491.69921875,19.53125,0.0,0,0
1772214071.545835,1772214071.50891,-211.9140625,67.3828125,570.3125,152.34375,0.0,0,0
1772214071.545855,1772214071.5128055,248.53515625,73.2421875,375.48828125,43.45703125,0.0,0,0
1772214071.5458739,1772214071.5167007,207.51953125,19.04296875,197.75390625,-155.2734375,0.0,0,0
1772214071.5458949,1772214071.520596,-46.38671875,16.11328125,216.796875,-186.03515625,0.0,0,0
1772214071.591018,1772214071.5246089,-354.4921875,49.8046875,394.04296875,-15.13671875,0.0,0,0
1772214071.591088,1772214071.5285041,-262.6953125,55.6640625,401.3671875,137.20703125,0.0,0,0
1772214071.591116,1772214071.5323997,193.84765625,32.2265625,86.9140625,50.29296875,0.0,0,0
1772214071.5911412,1772214071.536295,283.69140625,4.39453125,-10.7421875,-151.3671875,0.0,0,0
1772214071.591171,1772214071.5401902,96.6796875,12.20703125,257.32421875,-197.265625,0.0,0,0
1772214071.591197,1772214071.5440857,-293.9453125,56.15234375,533.69140625,-29.78515625,0.0,0,0
1772214071.591221,1772214071.547981,-211.9140625,74.21875,606.4453125,144.04296875,0.0,0,0
1772214071.5912452,1772214071.5518765,156.73828125,41.015625,387.6953125,90.33203125,0.0,0,0
1772214071.591269,1772214071.5557718,256.34765625,-5.37109375,203.125,-112.3046875,0.0,0,0
1772214071.5912929,1772214071.559667,119.62890625,-6.8359375,263.671875,-208.984375,0.0,0,0
1772214071.5913181,1772214071.5635626,-305.6640625,33.203125,438.4765625,-86.42578125,0.0,0,0
1772214071.591341,1772214071.567458,-254.39453125,52.734375,531.25,100.09765625,0.0,0,0
1772214071.635823,1772214071.5714629,125.48828125,39.55078125,461.42578125,86.42578125,0.0,0,0
1772214071.635935,1772214071.5753582,317.87109375,10.25390625,291.50390625,-113.28125,0.0,0,0
1772214071.635963,1772214071.5792537,183.59375,1.46484375,220.21484375,-240.72265625,0.0,0,0
1772214071.635988,1772214071.583149,-301.7578125,17.08984375,319.82421875,-121.09375,0.0,0,0
1772214071.636012,1772214071.5870445,-292.96875,31.25,384.27734375,93.26171875,0.0,0,0
1772214071.636037,1772214071.5909398,33.69140625,20.99609375,225.09765625,114.2578125,0.0,0,0
1772214071.636065,1772214071.5948353,236.81640625,-20.5078125,-42.48046875,-72.75390625,0.0,0,0
1772214071.636089,1772214071.5987306,93.26171875,-36.1328125,-176.26953125,-226.07421875,0.0,0,0
1772214071.636113,1772214071.602626,-339.84375,-6.34765625,-17.578125,-134.765625,0.0,0,0
1772214071.636137,1772214071.6065214,-321.2890625,23.4375,183.59375,84.9609375,0.0,0,0
1772214071.63617,1772214071.610417,-37.109375,8.7890625,144.04296875,129.8828125,0.0,0,0
1772214071.636208,1772214071.6143122,260.7421875,-36.62109375,-65.91796875,-41.50390625,0.0,0,0
1772214071.681833,1772214071.618306,153.80859375,-49.8046875,-155.76171875,-208.0078125,0.0,0,0
1772214071.681973,1772214071.6222014,-263.18359375,-33.203125,51.26953125,-130.859375,0.0,0,0
1772214071.682016,1772214071.6260967,-325.1953125,-4.8828125,265.13671875,88.37890625,0.0,0,0
1772214071.682057,1772214071.6299922,-107.91015625,0.0,234.86328125,147.4609375,0.0,0,0
1772214071.682095,1772214071.6338878,241.69921875,-27.34375,15.13671875,-26.3671875,0.0,0,0
1772214071.682133,1772214071.637783,169.921875,-42.96875,-142.578125,-216.30859375,0.0,0,0
1772214071.6821718,1772214071.6416786,-158.203125,-28.3203125,-37.59765625,-168.9453125,0.0,0,0
1772214071.682209,1772214071.6455739,-286.1328125,7.8125,157.2265625,40.52734375,0.0,0,0
1772214071.682245,1772214071.6494694,-105.95703125,-1.46484375,184.08203125,128.90625,0.0,0,0
1772214071.682282,1772214071.6533647,334.9609375,-38.0859375,11.71875,-15.625,0.0,0,0
1772214071.682318,1772214071.6572602,272.94921875,-50.78125,-112.3046875,-193.84765625,0.0,0,0
1772214071.682355,1772214071.6611555,-75.1953125,-42.96875,-11.71875,-182.12890625,0.0,0,0
1772214071.7417119,1772214071.665142,-265.13671875,-16.6015625,188.4765625,-6.8359375,0.0,0,0
1772214071.741835,1772214071.6690376,-82.51953125,11.71875,260.7421875,107.421875,0.0,0,0
1772214071.741975,1772214071.672933,364.74609375,-4.8828125,99.12109375,12.20703125,0.0,0,0
1772214071.7420402,1772214071.6768284,331.0546875,-48.828125,-65.91796875,-177.734375,0.0,0,0
1772214071.742282,1772214071.680724,-212.40234375,-62.98828125,4.39453125,-200.1953125,0.0,0,0
1772214071.742356,1772214071.6846192,-277.34375,-5.859375,253.90625,9.27734375,0.0,0,0
1772214071.7424,1772214071.6885147,236.328125,25.390625,333.0078125,160.15625,0.0,0,0
1772214071.742492,1772214071.6924102,264.6484375,-22.4609375,109.86328125,56.640625,0.0,0,0
1772214071.742583,1772214071.6963055,-152.83203125,-60.546875,-106.93359375,-148.4375,0.0,0,0
1772214071.742636,1772214071.700201,-288.0859375,-46.875,-63.96484375,-189.94140625,0.0,0,0
1772214071.7426748,1772214071.7040963,-19.53125,1.953125,174.8046875,-9.765625,0.0,0,0
1772214071.742713,1772214071.7079918,334.9609375,6.8359375,249.0234375,140.13671875,0.0,0,0
1772214071.7865138,1772214071.711962,315.4296875,-40.52734375,85.9375,49.31640625,0.0,0,0
1772214071.786635,1772214071.7158573,-83.0078125,-73.2421875,-78.61328125,-166.9921875,0.0,0,0
1772214071.7866628,1772214071.7197528,-302.24609375,-60.546875,-63.96484375,-234.375,0.0,0,0
1772214071.786688,1772214071.723648,-83.49609375,-5.37109375,158.69140625,-64.453125,0.0,0,0
1772214071.7867122,1772214071.7275436,363.76953125,0.9765625,354.4921875,120.1171875,0.0,0,0
1772214071.786738,1772214071.731439,385.7421875,-43.45703125,287.109375,81.54296875,0.0,0,0
1772214071.786788,1772214071.7353344,-33.203125,-74.21875,52.734375,-127.44140625,0.0,0,0
1772214071.78685,1772214071.73923,-312.98828125,-55.17578125,5.37109375,-234.375,0.0,0,0
1772214071.786879,1772214071.7431254,-164.55078125,5.37109375,207.51953125,-84.47265625,0.0,0,0
1772214071.786929,1772214071.7470207,307.12890625,31.73828125,326.66015625,106.93359375,0.0,0,0
1772214071.7869802,1772214071.7509162,379.39453125,-0.9765625,215.33203125,88.8671875,0.0,0,0
1772214071.787022,1772214071.7548118,0.9765625,-49.8046875,5.859375,-95.21484375,0.0,0,0
1772214071.831338,1772214071.7588582,-330.078125,-63.96484375,-58.59375,-206.0546875,0.0,0,0
1772214071.8314931,1772214071.7627537,-270.5078125,-11.23046875,133.30078125,-86.42578125,0.0,0,0
1772214071.831535,1772214071.7666492,210.44921875,43.9453125,274.4140625,119.62890625,0.0,0,0
1772214071.831574,1772214071.7705448,361.81640625,9.27734375,162.59765625,144.53125,0.0,0,0
1772214071.8316119,1772214071.77444,19.53125,-35.15625,-72.75390625,-46.875,0.0,0,0
1772214071.831836,1772214071.7783356,-325.1953125,-19.53125,-160.64453125,-201.66015625,0.0,0,0
1772214071.831878,1772214071.782231,-289.0625,10.7421875,13.671875,-113.28125,0.0,0,0
1772214071.831915,1772214071.7861266,175.78125,36.1328125,191.40625,97.16796875,0.0,0,0
1772214071.8319519,1772214071.7900221,389.16015625,17.08984375,146.97265625,150.87890625,0.0,0,0
1772214071.831989,1772214071.7939174,67.87109375,-47.8515625,-129.39453125,-17.08984375,0.0,0,0
1772214071.832025,1772214071.797813,-332.51953125,-67.3828125,-301.26953125,-192.87109375,0.0,0,0
1772214071.8320608,1772214071.8017085,-274.4140625,0.9765625,-138.671875,-166.50390625,0.0,0,0
1772214071.8767831,1772214071.8057456,185.546875,55.6640625,83.984375,24.90234375,0.0,0,0
1772214071.876918,1772214071.8096411,459.47265625,38.57421875,128.90625,112.79296875,0.0,0,0
1772214071.876961,1772214071.8135366,253.90625,-16.11328125,-48.828125,-22.94921875,0.0,0,0
1772214071.8769999,1772214071.8174322,-264.6484375,-50.29296875,-173.33984375,-208.984375,0.0,0,0
1772214071.877038,1772214071.8213274,-365.234375,-16.11328125,-61.03515625,-180.6640625,0.0,0,0
1772214071.877076,1772214071.825223,74.70703125,51.26953125,110.83984375,49.31640625,0.0,0,0
1772214071.877114,1772214071.8291185,376.953125,44.43359375,92.7734375,156.25,0.0,0,0
1772214071.877152,1772214071.833014,199.21875,-14.16015625,-113.76953125,17.08984375,0.0,0,0
1772214071.8771882,1772214071.8369095,-302.734375,-41.50390625,-284.66796875,-177.24609375,0.0,0,0
1772214071.8772259,1772214071.840805,-411.62109375,-23.4375,-206.0546875,-194.82421875,0.0,0,0
1772214071.877275,1772214071.8447006,-38.0859375,18.5546875,22.94921875,-3.90625,0.0,0,0
1772214071.877311,1772214071.8485959,318.84765625,27.83203125,83.49609375,137.6953125,0.0,0,0
1772214071.936755,1772214071.8527045,245.60546875,-13.18359375,-65.4296875,29.78515625,0.0,0,0
1772214071.9368992,1772214071.8566,-224.609375,-43.9453125,-208.49609375,-170.8984375,0.0,0,0
1772214071.936943,1772214071.8604956,-409.1796875,-33.203125,-150.390625,-210.9375,0.0,0,0
1772214071.936982,1772214071.864391,-61.5234375,16.11328125,93.26171875,-27.34375,0.0,0,0
1772214071.937021,1772214071.8682866,374.0234375,21.484375,204.58984375,128.90625,0.0,0,0
1772214071.937067,1772214071.8721821,312.01171875,-34.1796875,86.9140625,42.96875,0.0,0,0
1772214071.937105,1772214071.8760777,-145.01953125,-65.91796875,-47.36328125,-139.6484375,0.0,0,0
1772214071.937143,1772214071.8799732,-413.0859375,-61.5234375,-36.62109375,-192.87109375,0.0,0,0
1772214071.937181,1772214071.8838687,-172.36328125,-3.90625,166.50390625,-16.11328125,0.0,0,0
1772214071.9372191,1772214071.8877642,313.96484375,45.8984375,255.37109375,164.55078125,0.0,0,0
1772214071.937257,1772214071.8916597,327.1484375,10.25390625,50.78125,112.79296875,0.0,0,0
1772214071.937293,1772214071.8955553,-136.23046875,-46.38671875,-140.625,-95.21484375,0.0,0,0
1772214071.96655,1772214071.89957,-414.0625,-38.57421875,-107.91015625,-197.265625,0.0,0,0
1772214071.9666991,1772214071.9034655,-208.984375,15.625,120.1171875,-50.78125,0.0,0,0
1772214071.966746,1772214071.907361,313.96484375,37.109375,266.6015625,126.953125,0.0,0,0
1772214071.9667861,1772214071.9112566,390.13671875,0.9765625,161.1328125,93.75,0.0,0,0
1772214071.966825,1772214071.915152,-78.61328125,-62.5,-51.7578125,-108.88671875,0.0,0,0
1772214071.966862,1772214071.9190476,-417.48046875,-65.91796875,-101.5625,-230.95703125,0.0,0,0
1772214071.966911,1772214071.922943,-227.5390625,-9.27734375,167.48046875,-94.7265625,0.0,0,0
1772214071.966957,1772214071.9268386,295.41015625,16.11328125,367.67578125,106.4453125,0.0,0,0
1772214071.9670029,1772214071.9307342,395.5078125,7.8125,290.0390625,112.3046875,0.0,0,0
1772214071.967049,1772214071.9346297,-7.32421875,-28.80859375,82.51953125,-74.70703125,0.0,0,0
1772214071.967124,1772214071.9385252,-414.0625,-54.6875,-11.71875,-230.46875,0.0,0,0
1772214071.967181,1772214071.9424207,-299.31640625,-6.8359375,191.40625,-124.0234375,0.0,0,0
1772214072.011752,1772214071.9464226,253.41796875,26.85546875,405.2734375,93.26171875,0.0,0,0
1772214072.0119512,1772214071.950318,414.0625,-5.37109375,390.625,127.44140625,0.0,0,0
1772214072.012058,1772214071.9542136,19.04296875,-65.4296875,165.52734375,-62.01171875,0.0,0,0
1772214072.0121138,1772214071.9581091,-445.3125,-74.70703125,-1.953125,-231.93359375,0.0,0,0
1772214072.0121658,1772214071.9620047,-373.53515625,-11.71875,176.26953125,-150.390625,0.0,0,0
1772214072.012245,1772214071.9659002,177.734375,36.62109375,387.6953125,62.5,0.0,0,0
1772214072.0123,1772214071.9697957,442.3828125,13.18359375,334.9609375,128.90625,0.0,0,0
1772214072.012397,1772214071.9736915,123.53515625,-31.25,120.60546875,-35.15625,0.0,0,0
1772214072.0124831,1772214071.977587,-427.734375,-44.921875,-41.015625,-211.42578125,0.0,0,0
1772214072.0125399,1772214071.9814825,-449.70703125,-9.765625,66.89453125,-162.59765625,0.0,0,0
1772214072.012594,1772214071.985378,63.96484375,34.66796875,267.08984375,50.78125,0.0,0,0
1772214072.012646,1772214071.9892735,392.578125,21.97265625,215.8203125,151.85546875,0.0,0,0
1772214072.0564768,1772214071.9932673,166.9921875,-28.3203125,-55.17578125,0.0,0.0,0,0
1772214072.056621,1772214071.9971628,-403.3203125,-70.3125,-248.046875,-202.1484375,0.0,0,0
1772214072.056664,1772214072.0010583,-439.94140625,-44.43359375,-148.4375,-187.5,0.0,0,0
1772214072.056703,1772214072.0049539,77.1484375,17.08984375,119.140625,28.80859375,0.0,0,0
1772214072.0567412,1772214072.0088494,408.203125,29.296875,183.59375,155.76171875,0.0,0,0
1772214072.056779,1772214072.0127451,213.8671875,-15.625,-9.27734375,28.3203125,0.0,0,0
1772214072.0568168,1772214072.0166407,-333.984375,-55.17578125,-128.41796875,-166.50390625,0.0,0,0
1772214072.0568562,1772214072.0205362,-511.23046875,-53.7109375,-30.2734375,-190.91796875,0.0,0,0
1772214072.056907,1772214072.0244317,-53.22265625,0.0,250.9765625,9.765625,0.0,0,0
1772214072.0569541,1772214072.0283272,423.33984375,34.66796875,382.8125,166.015625,0.0,0,0
1772214072.05701,1772214072.032223,301.7578125,-8.7890625,192.3828125,68.84765625,0.0,0,0
1772214072.0570471,1772214072.0361185,-251.953125,-58.59375,17.08984375,-129.8828125,0.0,0,0
1772214072.101154,1772214072.0401006,-461.9140625,-37.109375,72.265625,-187.98828125,0.0,0,0
1772214072.101269,1772214072.043996,-118.1640625,21.97265625,307.6171875,-12.6953125,0.0,0,0
1772214072.101311,1772214072.0478919,364.2578125,47.36328125,430.17578125,151.3671875,0.0,0,0
1772214072.101349,1772214072.0517874,301.26953125,-0.9765625,295.41015625,86.9140625,0.0,0,0
1772214072.101388,1772214072.055683,-284.1796875,-60.546875,125.9765625,-118.1640625,0.0,0,0
1772214072.101425,1772214072.0595784,-557.12890625,-50.78125,111.81640625,-209.47265625,0.0,0,0
1772214072.1014621,1772214072.0634742,-230.95703125,8.30078125,354.4921875,-35.64453125,0.0,0,0
1772214072.1014998,1772214072.0673697,322.75390625,33.203125,473.6328125,155.2734375,0.0,0,0
1772214072.101542,1772214072.0712652,333.0078125,-6.34765625,284.1796875,100.09765625,0.0,0,0
1772214072.101578,1772214072.075161,-170.41015625,-50.78125,108.3984375,-111.81640625,0.0,0,0
1772214072.101629,1772214072.0790565,-489.2578125,-43.45703125,105.95703125,-219.23828125,0.0,0,0
1772214072.101666,1772214072.082952,-260.7421875,13.671875,333.0078125,-83.0078125,0.0,0,0
1772214072.177719,1772214072.0870965,306.15234375,39.0625,497.0703125,122.0703125,0.0,0,0
1772214072.17786,1772214072.0909922,394.04296875,4.39453125,381.8359375,113.28125,0.0,0,0
1772214072.177902,1772214072.0948877,-79.58984375,-45.8984375,162.109375,-90.8203125,0.0,0,0
1772214072.177944,1772214072.0987833,-463.37890625,-44.921875,87.40234375,-208.0078125,0.0,0,0
1772214072.177983,1772214072.102679,-322.265625,4.39453125,280.2734375,-78.125,0.0,0,0
1772214072.1780212,1772214072.1065745,248.53515625,36.62109375,449.70703125,119.140625,0.0,0,0
1772214072.178058,1772214072.1104703,401.3671875,-5.37109375,346.6796875,136.23046875,0.0,0,0
1772214072.178096,1772214072.1143658,-55.6640625,-79.58984375,113.28125,-62.01171875,0.0,0,0
1772214072.178133,1772214072.1182616,-520.99609375,-93.75,28.3203125,-238.76953125,0.0,0,0
1772214072.178417,1772214072.122157,-426.26953125,-41.50390625,213.37890625,-145.5078125,0.0,0,0
1772214072.178459,1772214072.1260526,140.13671875,3.41796875,399.4140625,72.265625,0.0,0,0
1772214072.178496,1772214072.1299484,388.18359375,-4.39453125,339.35546875,128.90625,0.0,0,0
1772214072.236824,1772214072.134158,44.921875,-60.05859375,93.26171875,-32.2265625,0.0,0,0
1772214072.236969,1772214072.1380534,-491.2109375,-97.16796875,-47.8515625,-209.9609375,0.0,0,0
1772214072.2370188,1772214072.1419492,-468.26171875,-54.6875,77.1484375,-161.62109375,0.0,0,0
1772214072.237065,1772214072.145845,93.75,-4.8828125,260.7421875,52.734375,0.0,0,0
1772214072.237105,1772214072.1497405,374.0234375,-20.99609375,234.86328125,135.7421875,0.0,0,0
1772214072.23718,1772214072.1536362,113.28125,-77.63671875,17.08984375,-14.16015625,0.0,0,0
1772214072.2372758,1772214072.157532,-433.10546875,-113.28125,-97.65625,-207.03125,0.0,0,0
1772214072.237317,1772214072.1614275,-497.55859375,-78.61328125,23.92578125,-190.4296875,0.0,0,0
1772214072.237356,1772214072.1653233,45.8984375,-2.44140625,244.140625,28.80859375,0.0,0,0
1772214072.237393,1772214072.1692188,409.66796875,11.71875,299.31640625,154.296875,0.0,0,0
1772214072.23743,1772214072.1731145,191.40625,-44.43359375,111.81640625,28.3203125,0.0,0,0
1772214072.2374778,1772214072.1770103,-406.73828125,-80.56640625,-20.01953125,-166.9921875,0.0,0,0
1772214072.251083,1772214072.1810462,-520.5078125,-44.921875,112.79296875,-168.9453125,0.0,0,0
1772214072.251157,1772214072.184942,-52.24609375,25.87890625,348.6328125,29.78515625,0.0,0,0
1772214072.251185,1772214072.1888378,346.6796875,34.1796875,359.86328125,158.69140625,0.0,0,0
1772214072.25121,1772214072.1927333,231.93359375,-18.06640625,123.53515625,40.52734375,0.0,0,0
1772214072.251311,1772214072.196629,-337.890625,-53.22265625,-62.5,-167.96875,0.0,0,0
1772214072.2513542,1772214072.2005248,-520.01953125,-29.78515625,-13.671875,-200.68359375,0.0,0,0
1772214072.251382,1772214072.2044206,-105.95703125,27.34375,218.75,-8.30078125,0.0,0,0
1772214072.251426,1772214072.208316,367.67578125,39.0625,308.59375,151.85546875,0.0,0,0
1772214072.25147,1772214072.2122118,320.80078125,-9.765625,106.4453125,66.40625,0.0,0,0
1772214072.2515268,1772214072.2161076,-233.88671875,-63.96484375,-109.375,-141.11328125,0.0,0,0
1772214072.251578,1772214072.2200031,-492.67578125,-60.546875,-85.44921875,-215.33203125,0.0,0,0
1772214072.2516081,1772214072.223899,-273.92578125,7.32421875,167.48046875,-50.29296875,0.0,0,0
1772214072.296365,1772214072.22792,57.12890625,20.99609375,270.99609375,129.8828125,0.0,0,0
1772214072.2964869,1772214072.2318158,239.2578125,2.44140625,72.265625,88.8671875,0.0,0,0
1772214072.296522,1772214072.2357113,181.640625,-12.6953125,-166.015625,-116.2109375,0.0,0,0
1772214072.296553,1772214072.239607,-91.30859375,-34.66796875,-223.6328125,-219.23828125,0.0,0,0
1772214072.296583,1772214072.2435029,-372.55859375,5.37109375,-21.97265625,-53.22265625,0.0,0,0
1772214072.296617,1772214072.2473986,-144.04296875,40.0390625,143.5546875,136.23046875,0.0,0,0
1772214072.296648,1772214072.2512944,182.6171875,5.37109375,57.6171875,114.2578125,0.0,0,0
1772214072.296677,1772214072.25519,196.77734375,-28.3203125,-105.95703125,-78.125,0.0,0,0
1772214072.2967072,1772214072.2590857,-65.91796875,-29.78515625,-141.11328125,-200.68359375,0.0,0,0
1772214072.296737,1772214072.2629814,-416.9921875,-7.32421875,29.78515625,-67.3828125,0.0,0,0
1772214072.2967649,1772214072.2668772,-218.26171875,31.73828125,176.7578125,137.20703125,0.0,0,0
1772214072.2967942,1772214072.270773,138.18359375,24.4140625,158.203125,141.11328125,0.0,0,0
1772214072.3410401,1772214072.274783,255.859375,-28.80859375,-23.92578125,-54.19921875,0.0,0,0
1772214072.341163,1772214072.2786787,31.73828125,-32.2265625,-57.6171875,-178.7109375,0.0,0,0
1772214072.341193,1772214072.2825744,-317.87109375,8.7890625,204.58984375,-66.40625,0.0,0,0
1772214072.341218,1772214072.28647,-221.6796875,14.6484375,362.79296875,127.44140625,0.0,0,0
1772214072.341244,1772214072.2903657,56.15234375,-3.90625,313.4765625,151.85546875,0.0,0,0
1772214072.341269,1772214072.2942615,253.90625,-25.390625,176.26953125,-48.33984375,0.0,0,0
1772214072.341293,1772214072.2981572,42.96875,-36.62109375,93.26171875,-209.47265625,0.0,0,0
1772214072.3413172,1772214072.302053,-309.08203125,-17.08984375,228.02734375,-118.65234375,0.0,0,0
1772214072.341342,1772214072.3059487,-326.66015625,6.34765625,426.7578125,91.796875,0.0,0,0
1772214072.341365,1772214072.3098445,-102.5390625,13.18359375,410.15625,162.109375,0.0,0,0
1772214072.341389,1772214072.3137403,238.28125,3.90625,199.21875,7.32421875,0.0,0,0
1772214072.341413,1772214072.317636,4.8828125,-31.25,34.66796875,-170.41015625,0.0,0,0
1772214072.3862789,1772214072.3216345,-360.83984375,-31.73828125,100.5859375,-134.27734375,0.0,0,0
1772214072.386477,1772214072.3255303,-365.72265625,4.39453125,235.83984375,71.2890625,0.0,0,0
1772214072.3865118,1772214072.329426,-53.7109375,6.34765625,247.55859375,188.4765625,0.0,0,0
1772214072.3865888,1772214072.3333218,301.7578125,-23.4375,94.7265625,43.9453125,0.0,0,0
1772214072.386633,1772214072.3372176,68.359375,-38.0859375,-28.3203125,-170.41015625,0.0,0,0
1772214072.386662,1772214072.3411133,-232.91015625,-15.625,95.21484375,-172.8515625,0.0,0,0
1772214072.386713,1772214072.345009,-301.7578125,5.37109375,289.55078125,34.1796875,0.0,0,0
1772214072.386752,1772214072.3489048,-51.26953125,5.37109375,322.75390625,178.7109375,0.0,0,0
1772214072.3867788,1772214072.3528006,282.71484375,-13.671875,158.203125,64.94140625,0.0,0,0
1772214072.386828,1772214072.3566964,67.87109375,-48.828125,-11.23046875,-142.578125,0.0,0,0
1772214072.386862,1772214072.360592,-225.09765625,-33.69140625,42.48046875,-190.91796875,0.0,0,0
1772214072.386925,1772214072.3644876,-369.62890625,10.7421875,230.95703125,-9.765625,0.0,0,0
1772214072.432271,1772214072.3684762,-111.328125,14.6484375,283.203125,157.71484375,0.0,0,0
1772214072.4323788,1772214072.372372,250.48828125,-20.01953125,107.421875,69.82421875,0.0,0,0
1772214072.432408,1772214072.3762677,92.28515625,-77.1484375,-67.3828125,-138.671875,0.0,0,0
1772214072.432435,1772214072.3801634,-165.0390625,-76.66015625,-20.99609375,-201.66015625,0.0,0,0
1772214072.432462,1772214072.3840592,-348.14453125,-19.04296875,227.05078125,-20.5078125,0.0,0,0
1772214072.432488,1772214072.387955,-87.890625,18.06640625,343.26171875,152.34375,0.0,0,0
1772214072.4325492,1772214072.3918507,234.375,-5.37109375,205.078125,86.42578125,0.0,0,0
1772214072.432589,1772214072.3957465,130.859375,-52.734375,-7.32421875,-112.79296875,0.0,0,0
1772214072.432636,1772214072.3996422,-109.375,-47.36328125,-36.62109375,-202.1484375,0.0,0,0
1772214072.4326808,1772214072.403538,-385.25390625,-6.34765625,151.3671875,-56.15234375,0.0,0,0
1772214072.43278,1772214072.4074337,-128.41796875,20.01953125,258.30078125,133.7890625,0.0,0,0
1772214072.4328399,1772214072.4113295,237.3046875,2.9296875,155.2734375,109.86328125,0.0,0,0
1772214072.477194,1772214072.4153132,192.87109375,-41.015625,-24.4140625,-109.375,0.0,0,0
1772214072.4773152,1772214072.419209,-59.5703125,-42.96875,-61.03515625,-226.5625,0.0,0,0
1772214072.477348,1772214072.4231048,-374.51171875,-6.8359375,74.70703125,-75.1953125,0.0,0,0
1772214072.4773738,1772214072.4270005,-162.59765625,23.4375,199.21875,134.27734375,0.0,0,0
1772214072.477399,1772214072.4308963,135.7421875,3.90625,100.5859375,118.1640625,0.0,0,0
1772214072.4774241,1772214072.434792,189.94140625,-29.78515625,-129.39453125,-90.33203125,0.0,0,0
1772214072.477449,1772214072.4386878,-26.85546875,-35.64453125,-172.8515625,-222.65625,0.0,0,0
1772214072.477473,1772214072.4425836,-371.09375,4.39453125,37.109375,-109.375,0.0,0,0
1772214072.4774961,1772214072.4464793,-203.61328125,41.015625,239.74609375,93.75,0.0,0,0
1772214072.477521,1772214072.450375,111.81640625,32.2265625,245.1171875,127.44140625,0.0,0,0
1772214072.477545,1772214072.4542708,226.07421875,9.765625,50.78125,-70.3125,0.0,0,0
1772214072.477568,1772214072.4581666,23.4375,10.7421875,-63.4765625,-231.4453125,0.0,0,0
1772214072.536866,1772214072.4622178,-336.42578125,33.69140625,112.3046875,-146.97265625,0.0,0,0
1772214072.537131,1772214072.4661136,-292.96875,59.08203125,296.875,54.19921875,0.0,0,0
1772214072.537163,1772214072.4700093,37.59765625,53.7109375,308.59375,120.60546875,0.0,0,0
1772214072.537189,1772214072.473905,273.92578125,6.8359375,145.5078125,-48.33984375,0.0,0,0
1772214072.537214,1772214072.4778008,15.625,-14.16015625,24.90234375,-224.12109375,0.0,0,0
1772214072.5372381,1772214072.4816968,-303.7109375,25.87890625,154.78515625,-176.7578125,0.0,0,0
1772214072.537261,1772214072.4855926,-288.0859375,52.734375,333.984375,31.25,0.0,0,0
1772214072.5372841,1772214072.4894884,-75.68359375,28.3203125,293.45703125,124.0234375,0.0,0,0
1772214072.537308,1772214072.4933841,250.0,2.9296875,63.4765625,-30.2734375,0.0,0,0
1772214072.53733,1772214072.49728,67.3828125,-11.23046875,-85.44921875,-228.02734375,0.0,0,0
1772214072.537353,1772214072.5011756,-247.0703125,0.0,-24.4140625,-204.58984375,0.0,0,0
1772214072.537376,1772214072.5050716,-299.8046875,37.109375,176.7578125,10.7421875,0.0,0,0
1772214072.582013,1772214072.5091143,-50.78125,42.96875,259.765625,137.20703125,0.0,0,0
1772214072.5821729,1772214072.51301,293.9453125,7.32421875,75.1953125,0.9765625,0.0,0,0
1772214072.582218,1772214072.5169058,125.9765625,-18.06640625,-91.796875,-207.51953125,0.0,0,0
1772214072.582258,1772214072.5208018,-167.96875,-20.99609375,-22.4609375,-223.14453125,0.0,0,0
1772214072.582297,1772214072.5246975,-337.40234375,-5.859375,182.12890625,-22.4609375,0.0,0,0
1772214072.582335,1772214072.5285933,-88.37890625,20.5078125,220.21484375,138.671875,0.0,0,0
1772214072.5823739,1772214072.532489,295.41015625,4.39453125,18.06640625,37.109375,0.0,0,0
1772214072.582411,1772214072.536385,131.8359375,-36.62109375,-154.296875,-177.734375,0.0,0,0
1772214072.58245,1772214072.5402808,-129.8828125,-31.25,-87.40234375,-221.6796875,0.0,0,0
1772214072.582486,1772214072.5441766,-340.33203125,3.41796875,125.48828125,-19.53125,0.0,0,0
1772214072.5825229,1772214072.5480723,-164.55078125,20.01953125,180.6640625,151.85546875,0.0,0,0
1772214072.58256,1772214072.5519683,208.0078125,2.9296875,10.25390625,60.546875,0.0,0,0
1772214072.626443,1772214072.5559995,163.0859375,-38.57421875,-139.6484375,-165.0390625,0.0,0,0
1772214072.626559,1772214072.5598955,-99.609375,-32.71484375,-148.92578125,-247.0703125,0.0,0,0
1772214072.6265988,1772214072.5637913,-408.69140625,13.18359375,37.109375,-69.82421875,0.0,0,0
1772214072.626637,1772214072.567687,-199.70703125,32.2265625,160.64453125,125.0,0.0,0,0
1772214072.626674,1772214072.571583,179.6875,11.71875,4.39453125,87.40234375,0.0,0,0
1772214072.626712,1772214072.5754788,230.95703125,-21.97265625,-209.47265625,-120.1171875,0.0,0,0
1772214072.62675,1772214072.5793746,-7.32421875,-25.87890625,-267.08984375,-218.75,0.0,0,0
1772214072.6267872,1772214072.5832705,-406.25,-1.953125,-80.078125,-41.50390625,0.0,0,0
1772214072.626823,1772214072.5871663,-250.0,-3.41796875,62.5,175.29296875,0.0,0,0
1772214072.626868,1772214072.591062,99.609375,-13.671875,-50.78125,152.34375,0.0,0,0
1772214072.626923,1772214072.594958,256.8359375,-14.16015625,-218.75,-61.5234375,0.0,0,0
1772214072.626959,1772214072.5988538,80.078125,-17.08984375,-223.6328125,-189.453125,0.0,0,0
1772214072.685639,1772214072.6028767,-409.1796875,-15.13671875,-61.03515625,-67.3828125,0.0,0,0
1772214072.685782,1772214072.6067724,-312.5,6.34765625,86.42578125,129.8828125,0.0,0,0
1772214072.685836,1772214072.6106682,77.1484375,16.11328125,61.03515625,146.97265625,0.0,0,0
1772214072.685888,1772214072.6145642,270.01953125,-24.90234375,-133.7890625,-45.8984375,0.0,0,0
1772214072.685941,1772214072.61846,92.7734375,-49.31640625,-174.8046875,-204.1015625,0.0,0,0
1772214072.685992,1772214072.622356,-322.75390625,-31.73828125,23.4375,-128.90625,0.0,0,0
1772214072.6860778,1772214072.6262517,-318.84765625,-7.8125,146.97265625,76.66015625,0.0,0,0
1772214072.6861298,1772214072.6301477,-45.8984375,-11.23046875,116.2109375,145.5078125,0.0,0,0
1772214072.686181,1772214072.6340435,255.859375,-41.015625,-29.296875,-23.4375,0.0,0,0
1772214072.68624,1772214072.6379392,98.14453125,-62.5,-105.46875,-183.10546875,0.0,0,0
1772214072.6862988,1772214072.6418352,-326.66015625,-42.48046875,67.3828125,-135.7421875,0.0,0,0
1772214072.686371,1772214072.645731,-407.71484375,2.9296875,277.83203125,49.31640625,0.0,0,0
1772214072.716901,1772214072.6497393,-127.44140625,2.44140625,321.77734375,145.5078125,0.0,0,0
1772214072.7169962,1772214072.653635,253.90625,-33.203125,194.3359375,3.41796875,0.0,0,0
1772214072.717039,1772214072.657531,96.6796875,-51.26953125,64.94140625,-181.15234375,0.0,0,0
1772214072.7171378,1772214072.6614268,-254.39453125,-42.96875,161.1328125,-146.484375,0.0,0,0
1772214072.7172532,1772214072.6653228,-373.53515625,-10.7421875,357.91015625,69.3359375,0.0,0,0
1772214072.717372,1772214072.6692185,-134.27734375,6.8359375,402.83203125,170.41015625,0.0,0,0
1772214072.717419,1772214072.6731145,270.99609375,-20.99609375,229.98046875,20.99609375,0.0,0,0
1772214072.7174988,1772214072.6770103,129.8828125,-55.6640625,70.3125,-180.17578125,0.0,0,0
1772214072.7176,1772214072.6809063,-178.7109375,-49.8046875,144.53125,-171.875,0.0,0,0
1772214072.7176561,1772214072.684802,-334.47265625,-6.8359375,325.68359375,39.0625,0.0,0,0
1772214072.717688,1772214072.688698,-119.62890625,20.99609375,383.30078125,169.921875,0.0,0,0
1772214072.7177181,1772214072.6925938,296.38671875,-2.9296875,225.09765625,51.26953125,0.0,0,0
1772214072.761885,1772214072.6965954,125.9765625,-55.6640625,51.7578125,-152.83203125,0.0,0,0
1772214072.7620292,1772214072.7004912,-154.296875,-59.5703125,103.515625,-184.5703125,0.0,0,0
1772214072.762073,1772214072.7043872,-309.5703125,-12.6953125,285.15625,-4.8828125,0.0,0,0
1772214072.762112,1772214072.708283,-126.953125,-1.46484375,367.1875,151.3671875,0.0,0,0
1772214072.7621498,1772214072.712179,257.8125,-23.4375,242.67578125,74.70703125,0.0,0,0
1772214072.762188,1772214072.7160747,205.56640625,-52.24609375,59.5703125,-143.5546875,0.0,0,0
1772214072.762243,1772214072.7199707,-73.2421875,-56.640625,38.0859375,-208.984375,0.0,0,0
1772214072.762282,1772214072.7238667,-312.01171875,0.0,230.95703125,-10.7421875,0.0,0,0
1772214072.7623181,1772214072.7277625,-108.88671875,29.296875,344.7265625,158.69140625,0.0,0,0
1772214072.7623549,1772214072.7316585,216.30859375,8.30078125,209.47265625,102.5390625,0.0,0,0
1772214072.762392,1772214072.7355542,220.21484375,-8.7890625,56.640625,-99.609375,0.0,0,0
1772214072.7624269,1772214072.7394502,-42.48046875,-21.484375,56.640625,-210.44921875,0.0,0,0
1772214072.836471,1772214072.743601,-411.1328125,-8.7890625,224.609375,-72.75390625,0.0,0,0
1772214072.836596,1772214072.7474968,-252.9296875,27.83203125,255.859375,113.76953125,0.0,0,0
1772214072.83664,1772214072.7513928,53.7109375,29.296875,81.54296875,82.03125,0.0,0,0
1772214072.836679,1772214072.7552888,61.03515625,-2.44140625,-109.375,-148.4375,0.0,0,0
1772214072.836716,1772214072.7591848,-166.015625,-17.578125,-125.0,-276.85546875,0.0,0,0
1772214072.836753,1772214072.7630806,-460.9375,30.76171875,85.9375,-148.92578125,0.0,0,0
1772214072.8368042,1772214072.7669766,-238.28125,83.49609375,273.4375,47.8515625,0.0,0,0
1772214072.83684,1772214072.7708726,1.953125,62.98828125,256.34765625,42.48046875,0.0,0,0
1772214072.836877,1772214072.7747686,56.15234375,16.6015625,179.19921875,-146.97265625,0.0,0,0
1772214072.836916,1772214072.7786644,-135.7421875,7.8125,176.26953125,-287.109375,0.0,0,0
1772214072.836951,1772214072.7825603,-422.8515625,54.19921875,332.51953125,-197.75390625,0.0,0,0
1772214072.836988,1772214072.7864563,-288.57421875,102.05078125,446.2890625,4.39453125,0.0,0,0
1772214072.851601,1772214072.7904387,-77.1484375,82.51953125,277.34375,48.828125,0.0,0,0
1772214072.851707,1772214072.7943344,121.09375,27.34375,44.43359375,-109.375,0.0,0,0
1772214072.851764,1772214072.7982304,-94.7265625,-9.765625,-70.3125,-291.9921875,0.0,0,0
1772214072.851817,1772214072.8021264,-372.0703125,9.765625,106.4453125,-223.14453125,0.0,0,0
1772214072.8518689,1772214072.8060224,-175.29296875,62.98828125,269.04296875,30.76171875,0.0,0,0
1772214072.8519208,1772214072.8099182,90.8203125,70.3125,175.29296875,125.48828125,0.0,0,0
1772214072.8521988,1772214072.8138142,203.61328125,12.20703125,36.62109375,-24.90234375,0.0,0,0
1772214072.852256,1772214072.8177102,-171.38671875,-33.69140625,-151.85546875,-209.9609375,0.0,0,0
1772214072.8523269,1772214072.8216062,-409.66796875,-7.8125,-121.09375,-168.9453125,0.0,0,0
1772214072.8523772,1772214072.8255022,-213.37890625,27.83203125,60.546875,42.48046875,0.0,0,0
1772214072.852427,1772214072.829398,105.95703125,13.671875,78.125,157.71484375,0.0,0,0
1772214072.8524811,1772214072.833294,300.78125,-26.3671875,-41.015625,22.4609375,0.0,0,0
1772214072.912684,1772214072.837267,-32.71484375,-62.98828125,-212.890625,-179.19921875,0.0,0,0
1772214072.91286,1772214072.841163,-219.7265625,-66.89453125,-90.8203125,-160.64453125,0.0,0,0
1772214072.912918,1772214072.8450587,-113.28125,-23.4375,129.39453125,58.10546875,0.0,0,0
1772214072.912972,1772214072.8489547,128.41796875,-7.8125,184.5703125,193.84765625,0.0,0,0
1772214072.9130602,1772214072.8528507,292.48046875,-76.171875,37.59765625,61.5234375,0.0,0,0
1772214072.913116,1772214072.8567467,14.16015625,-104.4921875,-179.6875,-131.8359375,0.0,0,0
1772214072.913156,1772214072.8606427,-209.9609375,-57.12890625,-185.05859375,-145.99609375,0.0,0,0
1772214072.913218,1772214072.8645387,-154.296875,-15.13671875,22.94921875,50.78125,0.0,0,0
1772214072.913256,1772214072.8684344,163.57421875,-20.5078125,74.70703125,236.328125,0.0,0,0
1772214072.913294,1772214072.8723304,284.66796875,-68.84765625,-207.03125,120.1171875,0.0,0,0
1772214072.913332,1772214072.8762264,-80.078125,-84.9609375,-455.56640625,-129.39453125,0.0,0,0
1772214072.9133701,1772214072.8801224,-298.828125,-68.84765625,-452.1484375,-191.40625,0.0,0,0
1772214072.9573429,1772214072.884168,-256.8359375,-44.43359375,-244.140625,4.8828125,0.0,0,0
1772214072.9574451,1772214072.888064,45.8984375,-30.76171875,-169.921875,193.359375,0.0,0,0
1772214072.957503,1772214072.89196,271.484375,-46.38671875,-431.15234375,115.234375,0.0,0,0
1772214072.957557,1772214072.895856,63.96484375,-100.09765625,-678.7109375,-93.26171875,0.0,0,0
1772214072.957609,1772214072.899752,-168.45703125,-113.76953125,-662.59765625,-157.71484375,0.0,0,0
1772214072.9576619,1772214072.903648,-198.2421875,-56.640625,-436.5234375,5.859375,0.0,0,0
1772214072.9577029,1772214072.907544,143.06640625,-31.25,-188.96484375,182.12890625,0.0,0,0
1772214072.9577432,1772214072.91144,294.43359375,-74.70703125,-305.17578125,140.13671875,0.0,0,0
1772214072.957781,1772214072.9153357,70.3125,-132.32421875,-578.125,-60.05859375,0.0,0,0
1772214072.957819,1772214072.9192317,-176.26953125,-136.71875,-563.4765625,-179.19921875,0.0,0,0
1772214072.9578571,1772214072.9231277,-241.2109375,-91.796875,-295.8984375,-40.52734375,0.0,0,0
1772214072.957912,1772214072.9270236,119.62890625,-61.5234375,-156.25,141.11328125,0.0,0,0
1772214073.002246,1772214072.931058,307.6171875,-80.56640625,-323.73046875,118.65234375,0.0,0,0
1772214073.0024,1772214072.934954,169.43359375,-122.0703125,-577.1484375,-64.94140625,0.0,0,0
1772214073.002444,1772214072.93885,-51.26953125,-130.859375,-583.984375,-184.08203125,0.0,0,0
1772214073.002485,1772214072.942746,-199.70703125,-99.609375,-350.09765625,-70.80078125,0.0,0,0
1772214073.002523,1772214072.946642,115.72265625,-76.66015625,-199.70703125,127.9296875,0.0,0,0
1772214073.0025659,1772214072.950538,370.1171875,-93.26171875,-290.52734375,166.50390625,0.0,0,0
1772214073.002603,1772214072.954434,266.11328125,-127.44140625,-516.6015625,-22.94921875,0.0,0,0
1772214073.002651,1772214072.95833,-43.45703125,-131.8359375,-574.70703125,-202.63671875,0.0,0,0
1772214073.0027032,1772214072.962226,-192.3828125,-69.82421875,-376.953125,-112.3046875,0.0,0,0
1772214073.0027468,1772214072.966122,123.046875,-23.92578125,-178.7109375,115.234375,0.0,0,0
1772214073.00279,1772214072.970018,389.6484375,-63.4765625,-145.99609375,180.6640625,0.0,0,0
1772214073.0028439,1772214072.973914,312.01171875,-125.9765625,-316.40625,17.08984375,0.0,0,0
1772214073.046148,1772214072.97793,-48.828125,-124.0234375,-410.64453125,-172.36328125,0.0,0,0
1772214073.046221,1772214072.981826,-217.28515625,-72.75390625,-254.8828125,-125.9765625,0.0,0,0
1772214073.046249,1772214072.985722,42.48046875,-25.87890625,-55.17578125,89.35546875,0.0,0,0
1772214073.0462751,1772214072.989618,292.48046875,-41.50390625,-67.3828125,170.41015625,0.0,0,0
1772214073.0463,1772214072.993514,323.2421875,-83.984375,-255.37109375,20.5078125,0.0,0,0
1772214073.046325,1772214072.99741,-23.4375,-87.890625,-372.0703125,-163.0859375,0.0,0,0
1772214073.046348,1772214073.001306,-229.4921875,-60.546875,-249.0234375,-149.90234375,0.0,0,0
1772214073.0463722,1772214073.005202,-21.97265625,-4.39453125,-69.82421875,54.6875,0.0,0,0
1772214073.0463989,1772214073.009098,263.18359375,0.9765625,-92.7734375,166.015625,0.0,0,0
1772214073.0464242,1772214073.0129943,348.6328125,-33.203125,-178.22265625,36.1328125,0.0,0,0
1772214073.0464482,1772214073.0168903,-25.87890625,-71.2890625,-196.77734375,-147.4609375,0.0,0,0
1772214073.046479,1772214073.0207863,-260.7421875,-73.73046875,-161.62109375,-172.36328125,0.0,0,0
1772214073.090949,1772214073.024793,-107.421875,-17.578125,-22.4609375,-1.46484375,0.0,0,0
1772214073.091031,1772214073.028689,215.8203125,16.6015625,-16.6015625,142.578125,0.0,0,0
1772214073.091059,1772214073.032585,355.46875,-11.23046875,-207.51953125,46.38671875,0.0,0,0
1772214073.091104,1772214073.036481,4.39453125,-73.73046875,-387.20703125,-147.4609375,0.0,0,0
1772214073.0912042,1772214073.040377,-210.9375,-53.7109375,-381.34765625,-202.63671875,0.0,0,0
1772214073.091233,1772214073.0442731,-82.03125,25.87890625,-100.5859375,-42.48046875,0.0,0,0
1772214073.09126,1772214073.0481691,251.46484375,40.52734375,83.0078125,124.0234375,0.0,0,0
1772214073.091285,1772214073.0520651,396.97265625,-7.8125,24.90234375,54.6875,0.0,0,0
1772214073.09131,1772214073.0559611,52.734375,-61.03515625,-58.10546875,-149.90234375,0.0,0,0
1772214073.0913332,1772214073.0598571,-214.35546875,-46.38671875,-7.8125,-223.14453125,0.0,0,0
1772214073.091357,1772214073.0637531,-134.765625,9.27734375,236.81640625,-49.31640625,0.0,0,0
1772214073.0913868,1772214073.0676494,244.62890625,16.6015625,366.2109375,141.11328125,0.0,0,0
1772214073.1363919,1772214073.0716453,384.27734375,-26.85546875,278.80859375,98.14453125,0.0,0,0
1772214073.13648,1772214073.0755413,74.70703125,-71.77734375,123.046875,-106.4453125,0.0,0,0
1772214073.136508,1772214073.0794373,-210.9375,-60.05859375,83.984375,-224.609375,0.0,0,0
1772214073.136533,1772214073.0833335,-213.37890625,-5.37109375,264.6484375,-84.47265625,0.0,0,0
1772214073.136598,1772214073.0872295,211.42578125,25.87890625,370.60546875,107.91015625,0.0,0,0
1772214073.1366348,1772214073.0911255,376.46484375,9.765625,212.40234375,78.61328125,0.0,0,0
1772214073.136662,1772214073.0950215,134.765625,-22.4609375,43.45703125,-117.67578125,0.0,0,0
1772214073.136687,1772214073.0989177,-180.6640625,-33.69140625,58.10546875,-237.3046875,0.0,0,0
1772214073.136711,1772214073.1028137,-285.15625,2.9296875,265.13671875,-114.74609375,0.0,0,0
1772214073.136735,1772214073.1067097,107.91015625,20.5078125,439.94140625,86.9140625,0.0,0,0
1772214073.136759,1772214073.1106057,302.734375,-5.37109375,369.62890625,106.4453125,0.0,0,0
1772214073.136786,1772214073.1145017,99.12109375,-23.4375,160.15625,-70.80078125,0.0,0,0
1772214073.1811259,1772214073.1184883,-230.46875,-30.2734375,93.26171875,-214.84375,0.0,0,0
1772214073.181217,1772214073.1223843,-375.0,-9.27734375,238.76953125,-130.37109375,0.0,0,0
1772214073.181252,1772214073.1262803,-15.625,22.94921875,378.41796875,69.82421875,0.0,0,0
1772214073.181278,1772214073.1301765,269.53125,-2.9296875,309.5703125,122.0703125,0.0,0,0
1772214073.181302,1772214073.1340725,182.6171875,-58.59375,99.609375,-39.0625,0.0,0,0
1772214073.1813262,1772214073.1379685,-184.08203125,-58.59375,-3.41796875,-198.73046875,0.0,0,0
1772214073.18135,1772214073.1418645,-324.21875,-20.99609375,111.328125,-130.859375,0.0,0,0
1772214073.1813738,1772214073.1457608,13.18359375,6.34765625,269.53125,80.56640625,0.0,0,0
1772214073.181399,1772214073.1496568,269.04296875,-0.9765625,224.609375,150.87890625,0.0,0,0
1772214073.181487,1772214073.1535528,203.125,-45.8984375,-3.41796875,-19.04296875,0.0,0,0
1772214073.181513,1772214073.157449,-184.08203125,-59.08203125,-117.1875,-199.21875,0.0,0,0
1772214073.181537,1772214073.161345,-321.77734375,-15.625,30.2734375,-157.71484375,0.0,0,0
1772214073.2260008,1772214073.1653228,-89.35546875,20.99609375,181.15234375,43.9453125,0.0,0,0
1772214073.2261262,1772214073.1692188,189.453125,8.30078125,199.70703125,145.99609375,0.0,0,0
1772214073.226169,1772214073.173115,267.08984375,-45.8984375,78.125,24.4140625,0.0,0,0
1772214073.226212,1772214073.177011,-132.8125,-65.91796875,-44.43359375,-159.66796875,0.0,0,0
1772214073.2262511,1772214073.180907,-362.79296875,-27.34375,40.0390625,-170.8984375,0.0,0,0
1772214073.22629,1772214073.1848032,-158.69140625,19.53125,234.86328125,4.8828125,0.0,0,0
1772214073.226329,1772214073.1886992,162.109375,21.484375,282.2265625,125.48828125,0.0,0,0
1772214073.226367,1772214073.1925952,221.19140625,-27.83203125,113.76953125,24.90234375,0.0,0,0
1772214073.2264042,1772214073.1964915,-184.08203125,-84.9609375,-59.5703125,-173.33984375,0.0,0,0
1772214073.226444,1772214073.2003875,-395.01953125,-65.91796875,-5.859375,-199.70703125,0.0,0,0
1772214073.226481,1772214073.2042835,-203.61328125,-6.34765625,220.703125,-1.46484375,0.0,0,0
1772214073.226517,1772214073.2081797,150.87890625,13.18359375,293.45703125,155.76171875,0.0,0,0
1772214073.286067,1772214073.2121465,280.76171875,-20.01953125,128.41796875,81.54296875,0.0,0,0
1772214073.2861922,1772214073.2160425,-95.703125,-52.734375,-72.265625,-122.55859375,0.0,0,0
1772214073.2862458,1772214073.2199385,-377.44140625,-37.109375,-79.58984375,-195.80078125,0.0,0,0
1772214073.286298,1772214073.2238348,-302.24609375,-6.8359375,119.62890625,-36.62109375,0.0,0,0
1772214073.286339,1772214073.2277308,118.65234375,8.30078125,229.00390625,123.53515625,0.0,0,0
1772214073.286377,1772214073.2316267,318.359375,-7.8125,81.54296875,69.3359375,0.0,0,0
1772214073.286415,1772214073.235523,-21.97265625,-49.8046875,-144.04296875,-125.0,0.0,0,0
1772214073.286457,1772214073.239419,-345.703125,-71.77734375,-208.49609375,-229.98046875,0.0,0,0
1772214073.286495,1772214073.2433152,-325.68359375,-29.296875,-17.578125,-77.63671875,0.0,0,0
1772214073.286531,1772214073.2472112,162.59765625,-0.48828125,122.55859375,131.34765625,0.0,0,0
1772214073.2865732,1772214073.2511072,362.3046875,-27.34375,-2.44140625,88.37890625,0.0,0,0
1772214073.28661,1772214073.2550035,65.91796875,-47.36328125,-199.70703125,-128.41796875,0.0,0,0
1772214073.3309429,1772214073.2590404,-242.1875,-50.78125,-240.234375,-239.74609375,0.0,0,0
1772214073.3310359,1772214073.2629366,-296.875,-19.04296875,-46.875,-103.02734375,0.0,0,0
1772214073.3310661,1772214073.2668326,138.18359375,15.13671875,121.58203125,84.9609375,0.0,0,0
1772214073.331092,1772214073.2707288,325.1953125,-16.11328125,13.18359375,73.73046875,0.0,0,0
1772214073.3311172,1772214073.2746248,115.234375,-62.98828125,-185.05859375,-108.3984375,0.0,0,0
1772214073.331142,1772214073.278521,-153.80859375,-56.640625,-217.7734375,-239.2578125,0.0,0,0
1772214073.331168,1772214073.282417,-268.5546875,-0.9765625,-74.21875,-122.55859375,0.0,0,0
1772214073.331192,1772214073.2863133,77.1484375,24.90234375,36.1328125,91.30859375,0.0,0,0
1772214073.331223,1772214073.2902093,310.05859375,-5.37109375,-55.6640625,120.1171875,0.0,0,0
1772214073.331247,1772214073.2941055,169.921875,-34.1796875,-249.0234375,-59.5703125,0.0,0,0
1772214073.331271,1772214073.2980015,-189.94140625,-50.78125,-275.87890625,-215.8203125,0.0,0,0
1772214073.331295,1772214073.3018975,-326.171875,-34.1796875,-34.1796875,-133.30078125,0.0,0,0
1772214073.376259,1772214073.3059247,21.484375,0.0,155.2734375,84.9609375,0.0,0,0
1772214073.3763561,1772214073.3098207,262.20703125,-15.13671875,60.05859375,155.2734375,0.0,0,0
1772214073.3763862,1772214073.313717,161.1328125,-62.5,-160.64453125,-13.18359375,0.0,0,0
1772214073.376415,1772214073.317613,-225.09765625,-83.49609375,-273.4375,-188.4765625,0.0,0,0
1772214073.376441,1772214073.3215091,-358.3984375,-42.96875,-142.08984375,-135.7421875,0.0,0,0
1772214073.376466,1772214073.3254051,-80.078125,6.8359375,5.37109375,69.3359375,0.0,0,0
1772214073.3764899,1772214073.3293014,198.73046875,5.859375,-63.4765625,160.15625,0.0,0,0
1772214073.376513,1772214073.3331974,246.09375,-37.109375,-253.41796875,13.671875,0.0,0,0
1772214073.376537,1772214073.3370936,-169.921875,-79.58984375,-361.81640625,-170.41015625,0.0,0,0
1772214073.376561,1772214073.3409896,-363.28125,-56.640625,-251.953125,-154.78515625,0.0,0,0
1772214073.376585,1772214073.3448858,-120.60546875,-8.30078125,-72.75390625,37.59765625,0.0,0,0
1772214073.376611,1772214073.348782,204.1015625,-1.953125,-46.38671875,158.203125,0.0,0,0
1772214073.436908,1772214073.3528776,260.7421875,-34.66796875,-260.25390625,48.33984375,0.0,0,0
1772214073.437045,1772214073.3567736,-212.40234375,-77.63671875,-485.3515625,-166.50390625,0.0,0,0
1772214073.437106,1772214073.3606699,-421.38671875,-59.08203125,-445.3125,-201.66015625,0.0,0,0
1772214073.43716,1772214073.364566,-177.734375,-17.578125,-259.27734375,9.765625,0.0,0,0
1772214073.4372108,1772214073.368462,178.7109375,-20.01953125,-184.5703125,164.55078125,0.0,0,0
1772214073.437263,1772214073.3723583,312.5,-37.109375,-287.109375,72.75390625,0.0,0,0
1772214073.437314,1772214073.3762546,-78.61328125,-55.6640625,-413.0859375,-135.25390625,0.0,0,0
1772214073.437366,1772214073.3801506,-343.26171875,-53.7109375,-382.32421875,-188.4765625,0.0,0,0
1772214073.4374158,1772214073.3840468,-195.3125,-21.484375,-171.38671875,-7.32421875,0.0,0,0
1772214073.4374678,1772214073.387943,158.203125,-11.23046875,-58.10546875,150.87890625,0.0,0,0
1772214073.437525,1772214073.391839,287.59765625,-38.57421875,-216.30859375,74.70703125,0.0,0,0
1772214073.437595,1772214073.3957353,-34.66796875,-83.0078125,-380.859375,-124.0234375,0.0,0,0
1772214073.4660811,1772214073.3997407,-326.171875,-80.56640625,-362.3046875,-205.56640625,0.0,0,0
1772214073.46619,1772214073.4036367,-321.77734375,-27.83203125,-144.53125,-43.45703125,0.0,0,0
1772214073.466244,1772214073.407533,94.7265625,-6.8359375,29.296875,148.4375,0.0,0,0
1772214073.4662971,1772214073.4114292,306.640625,-23.92578125,-41.015625,110.3515625,0.0,0,0
1772214073.4663491,1772214073.4153254,25.87890625,-57.12890625,-180.6640625,-95.21484375,0.0,0,0
1772214073.466401,1772214073.4192214,-277.34375,-56.640625,-162.109375,-194.3359375,0.0,0,0
1772214073.466452,1772214073.4231176,-326.171875,-17.08984375,48.33984375,-50.29296875,0.0,0,0
1772214073.466503,1772214073.4270139,66.40625,7.8125,139.16015625,144.53125,0.0,0,0
1772214073.4665542,1772214073.43091,256.8359375,-8.7890625,10.25390625,133.7890625,0.0,0,0
1772214073.466604,1772214073.434806,51.26953125,-58.10546875,-185.546875,-80.078125,0.0,0,0
1772214073.466656,1772214073.4387023,-246.58203125,-72.75390625,-241.2109375,-211.42578125,0.0,0,0
1772214073.466706,1772214073.4425986,-340.33203125,-38.0859375,-90.8203125,-99.12109375,0.0,0,0
1772214073.5112581,1772214073.446595,67.87109375,-0.48828125,31.25,89.84375,0.0,0,0
1772214073.511369,1772214073.4504912,321.2890625,-3.41796875,-57.6171875,116.2109375,0.0,0,0
1772214073.511418,1772214073.4543874,175.78125,-55.17578125,-262.20703125,-70.3125,0.0,0,0
1772214073.5114582,1772214073.4582834,-169.43359375,-85.44921875,-341.796875,-217.28515625,0.0,0,0
1772214073.5115001,1772214073.4621797,-299.8046875,-49.8046875,-180.6640625,-129.39453125,0.0,0,0
1772214073.511538,1772214073.466076,68.359375,-7.8125,-8.7890625,62.01171875,0.0,0,0
1772214073.511575,1772214073.4699721,288.57421875,-48.33984375,-13.18359375,119.62890625,0.0,0,0
1772214073.5116181,1772214073.4738684,193.84765625,-78.61328125,-170.41015625,-45.8984375,0.0,0,0
1772214073.511656,1772214073.4777644,-156.25,-58.59375,-295.8984375,-218.26171875,0.0,0,0
1772214073.511693,1772214073.4816606,-336.9140625,-26.85546875,-183.59375,-168.45703125,0.0,0,0
1772214073.51173,1772214073.4855568,-30.2734375,16.11328125,-3.41796875,28.3203125,0.0,0,0
1772214073.511768,1772214073.489453,255.37109375,1.46484375,7.8125,99.12109375,0.0,0,0
1772214073.557204,1772214073.4934392,256.34765625,-48.33984375,-126.46484375,-32.2265625,0.0,0,0
1772214073.5573928,1772214073.4973354,-180.6640625,-67.3828125,-234.86328125,-207.51953125,0.0,0,0
1772214073.557455,1772214073.5012317,-374.51171875,-57.6171875,-169.43359375,-182.6171875,0.0,0,0
1772214073.5575109,1772214073.505128,-91.30859375,-31.25,-0.9765625,20.01953125,0.0,0,0
1772214073.557566,1772214073.5090241,205.56640625,-8.7890625,-14.16015625,118.65234375,0.0,0,0
1772214073.5576189,1772214073.5129201,266.6015625,-35.15625,-216.796875,-10.7421875,0.0,0,0
1772214073.557674,1772214073.5168164,-119.62890625,-76.171875,-335.9375,-197.265625,0.0,0,0
1772214073.5577269,1772214073.5207126,-329.1015625,-67.87109375,-269.53125,-195.3125,0.0,0,0
1772214073.557778,1772214073.5246089,-142.08984375,-24.4140625,-101.07421875,8.30078125,0.0,0,0
1772214073.5578299,1772214073.528505,186.03515625,-7.8125,-21.484375,139.6484375,0.0,0,0
1772214073.557881,1772214073.5324013,297.36328125,-48.33984375,-139.6484375,29.296875,0.0,0,0
1772214073.5579321,1772214073.5362976,-57.12890625,-75.68359375,-255.859375,-153.3203125,0.0,0,0
1772214073.615956,1772214073.5402746,-308.59375,-36.62109375,-186.5234375,-194.82421875,0.0,0,0
1772214073.616162,1772214073.5441709,-210.9375,19.53125,26.3671875,-39.0625,0.0,0,0
1772214073.6162271,1772214073.548067,193.359375,27.83203125,114.2578125,123.53515625,0.0,0,0
1772214073.616281,1772214073.5519633,342.7734375,-3.41796875,-18.5546875,49.8046875,0.0,0,0
1772214073.616333,1772214073.5558596,-42.96875,-29.78515625,-205.078125,-155.76171875,0.0,0,0
1772214073.616385,1772214073.5597558,-313.4765625,-17.08984375,-226.07421875,-229.98046875,0.0,0,0
1772214073.616438,1772214073.563652,-272.94921875,-26.3671875,0.0,-69.3359375,0.0,0,0
1772214073.616488,1772214073.5675483,139.6484375,-24.4140625,139.16015625,118.1640625,0.0,0,0
1772214073.616538,1772214073.5714443,307.6171875,-20.99609375,-9.27734375,62.98828125,0.0,0,0
1772214073.616588,1772214073.5753405,-9.27734375,-55.17578125,-209.9609375,-134.765625,0.0,0,0
1772214073.616638,1772214073.5792367,-269.53125,-46.38671875,-226.07421875,-216.30859375,0.0,0,0
1772214073.616687,1772214073.583133,-314.94140625,-8.30078125,-63.4765625,-88.37890625,0.0,0,0
1772214073.661021,1772214073.5870996,94.7265625,15.625,60.546875,98.14453125,0.0,0,0
1772214073.661124,1772214073.5909958,317.87109375,-2.44140625,2.9296875,102.05078125,0.0,0,0
1772214073.661153,1772214073.594892,52.734375,-40.0390625,-166.015625,-96.19140625,0.0,0,0
1772214073.661178,1772214073.5987883,-282.71484375,-73.73046875,-246.09375,-225.5859375,0.0,0,0
1772214073.6612039,1772214073.6026845,-367.67578125,-47.36328125,-91.30859375,-101.5625,0.0,0,0
1772214073.661228,1772214073.6065805,123.046875,15.625,85.44921875,102.05078125,0.0,0,0
1772214073.661255,1772214073.6104767,376.953125,0.9765625,41.50390625,121.09375,0.0,0,0
1772214073.661279,1772214073.614373,130.37109375,-52.24609375,-127.9296875,-61.5234375,0.0,0,0
1772214073.661304,1772214073.6182692,-239.2578125,-63.96484375,-204.1015625,-208.0078125,0.0,0,0
1772214073.6613278,1772214073.6221654,-328.61328125,-31.73828125,-39.55078125,-112.79296875,0.0,0,0
1772214073.661355,1772214073.6260617,129.8828125,0.48828125,179.19921875,93.75,0.0,0,0
1772214073.661379,1772214073.629958,362.79296875,-14.6484375,119.140625,125.0,0.0,0,0
1772214073.737612,1772214073.6341496,172.8515625,-56.640625,-110.83984375,-63.96484375,0.0,0,0
1772214073.737716,1772214073.6380458,-210.9375,-66.40625,-167.48046875,-221.19140625,0.0,0,0
1772214073.737758,1772214073.641942,-365.234375,-25.87890625,18.5546875,-138.671875,0.0,0,0
1772214073.737786,1772214073.6458383,-30.76171875,13.671875,186.5234375,57.6171875,0.0,0,0
1772214073.7378109,1772214073.6497347,295.41015625,7.8125,187.5,140.13671875,0.0,0,0
1772214073.737837,1772214073.653631,277.34375,-29.78515625,34.66796875,-2.44140625,0.0,0,0
1772214073.7378612,1772214073.6575272,-189.453125,-71.77734375,-96.19140625,-183.59375,0.0,0,0
1772214073.737885,1772214073.6614234,-392.578125,-53.7109375,8.30078125,-136.71875,0.0,0,0
1772214073.73791,1772214073.6653197,-98.14453125,4.8828125,180.17578125,57.6171875,0.0,0,0
1772214073.737934,1772214073.669216,229.00390625,-6.8359375,176.7578125,145.5078125,0.0,0,0
1772214073.737959,1772214073.6731122,287.59765625,-43.9453125,4.8828125,21.484375,0.0,0,0
1772214073.737986,1772214073.6770084,-161.62109375,-34.1796875,-178.22265625,-175.78125,0.0,0,0
1772214073.75194,1772214073.6810403,-394.04296875,-18.06640625,-138.671875,-190.4296875,0.0,0,0
1772214073.752063,1772214073.6849368,-143.06640625,1.46484375,65.91796875,8.7890625,0.0,0,0
1772214073.752108,1772214073.688833,222.16796875,6.34765625,92.7734375,138.671875,0.0,0,0
1772214073.752148,1772214073.6927292,309.5703125,-29.78515625,-95.703125,35.64453125,0.0,0,0
1772214073.7521868,1772214073.6966255,-123.53515625,-73.73046875,-259.765625,-151.85546875,0.0,0,0
1772214073.752227,1772214073.700522,-356.93359375,-65.4296875,-249.51171875,-188.96484375,0.0,0,0
1772214073.752265,1772214073.7044182,-180.17578125,-7.32421875,-111.328125,-11.71875,0.0,0,0
1772214073.7523031,1772214073.7083144,163.0859375,5.37109375,-89.35546875,137.20703125,0.0,0,0
1772214073.75234,1772214073.7122107,318.359375,-30.76171875,-203.125,42.96875,0.0,0,0
1772214073.752377,1772214073.716107,-55.6640625,-70.3125,-269.53125,-162.109375,0.0,0,0
1772214073.752414,1772214073.7200034,-362.79296875,-66.40625,-241.2109375,-220.21484375,0.0,0,0
1772214073.7524521,1772214073.7238996,-244.62890625,-12.20703125,-76.66015625,-41.9921875,0.0,0,0
1772214073.795787,1772214073.7279158,181.15234375,13.671875,47.36328125,133.7890625,0.0,0,0
1772214073.79587,1772214073.731812,329.1015625,-28.3203125,-97.16796875,72.75390625,0.0,0,0
1772214073.7959082,1772214073.7357085,-35.64453125,-74.70703125,-306.640625,-135.25390625,0.0,0,0
1772214073.7959402,1772214073.7396047,-323.2421875,-61.5234375,-320.3125,-219.7265625,0.0,0,0
1772214073.795978,1772214073.743501,-293.9453125,-23.4375,-155.76171875,-74.70703125,0.0,0,0
1772214073.796017,1772214073.7473974,161.62109375,4.39453125,-20.99609375,111.328125,0.0,0,0
1772214073.7960541,1772214073.7512937,385.7421875,-9.27734375,-98.14453125,88.8671875,0.0,0,0
1772214073.7960908,1772214073.75519,73.73046875,-50.78125,-288.57421875,-111.81640625,0.0,0,0
1772214073.796128,1772214073.7590861,-255.37109375,-51.7578125,-335.9375,-220.21484375,0.0,0,0
1772214073.796164,1772214073.7629826,-289.55078125,-16.6015625,-134.27734375,-86.42578125,0.0,0,0
1772214073.796201,1772214073.7668788,177.734375,2.9296875,54.6875,119.62890625,0.0,0,0
1772214073.796237,1772214073.770775,373.046875,-32.71484375,-10.7421875,119.62890625,0.0,0,0
1772214073.841887,1772214073.7747798,78.125,-77.1484375,-181.640625,-91.30859375,0.0,0,0
1772214073.8419771,1772214073.7786763,-262.6953125,-79.1015625,-213.8671875,-235.83984375,0.0,0,0
1772214073.842011,1772214073.7825725,-339.35546875,-34.66796875,-52.24609375,-116.2109375,0.0,0,0
1772214073.8420422,1772214073.7864687,68.359375,1.46484375,69.82421875,95.21484375,0.0,0,0
1772214073.842071,1772214073.7903652,312.01171875,-12.20703125,-11.71875,123.046875,0.0,0,0
1772214073.842103,1772214073.7942615,137.6953125,-50.29296875,-186.5234375,-65.4296875,0.0,0,0
1772214073.8421319,1772214073.7981577,-246.58203125,-68.84765625,-261.71875,-229.00390625,0.0,0,0
1772214073.842162,1772214073.8020542,-386.23046875,-43.45703125,-134.27734375,-141.11328125,0.0,0,0
1772214073.842192,1772214073.8059504,3.41796875,-13.671875,33.69140625,65.91796875,0.0,0,0
1772214073.84222,1772214073.8098469,311.03515625,-28.3203125,6.34765625,119.140625,0.0,0,0
1772214073.842249,1772214073.813743,242.1875,-68.84765625,-162.59765625,-41.9921875,0.0,0,0
1772214073.842278,1772214073.8176394,-192.3828125,-90.33203125,-270.99609375,-217.28515625,0.0,0,0
1772214073.8861408,1772214073.8216338,-359.375,-46.875,-167.48046875,-166.50390625,0.0,0,0
1772214073.886231,1772214073.82553,-23.4375,-2.44140625,10.7421875,53.22265625,0.0,0,0
1772214073.8862588,1772214073.8294265,291.50390625,-14.6484375,31.25,141.6015625,0.0,0,0
1772214073.886305,1772214073.8333228,298.828125,-49.8046875,-150.390625,-22.4609375,0.0,0,0
1772214073.886393,1772214073.8372192,-147.94921875,-75.68359375,-301.26953125,-204.58984375,0.0,0,0
1772214073.886421,1772214073.8411155,-340.8203125,-56.640625,-187.01171875,-167.96875,0.0,0,0
1772214073.886446,1772214073.8450117,-115.234375,-23.4375,6.34765625,31.73828125,0.0,0,0
1772214073.8864698,1772214073.8489082,216.30859375,-27.83203125,44.921875,145.01953125,0.0,0,0
1772214073.886494,1772214073.8528044,277.34375,-57.12890625,-126.46484375,6.8359375,0.0,0,0
1772214073.886518,1772214073.856701,-199.70703125,-79.1015625,-294.43359375,-200.68359375,0.0,0,0
1772214073.886542,1772214073.8605971,-390.13671875,-57.12890625,-227.5390625,-207.51953125,0.0,0,0
1772214073.886566,1772214073.8644934,-141.6015625,-11.23046875,-3.41796875,-8.30078125,0.0,0,0
1772214073.96114,1772214073.868632,209.47265625,-18.06640625,73.73046875,130.859375,0.0,0,0
1772214073.9612641,1772214073.8725286,340.8203125,-41.50390625,-93.75,30.2734375,0.0,0,0
1772214073.961302,1772214073.8764248,-99.609375,-73.73046875,-297.8515625,-166.50390625,0.0,0,0
1772214073.961329,1772214073.8803213,-341.796875,-67.87109375,-252.9296875,-191.40625,0.0,0,0
1772214073.961354,1772214073.8842175,-214.84375,-19.04296875,-139.16015625,-9.765625,0.0,0,0
1772214073.961378,1772214073.888114,147.94921875,0.0,-167.96875,136.71875,0.0,0,0
1772214073.9614022,1772214073.8920102,332.51953125,-35.15625,-323.73046875,57.12890625,0.0,0,0
1772214073.961426,1772214073.8959067,-38.0859375,-82.51953125,-500.0,-143.06640625,0.0,0,0
1772214073.961449,1772214073.8998032,-312.98828125,-77.63671875,-521.97265625,-214.84375,0.0,0,0
1772214073.961474,1772214073.9036994,-228.02734375,-26.3671875,-354.4921875,-52.24609375,0.0,0,0
1772214073.961498,1772214073.9075959,225.09765625,2.44140625,-208.0078125,143.5546875,0.0,0,0
1772214073.9615219,1772214073.911492,411.62109375,-19.53125,-302.24609375,100.09765625,0.0,0,0
1772214073.9899468,1772214073.9154737,71.77734375,-45.8984375,-480.95703125,-105.95703125,0.0,0,0
1772214073.990032,1772214073.91937,-279.296875,-44.43359375,-510.7421875,-202.63671875,0.0,0,0
1772214073.990059,1772214073.9232664,-312.01171875,-19.53125,-316.40625,-58.10546875,0.0,0,0
1772214073.9900851,1772214073.927163,142.578125,-0.9765625,-140.625,145.01953125,0.0,0,0
1772214073.99011,1772214073.9310591,348.14453125,-15.625,-216.796875,135.25390625,0.0,0,0
1772214073.990135,1772214073.9349556,125.48828125,-41.50390625,-342.28515625,-59.08203125,0.0,0,0
1772214073.990159,1772214073.938852,-205.078125,-64.453125,-273.4375,-187.98828125,0.0,0,0
1772214073.9901829,1772214073.9427483,-335.9375,-36.62109375,-70.3125,-77.63671875,0.0,0,0
1772214073.990207,1772214073.9466448,90.33203125,17.08984375,67.3828125,114.74609375,0.0,0,0
1772214073.99023,1772214073.950541,328.61328125,1.953125,-5.859375,131.34765625,0.0,0,0
1772214073.9902542,1772214073.9544375,145.01953125,-42.48046875,-205.56640625,-49.8046875,0.0,0,0
1772214073.990278,1772214073.958334,-233.3984375,-58.59375,-284.66796875,-188.96484375,0.0,0,0
1772214074.037059,1772214073.9623752,-377.44140625,-31.73828125,-100.5859375,-85.44921875,0.0,0,0
1772214074.037142,1772214073.9662716,25.390625,16.6015625,51.26953125,109.375,0.0,0,0
1772214074.03717,1772214073.9701679,282.71484375,0.48828125,-1.46484375,140.625,0.0,0,0
1772214074.037196,1772214073.9740644,140.13671875,-56.15234375,-205.56640625,-41.50390625,0.0,0,0
1772214074.0372212,1772214073.9779608,-236.81640625,-63.4765625,-330.078125,-213.37890625,0.0,0,0
1772214074.0372539,1772214073.981857,-359.86328125,-29.78515625,-166.015625,-143.5546875,0.0,0,0
1772214074.0373151,1772214073.9857535,-28.80859375,-2.44140625,-17.578125,61.03515625,0.0,0,0
1772214074.037345,1772214073.98965,232.421875,-16.11328125,-62.98828125,126.46484375,0.0,0,0
1772214074.037371,1772214073.9935465,162.109375,-60.05859375,-222.16796875,-28.80859375,0.0,0,0
1772214074.037397,1772214073.9974427,-273.4375,-82.03125,-338.8671875,-207.51953125,0.0,0,0
1772214074.0374248,1772214074.0013392,-416.9921875,-40.0390625,-232.421875,-166.9921875,0.0,0,0
1772214074.0374541,1772214074.0052357,-100.09765625,12.20703125,-61.5234375,42.48046875,0.0,0,0
1772214074.081889,1772214074.0092762,196.2890625,-2.44140625,-93.75,135.25390625,0.0,0,0
1772214074.081995,1772214074.0131724,254.39453125,-47.36328125,-282.2265625,-15.625,0.0,0,0
1772214074.082022,1772214074.0170689,-177.734375,-65.4296875,-413.0859375,-197.75390625,0.0,0,0
1772214074.082078,1772214074.0209653,-401.85546875,-38.57421875,-353.02734375,-185.05859375,0.0,0,0
1772214074.0821152,1772214074.0248618,-138.671875,0.9765625,-148.4375,0.0,0.0,0,0
1772214074.0821419,1772214074.0287583,237.3046875,19.04296875,-86.9140625,130.859375,0.0,0,0
1772214074.0821671,1772214074.0326545,297.8515625,-23.92578125,-259.27734375,25.87890625,0.0,0,0
1772214074.082192,1772214074.036551,-161.1328125,-64.94140625,-387.6953125,-169.43359375,0.0,0,0
1772214074.082216,1772214074.0404475,-364.74609375,-46.38671875,-330.56640625,-188.96484375,0.0,0,0
1772214074.082243,1772214074.044344,-204.1015625,-20.5078125,-133.7890625,-3.41796875,0.0,0,0
1772214074.082272,1772214074.0482404,154.78515625,-6.8359375,-42.96875,128.90625,0.0,0,0
1772214074.0822961,1772214074.0521367,329.1015625,-18.06640625,-198.2421875,41.50390625,0.0,0,0
1772214074.140726,1772214074.0561612,-46.38671875,-53.7109375,-330.56640625,-157.2265625,0.0,0,0
1772214074.1408331,1772214074.0600574,-326.66015625,-56.640625,-298.828125,-217.28515625,0.0,0,0
1772214074.140862,1772214074.0639539,-231.4453125,-1.953125,-128.90625,-38.0859375,0.0,0,0
1772214074.140888,1772214074.0678504,166.50390625,15.625,30.2734375,125.9765625,0.0,0,0
1772214074.140913,1772214074.0717468,338.8671875,-21.484375,-85.44921875,55.17578125,0.0,0,0
1772214074.1409369,1772214074.0756433,-8.7890625,-59.08203125,-291.50390625,-138.671875,0.0,0,0
1772214074.1409621,1772214074.0795398,-278.80859375,-52.24609375,-256.8359375,-216.30859375,0.0,0,0
1772214074.1409862,1772214074.0834363,-226.5625,5.859375,-61.5234375,-66.40625,0.0,0,0
1772214074.1410098,1772214074.0873327,173.33984375,27.83203125,49.8046875,112.79296875,0.0,0,0
1772214074.141035,1772214074.091229,324.70703125,-10.25390625,-55.6640625,81.54296875,0.0,0,0
1772214074.141092,1772214074.0951254,55.17578125,-50.29296875,-260.7421875,-120.1171875,0.0,0,0
1772214074.141116,1772214074.099022,-235.83984375,-48.828125,-306.640625,-232.91015625,0.0,0,0
1772214074.1717608,1772214074.1030357,-324.70703125,-24.4140625,-131.34765625,-93.75,0.0,0,0
1772214074.171894,1772214074.1069322,104.4921875,-3.90625,40.52734375,103.515625,0.0,0,0
1772214074.171934,1772214074.1108286,354.98046875,-12.6953125,-6.34765625,104.00390625,0.0,0,0
1772214074.1719732,1772214074.114725,145.5078125,-38.57421875,-210.44921875,-83.984375,0.0,0,0
1772214074.172011,1772214074.1186216,-195.80078125,-43.45703125,-282.71484375,-218.26171875,0.0,0,0
1772214074.172052,1772214074.122518,-305.6640625,-16.11328125,-83.0078125,-118.1640625,0.0,0,0
1772214074.172089,1772214074.1264145,98.14453125,15.625,146.97265625,92.28515625,0.0,0,0
1772214074.172138,1772214074.130311,348.6328125,5.859375,162.59765625,133.30078125,0.0,0,0
1772214074.172174,1772214074.1342075,204.58984375,-40.0390625,36.62109375,-45.8984375,0.0,0,0
1772214074.172242,1772214074.138104,-181.15234375,-62.01171875,-9.765625,-198.2421875,0.0,0,0
1772214074.17228,1772214074.1420004,-344.23828125,-27.83203125,161.1328125,-107.421875,0.0,0,0
1772214074.172317,1772214074.145897,-6.8359375,5.37109375,355.46875,96.6796875,0.0,0,0
1772214074.216236,1772214074.1498985,229.00390625,0.0,298.828125,127.9296875,0.0,0,0
1772214074.216347,1772214074.153795,172.36328125,-29.296875,73.73046875,-43.9453125,0.0,0,0
1772214074.21639,1772214074.1576915,-210.44921875,-52.24609375,-47.36328125,-202.63671875,0.0,0,0
1772214074.2164302,1772214074.161588,-402.34375,-24.4140625,74.21875,-156.73828125,0.0,0,0
1772214074.216469,1772214074.1654844,-66.40625,11.23046875,286.62109375,43.45703125,0.0,0,0
1772214074.2165089,1772214074.169381,264.16015625,13.18359375,244.62890625,124.51171875,0.0,0,0
1772214074.216547,1772214074.1732774,243.1640625,-25.87890625,-55.17578125,-14.6484375,0.0,0,0
1772214074.217833,1772214074.1771739,-229.00390625,-77.63671875,-229.98046875,-192.87109375,0.0,0,0
1772214074.217878,1772214074.1810703,-382.32421875,-64.453125,-109.375,-172.8515625,0.0,0,0
1772214074.217906,1772214074.1849668,-104.00390625,-12.6953125,108.3984375,17.578125,0.0,0,0
1772214074.217932,1772214074.1888633,193.359375,0.9765625,124.0234375,121.09375,0.0,0,0
1772214074.217963,1772214074.1927598,260.25390625,-34.1796875,-58.10546875,1.953125,0.0,0,0
1772214074.262441,1772214074.196753,-171.875,-75.1953125,-170.41015625,-182.12890625,0.0,0,0
1772214074.262584,1772214074.2006495,-375.48828125,-58.10546875,-81.0546875,-202.63671875,0.0,0,0
1772214074.262628,1772214074.204546,-213.37890625,-13.18359375,56.640625,-24.4140625,0.0,0,0
1772214074.262666,1772214074.2084424,143.06640625,-5.859375,84.47265625,129.39453125,0.0,0,0
1772214074.2627041,1772214074.212339,288.0859375,-46.38671875,-43.45703125,44.43359375,0.0,0,0
1772214074.262741,1772214074.2162354,-133.7890625,-62.01171875,-259.765625,-173.33984375,0.0,0,0
1772214074.262778,1772214074.220132,-410.15625,-40.0390625,-288.0859375,-225.09765625,0.0,0,0
1772214074.262815,1772214074.2240286,-300.78125,-16.6015625,-109.86328125,-47.8515625,0.0,0,0
1772214074.2628522,1772214074.227925,123.53515625,-9.27734375,-14.16015625,108.88671875,0.0,0,0
1772214074.262888,1772214074.2318215,289.0625,-46.38671875,-148.4375,40.0390625,0.0,0,0
1772214074.262924,1772214074.235718,-63.96484375,-75.1953125,-297.36328125,-166.015625,0.0,0,0
1772214074.262961,1772214074.2396145,-347.65625,-68.359375,-293.9453125,-229.98046875,0.0,0,0
1772214074.352395,1772214074.2437499,-323.2421875,-41.9921875,-158.203125,-61.5234375,0.0,0,0
1772214074.35248,1772214074.2476463,145.99609375,-1.953125,-16.11328125,118.65234375,0.0,0,0
1772214074.3525078,1772214074.2515428,351.07421875,-20.5078125,-120.60546875,82.51953125,0.0,0,0
1772214074.352534,1772214074.2554393,29.296875,-72.265625,-335.44921875,-119.140625,0.0,0,0
1772214074.352604,1772214074.259336,-274.90234375,-78.125,-367.1875,-220.21484375,0.0,0,0
1772214074.3526511,1772214074.2632325,-274.90234375,-35.64453125,-171.875,-74.70703125,0.0,0,0
1772214074.3526988,1772214074.267129,174.8046875,-7.8125,-20.01953125,106.93359375,0.0,0,0
1772214074.3527281,1772214074.2710254,350.09765625,-29.296875,-129.39453125,95.703125,0.0,0,0
1772214074.352776,1772214074.274922,90.8203125,-79.1015625,-297.36328125,-85.9375,0.0,0,0
1772214074.352819,1772214074.2788186,-243.65234375,-80.078125,-330.078125,-217.28515625,0.0,0,0
1772214074.352847,1772214074.282715,-335.44921875,-19.04296875,-159.1796875,-104.4921875,0.0,0,0
1772214074.352872,1772214074.2866116,119.140625,16.11328125,31.73828125,107.421875,0.0,0,0
1772214074.353813,1772214074.290605,371.58203125,-20.01953125,0.9765625,132.8125,0.0,0,0
1772214074.353875,1772214074.2945018,153.3203125,-69.82421875,-180.17578125,-64.453125,0.0,0,0
1772214074.3539011,1772214074.2983983,-242.67578125,-84.9609375,-268.06640625,-234.86328125,0.0,0,0
1772214074.353927,1772214074.3022947,-360.3515625,-55.17578125,-119.140625,-147.4609375,0.0,0,0
1772214074.353952,1772214074.3061912,47.36328125,-9.765625,32.71484375,67.87109375,0.0,0,0
1772214074.353975,1772214074.310088,333.0078125,-1.953125,15.13671875,122.55859375,0.0,0,0
1772214074.3539999,1772214074.3139844,194.3359375,-59.08203125,-93.75,-36.62109375,0.0,0,0
1772214074.354023,1772214074.3178809,-228.515625,-98.14453125,-181.15234375,-204.1015625,0.0,0,0
1772214074.354048,1772214074.3217776,-372.55859375,-58.10546875,-118.1640625,-154.78515625,0.0,0,0
1772214074.354072,1772214074.325674,-22.4609375,-10.25390625,45.41015625,49.8046875,0.0,0,0
1772214074.3540952,1772214074.3295705,312.5,-8.30078125,36.1328125,145.5078125,0.0,0,0
1772214074.3541188,1772214074.333467,306.640625,-51.26953125,-137.6953125,21.97265625,0.0,0,0
1772214074.4111922,1772214074.3374326,-173.33984375,-59.5703125,-259.765625,-181.640625,0.0,0,0
1772214074.4113688,1772214074.341329,-414.55078125,-37.109375,-223.6328125,-196.77734375,0.0,0,0
1772214074.4114292,1772214074.3452256,-75.1953125,-10.25390625,-39.55078125,8.7890625,0.0,0,0
1772214074.411492,1772214074.3491223,289.0625,4.8828125,15.13671875,134.765625,0.0,0,0
1772214074.4115462,1772214074.3530188,266.11328125,-48.828125,-155.76171875,9.765625,0.0,0,0
1772214074.4115992,1772214074.3569152,-192.87109375,-79.1015625,-248.046875,-185.05859375,0.0,0,0
1772214074.411652,1772214074.360812,-384.27734375,-43.9453125,-175.29296875,-201.171875,0.0,0,0
1772214074.411703,1772214074.3647084,-143.06640625,-27.83203125,-22.94921875,-0.9765625,0.0,0,0
