timestamp,lsl_timestamp,TP9,AF7,AF8,TP10,Right AUX,keypress_A,keypress_B
1772276383.8005838,1772276383.7179613,-748.53515625,-181.640625,-91.796875,-457.51953125,0.0,0,0
1772276383.801034,1772276383.721852,55.17578125,148.4375,-22.94921875,-20.01953125,0.0,0,0
1772276383.801124,1772276383.7257428,562.5,222.16796875,15.625,308.10546875,0.0,0,0
1772276383.801151,1772276383.7296336,318.359375,121.58203125,8.30078125,263.18359375,0.0,0,0
1772276383.801177,1772276383.7335243,-518.5546875,-39.0625,-67.87109375,-250.0,0.0,0,0
1772276383.8012018,1772276383.737415,-766.11328125,-14.16015625,-93.75,-468.26171875,0.0,0,0
1772276383.801227,1772276383.7413058,-89.84375,228.515625,-35.64453125,-77.63671875,0.0,0,0
1772276383.8012521,1772276383.7451963,615.72265625,293.45703125,7.8125,316.40625,0.0,0,0
1772276383.801277,1772276383.749087,632.8125,168.9453125,8.7890625,297.36328125,0.0,0,0
1772276383.801301,1772276383.7529778,-288.57421875,4.8828125,-44.43359375,-217.28515625,0.0,0,0
1772276383.801326,1772276383.7568686,-744.140625,69.82421875,-67.87109375,-446.77734375,0.0,0,0
1772276383.8013499,1772276383.7607594,-254.39453125,273.92578125,-16.11328125,-147.4609375,0.0,0,0
1772276383.84643,1772276383.7648618,507.32421875,333.49609375,54.19921875,278.3203125,0.0,0,0
1772276383.846554,1772276383.7687526,580.56640625,237.79296875,46.38671875,325.1953125,0.0,0,0
1772276383.846588,1772276383.7726433,-282.71484375,23.4375,-56.15234375,-197.265625,0.0,0,0
1772276383.8466141,1772276383.776534,-704.1015625,-33.69140625,-90.8203125,-480.46875,0.0,0,0
1772276383.8466408,1772276383.7804248,-353.515625,102.05078125,-33.69140625,-229.98046875,0.0,0,0
1772276383.846666,1772276383.7843156,341.796875,245.1171875,41.50390625,240.72265625,0.0,0,0
1772276383.84669,1772276383.7882063,421.875,225.5859375,39.0625,344.23828125,0.0,0,0
1772276383.846714,1772276383.792097,-405.76171875,-9.765625,-48.828125,-146.484375,0.0,0,0
1772276383.8467379,1772276383.7959878,-874.51171875,-98.6328125,-73.2421875,-482.91015625,0.0,0,0
1772276383.846762,1772276383.7998786,-569.82421875,-10.25390625,-33.69140625,-286.62109375,0.0,0,0
1772276383.846786,1772276383.8037694,243.65234375,119.140625,25.87890625,214.84375,0.0,0,0
1772276383.84681,1772276383.80766,499.51171875,136.23046875,55.6640625,350.5859375,0.0,0,0
1772276383.890622,1772276383.8117473,-171.875,6.34765625,0.48828125,-79.1015625,0.0,0,0
1772276383.8907142,1772276383.815638,-757.32421875,-53.7109375,-76.171875,-464.35546875,0.0,0,0
1772276383.890746,1772276383.8195288,-593.75,4.39453125,-57.12890625,-387.6953125,0.0,0,0
1772276383.890774,1772276383.8234198,215.8203125,157.2265625,35.15625,120.1171875,0.0,0,0
1772276383.890799,1772276383.8273106,436.03515625,162.109375,60.05859375,295.8984375,0.0,0,0
1772276383.8908749,1772276383.8312013,-121.09375,-59.08203125,-8.30078125,-31.25,0.0,0,0
1772276383.890904,1772276383.835092,-702.1484375,-221.6796875,-89.84375,-436.03515625,0.0,0,0
1772276383.890978,1772276383.8389828,-641.6015625,-167.48046875,-84.9609375,-436.5234375,0.0,0,0
1772276383.8911061,1772276383.8428738,209.9609375,-28.3203125,-12.6953125,66.40625,0.0,0,0
1772276383.891189,1772276383.8467646,542.96875,38.57421875,1.953125,284.66796875,0.0,0,0
1772276383.891237,1772276383.8506553,172.8515625,-15.625,-36.1328125,55.17578125,0.0,0,0
1772276383.89127,1772276383.854546,-534.1796875,-130.37109375,-88.8671875,-401.85546875,0.0,0,0
1772276383.936314,1772276383.8586235,-632.32421875,-49.31640625,-74.70703125,-454.1015625,0.0,0,0
1772276383.9364018,1772276383.8625143,246.58203125,152.83203125,-2.9296875,69.82421875,0.0,0,0
1772276383.9364312,1772276383.866405,679.6875,148.4375,21.484375,331.0546875,0.0,0,0
1772276383.936498,1772276383.870296,401.3671875,21.97265625,-5.859375,184.08203125,0.0,0,0
1772276383.9365828,1772276383.8741868,-434.08203125,-102.5390625,-94.23828125,-298.33984375,0.0,0,0
1772276383.936645,1772276383.8780775,-657.2265625,41.9921875,-120.60546875,-423.828125,0.0,0,0
1772276383.936676,1772276383.8819683,140.625,308.10546875,-36.62109375,78.61328125,0.0,0,0
1772276383.93676,1772276383.8858593,632.8125,278.3203125,10.7421875,387.20703125,0.0,0,0
1772276383.9368188,1772276383.88975,425.78125,94.23828125,-15.625,285.64453125,0.0,0,0
1772276383.936844,1772276383.8936408,-429.6875,-158.203125,-97.65625,-229.00390625,0.0,0,0
1772276383.936884,1772276383.8975317,-703.61328125,-170.8984375,-104.00390625,-406.25,0.0,0,0
1772276383.936936,1772276383.9014225,1.953125,64.94140625,-37.109375,16.6015625,0.0,0,0
1772276383.9836092,1772276383.9055138,588.8671875,133.7890625,-3.90625,351.07421875,0.0,0,0
1772276383.983684,1772276383.9094048,497.0703125,87.40234375,-9.765625,336.9140625,0.0,0,0
1772276383.983712,1772276383.9132955,-337.40234375,-21.484375,-90.8203125,-189.453125,0.0,0,0
1772276383.9837382,1772276383.9171865,-650.87890625,-10.25390625,-100.5859375,-419.43359375,0.0,0,0
1772276383.983805,1772276383.9210773,-11.23046875,177.734375,-28.80859375,-34.66796875,0.0,0,0
1772276383.9838321,1772276383.9249682,650.390625,236.328125,6.8359375,360.83984375,0.0,0,0
1772276383.983857,1772276383.928859,636.23046875,172.8515625,-5.859375,343.75,0.0,0,0
1772276383.983886,1772276383.93275,-213.37890625,-35.64453125,-95.21484375,-192.3828125,0.0,0,0
1772276383.9839098,1772276383.9366407,-580.078125,-93.75,-111.328125,-427.734375,0.0,0,0
1772276383.983934,1772276383.9405315,-114.74609375,134.765625,-41.9921875,-139.6484375,0.0,0,0
1772276383.983958,1772276383.9444225,562.5,317.3828125,12.20703125,279.78515625,0.0,0,0
1772276383.9839811,1772276383.9483132,633.7890625,228.02734375,7.32421875,371.58203125,0.0,0,0
1772276384.025912,1772276383.952365,-285.64453125,-57.12890625,-79.58984375,-79.58984375,0.0,0,0
1772276384.025973,1772276383.956256,-773.92578125,-116.2109375,-125.9765625,-404.296875,0.0,0,0
1772276384.0259929,1772276383.9601467,-325.68359375,-9.765625,-93.75,-224.12109375,0.0,0,0
1772276384.026012,1772276383.9640377,497.0703125,58.59375,-14.16015625,264.6484375,0.0,0,0
1772276384.0260422,1772276383.9679284,676.26953125,10.25390625,8.30078125,379.39453125,0.0,0,0
1772276384.0261161,1772276383.9718194,-73.73046875,-185.546875,-71.2890625,-104.00390625,0.0,0,0
1772276384.026158,1772276383.9757102,-633.30078125,-295.41015625,-131.8359375,-470.21484375,0.0,0,0
1772276384.02618,1772276383.9796011,-366.69921875,-239.74609375,-118.1640625,-329.1015625,0.0,0,0
1772276384.026198,1772276383.9834921,447.265625,-94.23828125,-42.96875,159.1796875,0.0,0,0
1772276384.026216,1772276383.987383,669.921875,-77.1484375,-11.23046875,331.54296875,0.0,0,0
1772276384.0262542,1772276383.9912739,3.90625,-228.02734375,-72.265625,-37.59765625,0.0,0,0
1772276384.0263171,1772276383.9951646,-649.4140625,-318.84765625,-123.046875,-447.265625,0.0,0,0
1772276384.0726242,1772276383.999205,-480.95703125,-251.953125,-107.421875,-395.5078125,0.0,0,0
1772276384.0727491,1772276384.003096,373.53515625,27.83203125,-33.203125,123.53515625,0.0,0,0
1772276384.072808,1772276384.006987,596.19140625,176.7578125,9.765625,327.63671875,0.0,0,0
1772276384.0728729,1772276384.010878,84.47265625,80.078125,-45.41015625,31.73828125,0.0,0,0
1772276384.07293,1772276384.0147688,-568.84765625,-41.50390625,-127.9296875,-413.57421875,0.0,0,0
1772276384.072982,1772276384.0186598,-567.3828125,61.5234375,-115.72265625,-435.546875,0.0,0,0
1772276384.0730329,1772276384.0225508,241.2109375,271.484375,-37.59765625,61.03515625,0.0,0,0
1772276384.0730839,1772276384.0264416,558.59375,187.01171875,3.41796875,273.92578125,0.0,0,0
1772276384.0731351,1772276384.0303326,135.25390625,-9.27734375,-20.01953125,78.125,0.0,0,0
1772276384.073184,1772276384.0342236,-635.25390625,-181.15234375,-99.609375,-407.71484375,0.0,0,0
1772276384.073235,1772276384.0381143,-752.9296875,-185.05859375,-108.3984375,-514.6484375,0.0,0,0
1772276384.0732858,1772276384.0420053,69.3359375,-21.484375,-24.90234375,2.44140625,0.0,0,0
1772276384.128608,1772276384.046035,535.64453125,13.18359375,3.41796875,295.41015625,0.0,0,0
1772276384.128652,1772276384.0499258,282.2265625,-137.6953125,-23.92578125,149.4140625,0.0,0,0
1772276384.1286662,1772276384.0538168,-512.20703125,-337.40234375,-84.9609375,-366.69921875,0.0,0,0
1772276384.12892,1772276384.0577078,-711.9140625,-257.8125,-110.3515625,-531.25,0.0,0,0
1772276384.1289349,1772276384.0615988,64.94140625,-31.73828125,-38.0859375,-90.33203125,0.0,0,0
1772276384.1289458,1772276384.0654898,579.58984375,-3.41796875,18.5546875,260.25390625,0.0,0,0
1772276384.128957,1772276384.0693805,433.59375,-108.88671875,-17.578125,213.8671875,0.0,0,0
1772276384.128968,1772276384.0732715,-385.25390625,-277.34375,-103.515625,-316.89453125,0.0,0,0
1772276384.128979,1772276384.0771625,-700.68359375,-249.51171875,-107.91015625,-577.63671875,0.0,0,0
1772276384.1290472,1772276384.0810535,-81.0546875,-44.921875,-34.66796875,-189.94140625,0.0,0,0
1772276384.129132,1772276384.0849442,467.28515625,39.0625,14.6484375,207.03125,0.0,0,0
1772276384.129146,1772276384.0888352,328.125,-40.0390625,6.8359375,188.96484375,0.0,0,0
1772276384.173866,1772276384.0928931,-506.8359375,-227.5390625,-79.1015625,-312.98828125,0.0,0,0
1772276384.1739242,1772276384.096784,-783.203125,-214.35546875,-104.98046875,-521.484375,0.0,0,0
1772276384.1739478,1772276384.100675,-201.171875,-89.84375,-56.15234375,-195.3125,0.0,0,0
1772276384.1739678,1772276384.104566,563.96484375,-47.36328125,-9.27734375,248.53515625,0.0,0,0
1772276384.173989,1772276384.108457,632.32421875,-59.08203125,2.44140625,314.453125,0.0,0,0
1772276384.174009,1772276384.112348,-232.421875,-220.21484375,-73.2421875,-191.40625,0.0,0,0
1772276384.174028,1772276384.116239,-689.453125,-248.046875,-114.2578125,-480.95703125,0.0,0,0
1772276384.1740491,1772276384.12013,-298.828125,-117.67578125,-74.70703125,-261.71875,0.0,0,0
1772276384.174069,1772276384.124021,506.34765625,36.1328125,-6.8359375,225.5859375,0.0,0,0
1772276384.174089,1772276384.1279118,617.1875,38.57421875,10.25390625,329.58984375,0.0,0,0
1772276384.174109,1772276384.1318028,-172.36328125,-150.390625,-64.453125,-149.90234375,0.0,0,0
1772276384.174128,1772276384.1356938,-552.24609375,-172.36328125,-123.53515625,-455.078125,0.0,0,0
1772276384.221468,1772276384.1397898,-312.98828125,-48.828125,-82.03125,-295.8984375,0.0,0,0
1772276384.2215512,1772276384.1436808,379.8828125,112.3046875,-1.46484375,147.4609375,0.0,0,0
1772276384.221578,1772276384.1475718,590.8203125,111.81640625,-9.27734375,259.27734375,0.0,0,0
1772276384.2216058,1772276384.1514628,-131.34765625,-117.67578125,-76.66015625,-162.109375,0.0,0,0
1772276384.221631,1772276384.1553538,-723.14453125,-204.1015625,-99.609375,-531.73828125,0.0,0,0
1772276384.2216551,1772276384.1592448,-533.69140625,-107.91015625,-75.68359375,-423.33984375,0.0,0,0
1772276384.2216792,1772276384.1631358,263.18359375,16.11328125,-11.71875,73.73046875,0.0,0,0
1772276384.2217422,1772276384.1670268,483.88671875,-11.71875,15.13671875,268.06640625,0.0,0,0
1772276384.221785,1772276384.1709177,-23.4375,-181.15234375,-55.17578125,-42.96875,0.0,0,0
1772276384.221827,1772276384.1748087,-647.4609375,-258.7890625,-127.44140625,-467.28515625,0.0,0,0
1772276384.221855,1772276384.1786997,-592.28515625,-164.55078125,-115.72265625,-443.359375,0.0,0,0
1772276384.221879,1772276384.1825907,294.43359375,37.109375,-35.15625,61.03515625,0.0,0,0
1772276384.2658901,1772276384.1866765,649.4140625,38.57421875,-2.9296875,260.7421875,0.0,0,0
1772276384.2659981,1772276384.1905677,275.390625,-152.34375,-25.390625,29.296875,0.0,0,0
1772276384.266051,1772276384.1944587,-498.046875,-294.921875,-90.8203125,-424.31640625,0.0,0,0
1772276384.26611,1772276384.1983497,-583.984375,-207.51953125,-102.5390625,-501.953125,0.0,0,0
1772276384.266138,1772276384.2022407,297.8515625,13.671875,-18.06640625,2.9296875,0.0,0,0
1772276384.2661629,1772276384.2061317,617.1875,35.15625,23.92578125,278.3203125,0.0,0,0
1772276384.266187,1772276384.2100227,215.33203125,-86.42578125,-13.671875,128.41796875,0.0,0,0
1772276384.266212,1772276384.213914,-568.84765625,-237.79296875,-99.12109375,-394.53125,0.0,0,0
1772276384.266304,1772276384.217805,-731.93359375,-205.078125,-95.703125,-526.3671875,0.0,0,0
1772276384.266368,1772276384.221696,61.03515625,15.625,-2.9296875,-3.90625,0.0,0,0
1772276384.266409,1772276384.225587,624.0234375,41.9921875,26.3671875,306.640625,0.0,0,0
1772276384.26646,1772276384.229478,467.7734375,-91.796875,4.8828125,202.63671875,0.0,0,0
1772276384.3528042,1772276384.233725,-385.25390625,-280.76171875,-53.22265625,-301.7578125,0.0,0,0
1772276384.3528728,1772276384.2376163,-658.203125,-282.71484375,-71.77734375,-488.76953125,0.0,0,0
1772276384.352895,1772276384.2415073,69.3359375,-38.0859375,-21.484375,-74.70703125,0.0,0,0
1772276384.3529139,1772276384.2453983,638.671875,81.0546875,17.578125,281.25,0.0,0,0
1772276384.3529322,1772276384.2492895,549.31640625,-27.34375,6.34765625,230.46875,0.0,0,0
1772276384.352951,1772276384.2531805,-287.109375,-237.3046875,-76.171875,-271.97265625,0.0,0,0
1772276384.352968,1772276384.2570717,-726.07421875,-251.46484375,-104.4921875,-464.84375,0.0,0,0
1772276384.352988,1772276384.2609627,-230.46875,-71.2890625,-34.1796875,-97.65625,0.0,0,0
1772276384.353,1772276384.264854,462.890625,37.59765625,42.48046875,329.1015625,0.0,0,0
1772276384.35301,1772276384.268745,418.9453125,-28.3203125,48.33984375,351.5625,0.0,0,0
1772276384.353056,1772276384.272636,-467.7734375,-238.28125,-44.921875,-192.3828125,0.0,0,0
1772276384.353069,1772276384.2765272,-801.26953125,-220.703125,-88.8671875,-444.3359375,0.0,0,0
1772276384.355364,1772276384.280593,-354.4921875,-36.62109375,-47.8515625,-141.11328125,0.0,0,0
1772276384.355398,1772276384.2844841,399.90234375,58.59375,2.9296875,295.41015625,0.0,0,0
1772276384.355412,1772276384.2883751,574.21875,-1.46484375,9.765625,358.3984375,0.0,0,0
1772276384.355422,1772276384.2922664,-214.84375,-212.40234375,-57.12890625,-117.67578125,0.0,0,0
1772276384.355433,1772276384.2961574,-724.609375,-196.2890625,-95.21484375,-417.96875,0.0,0,0
1772276384.355444,1772276384.3000486,-444.3359375,29.296875,-74.70703125,-253.41796875,0.0,0,0
1772276384.355454,1772276384.3039396,318.359375,184.08203125,6.8359375,198.73046875,0.0,0,0
1772276384.355466,1772276384.3078308,582.03125,128.41796875,24.4140625,347.16796875,0.0,0,0
1772276384.355477,1772276384.3117218,-138.18359375,-84.9609375,-67.3828125,-93.26171875,0.0,0,0
1772276384.355488,1772276384.315613,-731.93359375,-112.3046875,-104.98046875,-450.68359375,0.0,0,0
1772276384.355499,1772276384.319504,-491.69921875,5.859375,-70.3125,-287.109375,0.0,0,0
1772276384.355509,1772276384.3233953,342.28515625,133.30078125,7.8125,229.4921875,0.0,0,0
1772276384.400446,1772276384.3274434,600.5859375,131.8359375,35.64453125,391.6015625,0.0,0,0
1772276384.400494,1772276384.3313346,-1.953125,-60.546875,-24.90234375,34.1796875,0.0,0,0
1772276384.4005141,1772276384.3352258,-671.38671875,-167.96875,-106.93359375,-373.53515625,0.0,0,0
1772276384.400532,1772276384.3391168,-567.87109375,-57.12890625,-114.2578125,-332.51953125,0.0,0,0
1772276384.4005492,1772276384.343008,331.0546875,144.04296875,-22.94921875,176.7578125,0.0,0,0
1772276384.400567,1772276384.3468993,650.390625,145.01953125,14.16015625,379.39453125,0.0,0,0
1772276384.400583,1772276384.3507903,202.63671875,-11.71875,-26.3671875,92.7734375,0.0,0,0
1772276384.4006,1772276384.3546815,-492.1875,-89.35546875,-92.7734375,-380.859375,0.0,0,0
1772276384.400619,1772276384.3585727,-510.7421875,-17.08984375,-86.42578125,-406.73828125,0.0,0,0
1772276384.400637,1772276384.3624637,348.14453125,169.43359375,-1.46484375,107.91015625,0.0,0,0
1772276384.400654,1772276384.366355,714.35546875,203.61328125,22.4609375,342.28515625,0.0,0,0
1772276384.400671,1772276384.3702462,354.4921875,63.4765625,-26.85546875,151.85546875,0.0,0,0
1772276384.4455261,1772276384.3742836,-459.47265625,-104.98046875,-97.16796875,-328.125,0.0,0,0
1772276384.445576,1772276384.3781748,-608.3984375,-62.98828125,-103.02734375,-410.15625,0.0,0,0
1772276384.445597,1772276384.382066,187.01171875,155.2734375,-14.6484375,96.19140625,0.0,0,0
1772276384.445617,1772276384.385957,571.77734375,180.17578125,23.4375,372.0703125,0.0,0,0
1772276384.4456372,1772276384.3898482,264.6484375,68.359375,-11.23046875,230.95703125,0.0,0,0
1772276384.4456599,1772276384.3937395,-534.1796875,-106.93359375,-80.56640625,-296.38671875,0.0,0,0
1772276384.4457548,1772276384.3976307,-715.8203125,-108.88671875,-89.84375,-444.3359375,0.0,0,0
1772276384.445778,1772276384.4015217,23.4375,104.4921875,-26.85546875,36.62109375,0.0,0,0
1772276384.445798,1772276384.405413,603.02734375,190.4296875,7.8125,374.51171875,0.0,0,0
1772276384.445819,1772276384.4093041,424.31640625,113.28125,-3.41796875,302.24609375,0.0,0,0
1772276384.445838,1772276384.4131954,-458.0078125,-64.453125,-73.73046875,-225.09765625,0.0,0,0
1772276384.445858,1772276384.4170864,-710.44921875,-61.03515625,-86.42578125,-443.359375,0.0,0,0
1772276384.4916852,1772276384.4211137,-81.0546875,119.140625,-23.4375,-69.3359375,0.0,0,0
1772276384.491734,1772276384.425005,575.68359375,207.51953125,39.55078125,346.19140625,0.0,0,0
1772276384.491754,1772276384.428896,591.796875,151.3671875,33.69140625,354.98046875,0.0,0,0
1772276384.4917781,1772276384.4327872,-270.5078125,-80.56640625,-56.640625,-176.26953125,0.0,0,0
1772276384.491798,1772276384.4366784,-639.6484375,-106.93359375,-86.42578125,-440.4296875,0.0,0,0
1772276384.49182,1772276384.4405696,-83.0078125,58.59375,-40.0390625,-150.87890625,0.0,0,0
1772276384.49184,1772276384.4444609,612.79296875,137.6953125,19.04296875,282.2265625,0.0,0,0
1772276384.491859,1772276384.448352,672.36328125,91.796875,17.578125,326.171875,0.0,0,0
1772276384.4918778,1772276384.452243,-208.49609375,-131.8359375,-71.77734375,-168.9453125,0.0,0,0
1772276384.491898,1772276384.4561343,-731.93359375,-144.04296875,-105.95703125,-459.47265625,0.0,0,0
1772276384.491918,1772276384.4600255,-360.3515625,30.2734375,-46.875,-229.98046875,0.0,0,0
1772276384.491938,1772276384.4639168,387.6953125,162.59765625,31.73828125,244.140625,0.0,0,0
1772276384.5792892,1772276384.4679346,584.9609375,147.4609375,40.52734375,347.16796875,0.0,0,0
1772276384.5794518,1772276384.4718256,-175.29296875,-56.640625,-49.8046875,-127.44140625,0.0,0,0
1772276384.579499,1772276384.4757168,-705.56640625,-103.02734375,-93.75,-453.61328125,0.0,0,0
1772276384.579539,1772276384.479608,-432.12890625,19.04296875,-46.875,-286.1328125,0.0,0,0
1772276384.5795789,1772276384.4834993,363.76953125,160.15625,27.34375,198.2421875,0.0,0,0
1772276384.579618,1772276384.4873905,637.20703125,156.73828125,51.7578125,355.46875,0.0,0,0
1772276384.579656,1772276384.4912817,-64.453125,-45.41015625,-17.08984375,-30.76171875,0.0,0,0
1772276384.579726,1772276384.495173,-717.28515625,-124.51171875,-72.75390625,-382.8125,0.0,0,0
1772276384.579815,1772276384.4990642,-568.84765625,-17.08984375,-54.19921875,-305.17578125,0.0,0,0
1772276384.579885,1772276384.5029554,208.0078125,135.7421875,7.32421875,186.03515625,0.0,0,0
1772276384.5799282,1772276384.5068467,509.765625,106.4453125,37.109375,387.20703125,0.0,0,0
1772276384.579967,1772276384.510738,-51.7578125,-93.75,-17.08984375,71.77734375,0.0,0,0
1772276384.594563,1772276384.5147579,-738.28125,-204.58984375,-94.7265625,-384.27734375,0.0,0,0
1772276384.594636,1772276384.518649,-672.8515625,-125.0,-91.30859375,-385.25390625,0.0,0,0
1772276384.594663,1772276384.5225403,149.90234375,103.515625,-3.41796875,146.484375,0.0,0,0
1772276384.5946891,1772276384.5264316,498.046875,132.32421875,34.66796875,378.41796875,0.0,0,0
1772276384.594713,1772276384.5303228,107.421875,-11.23046875,-12.20703125,137.6953125,0.0,0,0
1772276384.5947368,1772276384.534214,-616.2109375,-115.72265625,-99.609375,-353.515625,0.0,0,0
1772276384.594761,1772276384.5381052,-701.171875,-85.9375,-104.98046875,-419.43359375,0.0,0,0
1772276384.594784,1772276384.5419965,112.79296875,71.2890625,-20.01953125,100.5859375,0.0,0,0
1772276384.594808,1772276384.5458877,522.4609375,68.84765625,16.6015625,349.12109375,0.0,0,0
1772276384.594831,1772276384.549779,215.8203125,-46.38671875,-22.94921875,182.12890625,0.0,0,0
1772276384.5948548,1772276384.5536702,-556.15234375,-168.45703125,-93.26171875,-308.59375,0.0,0,0
1772276384.59488,1772276384.5575614,-738.76953125,-152.83203125,-90.33203125,-437.98828125,0.0,0,0
1772276384.641691,1772276384.5616422,9.27734375,61.5234375,-20.99609375,47.36328125,0.0,0,0
1772276384.641799,1772276384.5655334,525.87890625,137.6953125,4.39453125,392.08984375,0.0,0,0
1772276384.641845,1772276384.5694246,300.29296875,11.23046875,-12.20703125,319.82421875,0.0,0,0
1772276384.641886,1772276384.5733159,-537.109375,-173.828125,-76.171875,-188.96484375,0.0,0,0
1772276384.6419241,1772276384.5772073,-775.390625,-167.96875,-103.02734375,-389.16015625,0.0,0,0
1772276384.641962,1772276384.5810986,-134.27734375,24.4140625,-40.52734375,7.32421875,0.0,0,0
1772276384.641999,1772276384.5849898,471.19140625,101.5625,13.671875,384.27734375,0.0,0,0
1772276384.642036,1772276384.588881,439.453125,42.96875,18.06640625,359.375,0.0,0,0
1772276384.642072,1772276384.5927722,-387.6953125,-143.06640625,-68.359375,-184.08203125,0.0,0,0
1772276384.6421099,1772276384.5966635,-720.21484375,-163.57421875,-135.7421875,-461.42578125,0.0,0,0
1772276384.642148,1772276384.600555,-172.8515625,35.64453125,-90.33203125,-137.20703125,0.0,0,0
1772276384.642186,1772276384.6044462,491.2109375,141.6015625,-11.71875,321.77734375,0.0,0,0
1772276384.6952908,1772276384.6085868,442.87109375,54.19921875,-6.34765625,358.3984375,0.0,0,0
1772276384.695332,1772276384.612478,-440.4296875,-145.99609375,-96.19140625,-132.32421875,0.0,0,0
1772276384.695345,1772276384.6163692,-796.38671875,-160.64453125,-130.859375,-359.86328125,0.0,0,0
1772276384.6953568,1772276384.6202607,-405.76171875,17.578125,-69.3359375,-99.609375,0.0,0,0
1772276384.695369,1772276384.624152,357.91015625,182.6171875,3.90625,370.60546875,0.0,0,0
1772276384.69538,1772276384.6280432,579.1015625,130.859375,13.18359375,470.703125,0.0,0,0
1772276384.69539,1772276384.6319346,-192.3828125,-125.48828125,-62.98828125,-44.921875,0.0,0,0
1772276384.695401,1772276384.6358259,-695.80078125,-200.1953125,-100.5859375,-378.90625,0.0,0,0
1772276384.695411,1772276384.639717,-378.90625,-35.64453125,-44.43359375,-216.796875,0.0,0,0
1772276384.695422,1772276384.6436086,414.55078125,119.62890625,43.45703125,258.7890625,0.0,0,0
1772276384.695432,1772276384.6474998,599.609375,71.2890625,40.52734375,371.58203125,0.0,0,0
1772276384.695443,1772276384.651391,-128.41796875,-156.25,-49.31640625,-137.6953125,0.0,0,0
1772276384.73024,1772276384.655449,-699.21875,-237.79296875,-98.6328125,-511.71875,0.0,0,0
1772276384.73029,1772276384.6593401,-456.0546875,-87.40234375,-79.58984375,-382.32421875,0.0,0,0
1772276384.730311,1772276384.6632316,390.13671875,108.3984375,4.39453125,117.1875,0.0,0,0
1772276384.730329,1772276384.6671228,670.8984375,92.28515625,41.015625,328.125,0.0,0,0
1772276384.730347,1772276384.6710143,104.00390625,-103.515625,-21.97265625,-11.71875,0.0,0,0
1772276384.7303638,1772276384.6749055,-535.15625,-163.0859375,-88.8671875,-431.15234375,0.0,0,0
1772276384.730381,1772276384.678797,-460.9375,-18.06640625,-95.21484375,-401.3671875,0.0,0,0
1772276384.730398,1772276384.6826882,364.74609375,182.12890625,-22.94921875,60.546875,0.0,0,0
1772276384.730415,1772276384.6865795,661.1328125,170.8984375,2.44140625,268.5546875,0.0,0,0
1772276384.730434,1772276384.690471,193.359375,-8.7890625,-47.36328125,11.23046875,0.0,0,0
1772276384.7304509,1772276384.6943622,-556.15234375,-131.8359375,-94.7265625,-473.6328125,0.0,0,0
1772276384.73047,1772276384.6982536,-563.96484375,-41.015625,-77.1484375,-514.6484375,0.0,0,0
1772276384.77666,1772276384.7023053,333.0078125,171.38671875,2.44140625,10.25390625,0.0,0,0
1772276384.7767308,1772276384.7061965,619.62890625,131.8359375,27.34375,268.5546875,0.0,0,0
1772276384.776761,1772276384.710088,219.23828125,-57.12890625,-13.18359375,88.37890625,0.0,0,0
1772276384.776787,1772276384.7139792,-547.8515625,-223.6328125,-84.9609375,-426.7578125,0.0,0,0
1772276384.776814,1772276384.7178707,-710.9375,-194.82421875,-90.8203125,-556.640625,0.0,0,0
1772276384.77684,1772276384.721762,91.30859375,13.18359375,-12.6953125,-73.73046875,0.0,0,0
1772276384.776908,1772276384.7256534,523.92578125,-2.44140625,20.5078125,222.65625,0.0,0,0
1772276384.776962,1772276384.7295449,254.39453125,-123.046875,-15.13671875,132.32421875,0.0,0,0
1772276384.7769961,1772276384.733436,-510.25390625,-267.578125,-88.8671875,-345.703125,0.0,0,0
1772276384.777157,1772276384.7373276,-713.37890625,-256.34765625,-109.86328125,-517.578125,0.0,0,0
1772276384.777208,1772276384.7412188,-34.1796875,-26.85546875,-35.64453125,-72.265625,0.0,0,0
1772276384.777236,1772276384.7451103,511.23046875,29.296875,15.625,293.9453125,0.0,0,0
1772276384.8204129,1772276384.7491465,427.734375,-63.4765625,3.90625,244.62890625,0.0,0,0
1772276384.820461,1772276384.753038,-397.94921875,-238.76953125,-71.77734375,-276.3671875,0.0,0,0
1772276384.820478,1772276384.7569294,-700.1953125,-247.55859375,-102.5390625,-488.76953125,0.0,0,0
1772276384.820493,1772276384.7608206,-115.234375,-69.3359375,-27.83203125,-99.609375,0.0,0,0
1772276384.820506,1772276384.764712,502.9296875,-11.71875,49.8046875,313.96484375,0.0,0,0
1772276384.8205209,1772276384.7686036,474.12109375,-48.828125,48.33984375,300.78125,0.0,0,0
1772276384.820535,1772276384.7724948,-392.08984375,-173.828125,-53.22265625,-241.69921875,0.0,0,0
1772276384.820548,1772276384.7763863,-756.34765625,-167.96875,-84.47265625,-466.796875,0.0,0,0
1772276384.820561,1772276384.7802777,-327.63671875,-12.6953125,-12.20703125,-145.99609375,0.0,0,0
1772276384.820574,1772276384.784169,281.73828125,78.125,53.7109375,302.24609375,0.0,0,0
1772276384.820586,1772276384.7880604,397.94921875,45.8984375,45.41015625,366.69921875,0.0,0,0
1772276384.820599,1772276384.7919517,-334.9609375,-122.55859375,-45.8984375,-130.37109375,0.0,0,0
1772276384.86524,1772276384.795977,-741.69921875,-120.60546875,-89.84375,-438.4765625,0.0,0,0
1772276384.8652842,1772276384.7998683,-332.03125,41.50390625,-56.15234375,-246.09375,0.0,0,0
1772276384.865299,1772276384.8037598,436.03515625,138.671875,19.04296875,232.91015625,0.0,0,0
1772276384.865313,1772276384.8076513,621.58203125,56.15234375,29.78515625,380.859375,0.0,0,0
1772276384.8653271,1772276384.8115425,-181.15234375,-169.43359375,-56.15234375,-80.56640625,0.0,0,0
1772276384.8653388,1772276384.815434,-758.7890625,-188.4765625,-92.7734375,-419.43359375,0.0,0,0
1772276384.865352,1772276384.8193254,-476.07421875,4.8828125,-67.3828125,-268.06640625,0.0,0,0
1772276384.865365,1772276384.823217,329.58984375,205.078125,3.41796875,192.87109375,0.0,0,0
1772276384.8653781,1772276384.8271081,494.62890625,188.96484375,22.4609375,331.0546875,0.0,0,0
1772276384.865391,1772276384.8309996,-180.6640625,-14.16015625,-46.875,-51.26953125,0.0,0,0
1772276384.865403,1772276384.834891,-734.86328125,-114.74609375,-103.02734375,-457.03125,0.0,0,0
1772276384.865437,1772276384.8387825,-529.78515625,-31.25,-72.265625,-371.09375,0.0,0,0
1772276384.924852,1772276384.8428082,301.26953125,122.0703125,15.13671875,155.76171875,0.0,0,0
1772276384.924886,1772276384.8466997,535.64453125,115.72265625,32.71484375,360.3515625,0.0,0,0
1772276384.924897,1772276384.8505912,23.92578125,-66.89453125,-24.4140625,76.171875,0.0,0,0
1772276384.924906,1772276384.8544827,-653.80859375,-170.8984375,-93.75,-390.13671875,0.0,0,0
1772276384.924916,1772276384.858374,-658.203125,-59.08203125,-82.51953125,-389.6484375,0.0,0,0
1772276384.924924,1772276384.8622656,181.640625,125.48828125,-7.32421875,134.765625,0.0,0,0
1772276384.9249332,1772276384.8661568,516.6015625,102.5390625,7.32421875,366.2109375,0.0,0,0
1772276384.924941,1772276384.8700483,125.9765625,-51.26953125,-17.08984375,151.3671875,0.0,0,0
1772276384.9249501,1772276384.8739398,-606.93359375,-162.109375,-81.54296875,-348.6328125,0.0,0,0
1772276384.924958,1772276384.8778312,-653.80859375,-86.9140625,-77.63671875,-408.203125,0.0,0,0
1772276384.9249668,1772276384.8817227,190.4296875,122.0703125,9.765625,109.375,0.0,0,0
1772276384.924976,1772276384.885614,626.953125,149.4140625,35.64453125,382.8125,0.0,0,0
1772276384.970062,1772276384.8897023,389.16015625,11.23046875,12.20703125,232.91015625,0.0,0,0
1772276384.970094,1772276384.8935938,-441.40625,-155.2734375,-71.2890625,-306.15234375,0.0,0,0
1772276384.9701052,1772276384.8974853,-669.921875,-99.609375,-87.890625,-456.54296875,0.0,0,0
1772276384.970114,1772276384.9013767,98.14453125,105.46875,-6.34765625,29.296875,0.0,0,0
1772276384.970123,1772276384.9052682,596.6796875,108.3984375,29.78515625,377.44140625,0.0,0,0
1772276384.9701319,1772276384.9091597,423.33984375,36.62109375,10.25390625,275.390625,0.0,0,0
1772276384.97014,1772276384.9130511,-385.7421875,-82.03125,-70.3125,-262.20703125,0.0,0,0
1772276384.970149,1772276384.9169426,-631.8359375,-78.61328125,-104.00390625,-430.17578125,0.0,0,0
1772276384.970158,1772276384.920834,53.7109375,114.74609375,-37.109375,-2.44140625,0.0,0,0
1772276384.970166,1772276384.9247255,614.74609375,157.2265625,27.34375,390.625,0.0,0,0
1772276384.970175,1772276384.928617,512.6953125,50.78125,13.671875,371.58203125,0.0,0,0
1772276384.970183,1772276384.9325085,-327.63671875,-144.53125,-78.61328125,-166.015625,0.0,0,0
1772276385.015088,1772276384.9365857,-711.42578125,-161.62109375,-113.28125,-418.9453125,0.0,0,0
1772276385.015115,1772276384.9404771,-197.75390625,23.4375,-58.59375,-89.84375,0.0,0,0
1772276385.015125,1772276384.9443686,487.3046875,107.91015625,13.671875,339.35546875,0.0,0,0
1772276385.015133,1772276384.94826,548.33984375,1.46484375,22.94921875,378.90625,0.0,0,0
1772276385.015142,1772276384.9521515,-268.06640625,-238.28125,-54.6875,-143.06640625,0.0,0,0
1772276385.015151,1772276384.9560432,-650.390625,-258.7890625,-93.75,-439.453125,0.0,0,0
1772276385.01516,1772276384.9599347,-172.36328125,-126.46484375,-53.7109375,-199.21875,0.0,0,0
1772276385.015168,1772276384.9638262,554.19921875,-23.4375,13.671875,267.578125,0.0,0,0
1772276385.0151758,1772276384.9677176,696.77734375,-32.71484375,10.7421875,360.83984375,0.0,0,0
1772276385.0151849,1772276384.971609,-31.25,-219.7265625,-77.63671875,-120.1171875,0.0,0,0
1772276385.015193,1772276384.9755006,-572.75390625,-268.5546875,-120.1171875,-430.6640625,0.0,0,0
1772276385.015202,1772276384.979392,-272.4609375,-144.04296875,-84.47265625,-248.53515625,0.0,0,0
1772276385.060603,1772276384.9834585,535.15625,26.85546875,-6.8359375,255.37109375,0.0,0,0
1772276385.060641,1772276384.98735,728.02734375,40.52734375,14.6484375,400.390625,0.0,0,0
1772276385.060655,1772276384.9912417,10.25390625,-164.55078125,-45.8984375,-45.41015625,0.0,0,0
1772276385.0606668,1772276384.9951332,-565.4296875,-234.86328125,-108.88671875,-428.22265625,0.0,0,0
1772276385.060678,1772276384.9990246,-363.76953125,-82.03125,-100.5859375,-285.64453125,0.0,0,0
1772276385.06069,1772276385.002916,401.85546875,104.4921875,-8.30078125,209.47265625,0.0,0,0
1772276385.060701,1772276385.0068076,669.921875,84.9609375,28.3203125,364.2578125,0.0,0,0
1772276385.060711,1772276385.0106993,114.2578125,-85.9375,-37.109375,27.83203125,0.0,0,0
1772276385.0607219,1772276385.0145907,-588.37890625,-128.90625,-105.46875,-414.55078125,0.0,0,0
1772276385.060732,1772276385.0184822,-546.38671875,-70.3125,-96.19140625,-386.23046875,0.0,0,0
1772276385.0607429,1772276385.0223737,269.04296875,69.3359375,-0.48828125,141.6015625,0.0,0,0
1772276385.0607529,1772276385.0262651,520.01953125,71.77734375,22.4609375,333.49609375,0.0,0,0
1772276385.148433,1772276385.0303278,104.98046875,-76.171875,-52.734375,71.2890625,0.0,0,0
1772276385.149031,1772276385.0342195,-597.16796875,-219.23828125,-118.65234375,-412.59765625,0.0,0,0
1772276385.149168,1772276385.038111,-718.26171875,-179.6875,-108.3984375,-470.703125,0.0,0,0
1772276385.149227,1772276385.0420024,131.34765625,33.203125,-31.73828125,54.6875,0.0,0,0
1772276385.149322,1772276385.0458941,568.359375,44.43359375,2.9296875,300.29296875,0.0,0,0
1772276385.149333,1772276385.0497856,228.515625,-76.171875,-19.53125,127.44140625,0.0,0,0
1772276385.14939,1772276385.053677,-560.546875,-180.6640625,-103.02734375,-349.12109375,0.0,0,0
1772276385.1494012,1772276385.0575686,-701.171875,-125.0,-115.234375,-446.77734375,0.0,0,0
1772276385.149537,1772276385.0614603,107.91015625,52.734375,-20.01953125,37.59765625,0.0,0,0
1772276385.14955,1772276385.0653517,608.88671875,104.98046875,19.53125,334.9609375,0.0,0,0
1772276385.149647,1772276385.0692432,384.27734375,50.78125,-9.27734375,236.81640625,0.0,0,0
1772276385.149676,1772276385.073135,-458.984375,-141.6015625,-97.65625,-298.828125,0.0,0,0
1772276385.150181,1772276385.0771906,-678.22265625,-187.01171875,-114.2578125,-487.3046875,0.0,0,0
1772276385.150203,1772276385.081082,53.22265625,17.578125,-34.66796875,-15.13671875,0.0,0,0
1772276385.150213,1772276385.0849738,560.546875,73.73046875,0.48828125,334.9609375,0.0,0,0
1772276385.150223,1772276385.0888653,407.71484375,-19.53125,-11.71875,250.48828125,0.0,0,0
1772276385.150232,1772276385.0927567,-444.3359375,-189.453125,-79.1015625,-268.06640625,0.0,0,0
1772276385.1502411,1772276385.0966485,-729.4921875,-219.23828125,-109.86328125,-479.4921875,0.0,0,0
1772276385.15025,1772276385.10054,-124.51171875,-97.16796875,-60.05859375,-109.86328125,0.0,0,0
1772276385.1502578,1772276385.1044316,504.39453125,-58.59375,-1.953125,321.2890625,0.0,0,0
1772276385.150267,1772276385.108323,487.3046875,-126.953125,-2.44140625,352.5390625,0.0,0,0
1772276385.150294,1772276385.1122148,-364.2578125,-304.19921875,-94.23828125,-181.15234375,0.0,0,0
1772276385.150304,1772276385.1161063,-715.33203125,-298.33984375,-127.44140625,-468.75,0.0,0,0
1772276385.1503308,1772276385.1199977,-209.9609375,-101.5625,-62.01171875,-182.12890625,0.0,0,0
1772276385.195742,1772276385.1240323,544.921875,68.84765625,6.8359375,285.15625,0.0,0,0
1772276385.19578,1772276385.1279237,636.23046875,50.29296875,11.71875,372.0703125,0.0,0,0
1772276385.1957939,1772276385.1318154,-222.65625,-184.08203125,-74.70703125,-144.53125,0.0,0,0
1772276385.195806,1772276385.135707,-690.4296875,-234.86328125,-117.1875,-445.80078125,0.0,0,0
1772276385.195817,1772276385.1395986,-313.96484375,-104.98046875,-87.40234375,-241.69921875,0.0,0,0
1772276385.195828,1772276385.14349,444.3359375,28.80859375,-22.4609375,224.609375,0.0,0,0
1772276385.195838,1772276385.1473818,629.39453125,-1.953125,3.41796875,367.1875,0.0,0,0
1772276385.195849,1772276385.1512735,-59.5703125,-198.73046875,-62.5,-78.61328125,0.0,0,0
1772276385.195859,1772276385.155165,-616.2109375,-228.02734375,-106.93359375,-438.4765625,0.0,0,0
1772276385.19587,1772276385.1590567,-388.18359375,-125.0,-89.84375,-304.6875,0.0,0,0
1772276385.19588,1772276385.1629481,439.94140625,10.7421875,-20.99609375,201.171875,0.0,0,0
1772276385.195891,1772276385.1668398,677.24609375,-38.57421875,7.32421875,378.90625,0.0,0,0
1772276385.240306,1772276385.1708639,53.7109375,-268.06640625,-70.80078125,-15.13671875,0.0,0,0
1772276385.240345,1772276385.1747556,-594.23828125,-366.69921875,-131.8359375,-444.82421875,0.0,0,0
1772276385.240362,1772276385.178647,-410.15625,-277.34375,-98.14453125,-379.39453125,0.0,0,0
1772276385.240376,1772276385.1825387,458.984375,-92.28515625,-21.97265625,146.97265625,0.0,0,0
1772276385.240389,1772276385.1864302,710.9375,-85.9375,-11.71875,335.44921875,0.0,0,0
1772276385.240404,1772276385.190322,184.08203125,-219.7265625,-51.7578125,31.25,0.0,0,0
1772276385.240417,1772276385.1942136,-559.08203125,-277.34375,-109.86328125,-422.8515625,0.0,0,0
1772276385.24043,1772276385.198105,-552.734375,-165.52734375,-100.09765625,-421.38671875,0.0,0,0
1772276385.240443,1772276385.2019968,300.78125,75.68359375,6.34765625,131.8359375,0.0,0,0
1772276385.240457,1772276385.2058883,682.12890625,84.9609375,41.50390625,355.46875,0.0,0,0
1772276385.24047,1772276385.20978,307.6171875,-116.2109375,-6.34765625,106.4453125,0.0,0,0
1772276385.240483,1772276385.2136717,-501.953125,-252.44140625,-88.8671875,-392.578125,0.0,0,0
1772276385.299079,1772276385.217684,-641.6015625,-150.390625,-91.796875,-455.078125,0.0,0,0
1772276385.2991219,1772276385.2215757,158.203125,97.65625,4.39453125,65.91796875,0.0,0,0
1772276385.2991428,1772276385.2254672,573.73046875,120.60546875,29.78515625,332.51953125,0.0,0,0
1772276385.2991629,1772276385.229359,240.72265625,-7.32421875,-3.90625,177.734375,0.0,0,0
1772276385.299181,1772276385.2332506,-582.51953125,-145.01953125,-86.9140625,-330.078125,0.0,0,0
1772276385.2991989,1772276385.237142,-739.2578125,-32.71484375,-110.3515625,-479.98046875,0.0,0,0
1772276385.2992158,1772276385.2410338,6.8359375,166.015625,-28.3203125,-16.11328125,0.0,0,0
1772276385.2992342,1772276385.2449255,536.62109375,145.99609375,23.92578125,323.73046875,0.0,0,0
1772276385.2992508,1772276385.248817,406.73828125,91.796875,6.8359375,232.421875,0.0,0,0
1772276385.299268,1772276385.2527087,-397.94921875,-77.1484375,-74.21875,-293.9453125,0.0,0,0
1772276385.299285,1772276385.2566004,-675.78125,-28.3203125,-117.1875,-509.27734375,0.0,0,0
1772276385.2993019,1772276385.2604918,-113.28125,154.296875,-69.3359375,-125.0,0.0,0,0
1772276385.345518,1772276385.2645795,432.12890625,191.89453125,-5.859375,270.5078125,0.0,0,0
1772276385.3455849,1772276385.2684712,378.41796875,155.2734375,-2.9296875,254.8828125,0.0,0,0
1772276385.3456142,1772276385.272363,-468.26171875,-90.8203125,-71.77734375,-282.2265625,0.0,0,0
1772276385.34564,1772276385.2762547,-762.6953125,-151.3671875,-103.515625,-523.4375,0.0,0,0
1772276385.345664,1772276385.2801464,-221.19140625,13.18359375,-54.19921875,-174.31640625,0.0,0,0
1772276385.345692,1772276385.2840378,487.79296875,120.1171875,20.01953125,265.625,0.0,0,0
1772276385.345717,1772276385.2879295,554.19921875,91.796875,29.296875,309.5703125,0.0,0,0
1772276385.345741,1772276385.2918212,-233.3984375,-123.046875,-59.5703125,-192.3828125,0.0,0,0
1772276385.345779,1772276385.295713,-592.28515625,-141.11328125,-105.95703125,-464.35546875,0.0,0,0
1772276385.3458061,1772276385.2996047,-127.44140625,-9.27734375,-54.6875,-208.49609375,0.0,0,0
1772276385.345829,1772276385.3034961,627.44140625,76.171875,27.83203125,262.20703125,0.0,0,0
1772276385.345877,1772276385.3073878,748.046875,36.62109375,29.296875,362.79296875,0.0,0,0
1772276385.3909729,1772276385.3114667,41.9921875,-202.63671875,-68.359375,-97.16796875,0.0,0,0
1772276385.391057,1772276385.3153584,-426.26953125,-245.60546875,-102.5390625,-412.59765625,0.0,0,0
1772276385.391089,1772276385.31925,-122.0703125,-122.0703125,-55.6640625,-232.421875,0.0,0,0
1772276385.391115,1772276385.3231418,600.5859375,14.16015625,-1.953125,229.00390625,0.0,0,0
1772276385.3911412,1772276385.3270335,752.44140625,16.6015625,21.97265625,356.4453125,0.0,0,0
1772276385.391169,1772276385.3309252,96.6796875,-157.2265625,-22.4609375,-56.15234375,0.0,0,0
1772276385.391194,1772276385.334817,-515.13671875,-162.59765625,-84.9609375,-462.890625,0.0,0,0
1772276385.391218,1772276385.3387086,-363.28125,-20.99609375,-78.61328125,-377.9296875,0.0,0,0
1772276385.391242,1772276385.3426003,441.89453125,117.67578125,-5.859375,158.203125,0.0,0,0
1772276385.391265,1772276385.346492,709.47265625,103.02734375,27.34375,362.3046875,0.0,0,0
1772276385.391289,1772276385.3503838,110.83984375,-112.79296875,-21.484375,24.90234375,0.0,0,0
1772276385.391312,1772276385.3542755,-617.1875,-239.74609375,-96.19140625,-408.69140625,0.0,0,0
1772276385.435551,1772276385.3583415,-577.63671875,-163.57421875,-86.42578125,-406.25,0.0,0,0
1772276385.435624,1772276385.3622332,248.046875,15.13671875,9.765625,102.5390625,0.0,0,0
1772276385.435652,1772276385.3661249,516.6015625,89.84375,20.01953125,334.9609375,0.0,0,0
1772276385.435678,1772276385.3700166,81.54296875,7.32421875,-41.50390625,80.078125,0.0,0,0
1772276385.435702,1772276385.3739083,-622.0703125,-128.41796875,-96.19140625,-403.80859375,0.0,0,0
1772276385.4357288,1772276385.3778,-686.03515625,-122.55859375,-90.8203125,-432.6171875,0.0,0,0
1772276385.4357529,1772276385.3816917,128.90625,43.45703125,-7.32421875,103.515625,0.0,0,0
1772276385.435777,1772276385.3855834,527.34375,34.1796875,27.34375,359.375,0.0,0,0
1772276385.43584,1772276385.389475,174.8046875,-81.0546875,-26.85546875,185.05859375,0.0,0,0
1772276385.435883,1772276385.3933668,-608.88671875,-205.078125,-114.74609375,-329.58984375,0.0,0,0
1772276385.435911,1772276385.3972585,-736.328125,-127.9296875,-120.60546875,-442.3828125,0.0,0,0
1772276385.43595,1772276385.4011502,44.921875,112.79296875,-42.96875,65.4296875,0.0,0,0
1772276385.494505,1772276385.4052083,540.0390625,120.60546875,4.39453125,374.51171875,0.0,0,0
1772276385.494587,1772276385.4091,334.47265625,-5.37109375,-13.671875,251.46484375,0.0,0,0
1772276385.4946141,1772276385.4129918,-460.9375,-125.9765625,-109.375,-318.359375,0.0,0,0
1772276385.494709,1772276385.4168835,-727.05078125,-86.9140625,-133.7890625,-530.76171875,0.0,0,0
1772276385.494737,1772276385.4207754,-52.734375,123.046875,-68.359375,-76.66015625,0.0,0,0
1772276385.494762,1772276385.4246671,514.16015625,164.55078125,-23.92578125,315.91796875,0.0,0,0
1772276385.494786,1772276385.4285588,412.59765625,24.4140625,-15.625,266.6015625,0.0,0,0
1772276385.494883,1772276385.4324505,-385.7421875,-171.38671875,-97.16796875,-271.97265625,0.0,0,0
1772276385.494975,1772276385.4363422,-686.03515625,-188.4765625,-117.67578125,-497.55859375,0.0,0,0
1772276385.495023,1772276385.440234,-91.796875,20.99609375,-30.2734375,-125.48828125,0.0,0,0
1772276385.495073,1772276385.4441257,554.6875,125.9765625,25.87890625,303.22265625,0.0,0,0
1772276385.495125,1772276385.4480176,526.3671875,51.26953125,-14.16015625,298.828125,0.0,0,0
1772276385.525698,1772276385.452065,-298.33984375,-94.7265625,-98.6328125,-218.75,0.0,0,0
1772276385.525813,1772276385.455957,-673.828125,-141.11328125,-113.76953125,-482.91015625,0.0,0,0
1772276385.5258398,1772276385.4598486,-232.421875,7.8125,-75.1953125,-218.75,0.0,0,0
1772276385.525866,1772276385.4637403,517.08984375,150.87890625,10.7421875,271.97265625,0.0,0,0
1772276385.525891,1772276385.467632,667.96875,130.37109375,45.41015625,375.0,0.0,0,0
1772276385.525915,1772276385.471524,-152.34375,-40.0390625,-21.484375,-124.51171875,0.0,0,0
1772276385.5259619,1772276385.4754157,-655.76171875,-89.84375,-37.59765625,-450.1953125,0.0,0,0
1772276385.5260081,1772276385.4793074,-331.0546875,75.68359375,-5.37109375,-240.72265625,0.0,0,0
1772276385.526062,1772276385.4831994,374.0234375,215.33203125,60.546875,281.73828125,0.0,0,0
1772276385.526148,1772276385.487091,496.09375,101.5625,97.16796875,421.38671875,0.0,0,0
1772276385.526186,1772276385.4909828,-237.3046875,-118.65234375,40.52734375,-48.828125,0.0,0,0
1772276385.526214,1772276385.4948745,-750.0,-158.203125,-12.6953125,-383.7890625,0.0,0,0
1772276385.57127,1772276385.4989126,-550.29296875,-56.640625,19.53125,-212.890625,0.0,0,0
1772276385.571378,1772276385.5028043,143.06640625,107.91015625,118.1640625,262.20703125,0.0,0,0
1772276385.5714078,1772276385.5066962,340.8203125,124.0234375,137.20703125,384.27734375,0.0,0,0
1772276385.57146,1772276385.510588,-266.11328125,8.7890625,48.33984375,13.671875,0.0,0,0
1772276385.571518,1772276385.5144799,-810.05859375,-90.33203125,-2.44140625,-385.25390625,0.0,0,0
1772276385.571583,1772276385.5183716,-727.5390625,-70.3125,59.5703125,-279.78515625,0.0,0,0
1772276385.571614,1772276385.5222633,-28.80859375,97.65625,142.578125,260.25390625,0.0,0,0
1772276385.571678,1772276385.5261552,331.0546875,79.58984375,108.88671875,412.109375,0.0,0,0
1772276385.571708,1772276385.530047,-64.94140625,-102.5390625,45.8984375,99.12109375,0.0,0,0
1772276385.571766,1772276385.5339386,-720.21484375,-210.9375,4.39453125,-360.83984375,0.0,0,0
1772276385.571841,1772276385.5378306,-754.39453125,-179.6875,6.8359375,-369.140625,0.0,0,0
1772276385.5718699,1772276385.5417223,116.2109375,-37.59765625,100.5859375,206.54296875,0.0,0,0
1772276385.619898,1772276385.5457473,480.95703125,-85.44921875,129.8828125,441.40625,0.0,0,0
1772276385.620517,1772276385.5496392,45.8984375,-208.0078125,69.82421875,163.57421875,0.0,0,0
1772276385.6205912,1772276385.553531,-651.3671875,-257.8125,-23.4375,-325.1953125,0.0,0,0
1772276385.620621,1772276385.5574229,-767.578125,-209.47265625,-46.38671875,-385.7421875,0.0,0,0
1772276385.620648,1772276385.5613146,-21.97265625,-83.984375,48.828125,135.7421875,0.0,0,0
1772276385.620673,1772276385.5652063,396.484375,-130.859375,87.40234375,421.875,0.0,0,0
1772276385.620697,1772276385.5690982,106.4453125,-275.390625,14.6484375,292.96875,0.0,0,0
1772276385.620723,1772276385.57299,-618.65234375,-388.18359375,-83.0078125,-187.01171875,0.0,0,0
1772276385.620748,1772276385.576882,-763.18359375,-339.84375,-105.46875,-378.90625,0.0,0,0
1772276385.620803,1772276385.5807736,-33.69140625,-174.8046875,-63.96484375,75.1953125,0.0,0,0
1772276385.620872,1772276385.5846655,595.21484375,-62.01171875,-50.78125,406.73828125,0.0,0,0
1772276385.6209338,1772276385.5885572,566.40625,-164.55078125,-44.921875,301.26953125,0.0,0,0
1772276385.675284,1772276385.5925834,-216.796875,-373.53515625,-104.98046875,-205.078125,0.0,0,0
1772276385.6755562,1772276385.5964751,-512.20703125,-259.27734375,-169.43359375,-417.48046875,0.0,0,0
1772276385.675664,1772276385.600367,55.17578125,-37.59765625,-134.765625,-26.3671875,0.0,0,0
1772276385.6757,1772276385.6042588,604.98046875,30.76171875,-73.73046875,392.08984375,0.0,0,0
1772276385.6757262,1772276385.6081507,537.109375,11.71875,-75.1953125,378.41796875,0.0,0,0
1772276385.675749,1772276385.6120424,-246.09375,-95.21484375,-158.203125,-110.83984375,0.0,0,0
1772276385.675779,1772276385.6159344,-633.30078125,-98.14453125,-181.640625,-344.7265625,0.0,0,0
1772276385.675809,1772276385.619826,-251.46484375,47.8515625,-128.41796875,-27.83203125,0.0,0,0
1772276385.6758342,1772276385.623718,361.81640625,153.80859375,-57.12890625,437.5,0.0,0,0
1772276385.675848,1772276385.6276097,385.25390625,113.76953125,-45.41015625,448.73046875,0.0,0,0
1772276385.67586,1772276385.6315017,-366.69921875,-107.421875,-143.06640625,-122.55859375,0.0,0,0
1772276385.675871,1772276385.6353934,-677.734375,-161.1328125,-189.453125,-452.63671875,0.0,0,0
1772276385.720167,1772276385.6394787,-218.26171875,-7.8125,-152.83203125,-246.58203125,0.0,0,0
1772276385.720238,1772276385.6433706,534.66796875,155.76171875,-72.75390625,269.53125,0.0,0,0
1772276385.720292,1772276385.6472623,680.6640625,126.46484375,-59.08203125,411.62109375,0.0,0,0
1772276385.720326,1772276385.6511543,9.27734375,-130.859375,-141.11328125,-49.31640625,0.0,0,0
1772276385.720352,1772276385.6550462,-452.63671875,-133.30078125,-177.24609375,-372.0703125,0.0,0,0
1772276385.7203772,1772276385.658938,-180.17578125,46.875,-147.94921875,-200.1953125,0.0,0,0
1772276385.7204008,1772276385.6628299,590.33203125,127.9296875,-63.4765625,310.546875,0.0,0,0
1772276385.720425,1772276385.6667218,725.09765625,62.98828125,-30.76171875,466.796875,0.0,0,0
1772276385.7204502,1772276385.6706135,136.71875,-101.07421875,-106.4453125,49.8046875,0.0,0,0
1772276385.720473,1772276385.6745055,-307.6171875,-158.69140625,-161.1328125,-355.46875,0.0,0,0
1772276385.7204978,1772276385.6783974,-115.72265625,-48.828125,-137.6953125,-247.55859375,0.0,0,0
1772276385.720521,1772276385.6822891,551.7578125,176.26953125,-51.7578125,291.50390625,0.0,0,0
1772276385.779689,1772276385.6863654,720.703125,199.21875,-28.80859375,491.2109375,0.0,0,0
1772276385.780013,1772276385.6902573,178.7109375,6.34765625,-89.35546875,163.0859375,0.0,0,0
1772276385.780378,1772276385.694149,-492.67578125,-113.28125,-160.64453125,-306.640625,0.0,0,0
1772276385.780542,1772276385.698041,-421.875,-30.76171875,-152.83203125,-323.73046875,0.0,0,0
1772276385.7805948,1772276385.701933,312.5,146.97265625,-51.26953125,204.1015625,0.0,0,0
1772276385.7806232,1772276385.7058249,553.7109375,114.74609375,-11.71875,430.6640625,0.0,0,0
1772276385.780666,1772276385.7097168,157.2265625,-41.015625,-65.91796875,174.8046875,0.0,0,0
1772276385.780711,1772276385.7136085,-531.25,-164.0625,-151.85546875,-344.23828125,0.0,0,0
1772276385.780777,1772276385.7175004,-572.75390625,-109.375,-140.13671875,-408.203125,0.0,0,0
1772276385.7808151,1772276385.7213924,211.42578125,111.328125,-44.43359375,132.8125,0.0,0,0
1772276385.780843,1772276385.7252843,570.3125,153.80859375,-9.765625,375.9765625,0.0,0,0
1772276385.780867,1772276385.729176,277.83203125,48.828125,-30.2734375,193.84765625,0.0,0,0
1772276385.8106399,1772276385.733241,-509.765625,-93.75,-104.4921875,-340.33203125,0.0,0,0
1772276385.810745,1772276385.737133,-631.8359375,-52.734375,-125.0,-497.55859375,0.0,0,0
1772276385.810774,1772276385.741025,146.484375,147.4609375,-52.734375,2.9296875,0.0,0,0
1772276385.8108,1772276385.744917,582.03125,133.7890625,0.0,353.515625,0.0,0,0
1772276385.810823,1772276385.7488089,408.203125,26.85546875,-29.296875,247.55859375,0.0,0,0
1772276385.8108559,1772276385.7527008,-391.6015625,-112.3046875,-125.9765625,-317.3828125,0.0,0,0
1772276385.8110132,1772276385.7565928,-610.83984375,-103.515625,-151.3671875,-519.53125,0.0,0,0
1772276385.8110652,1772276385.7604847,61.03515625,107.421875,-70.80078125,-70.3125,0.0,0,0
1772276385.811102,1772276385.7643764,544.43359375,151.85546875,11.71875,367.67578125,0.0,0,0
1772276385.811146,1772276385.7682683,392.578125,86.9140625,21.484375,335.9375,0.0,0,0
1772276385.8111832,1772276385.7721603,-412.59765625,-68.84765625,-67.87109375,-247.55859375,0.0,0,0
1772276385.81122,1772276385.7760522,-674.31640625,-47.36328125,-110.83984375,-504.39453125,0.0,0,0
1772276385.870134,1772276385.780108,-60.05859375,159.1796875,-29.296875,-148.4375,0.0,0,0
1772276385.870282,1772276385.784,585.44921875,218.26171875,32.71484375,310.05859375,0.0,0,0
1772276385.870368,1772276385.7878919,640.13671875,155.2734375,17.578125,372.0703125,0.0,0,0
1772276385.870425,1772276385.7917838,-143.5546875,-74.70703125,-77.63671875,-161.1328125,0.0,0,0
1772276385.8704672,1772276385.7956758,-557.12890625,-166.015625,-127.44140625,-467.28515625,0.0,0,0
1772276385.870507,1772276385.7995677,-228.515625,7.32421875,-74.70703125,-169.43359375,0.0,0,0
1772276385.870545,1772276385.8034596,396.484375,131.8359375,-1.46484375,343.75,0.0,0,0
1772276385.870583,1772276385.8073516,528.3203125,95.703125,-3.41796875,447.265625,0.0,0,0
1772276385.870621,1772276385.8112435,-239.74609375,-74.70703125,-78.61328125,-75.68359375,0.0,0,0
1772276385.8707101,1772276385.8151355,-624.51171875,-120.1171875,-87.40234375,-393.06640625,0.0,0,0
1772276385.87076,1772276385.8190274,-221.6796875,-30.2734375,-46.875,-153.80859375,0.0,0,0
1772276385.870836,1772276385.8229194,420.8984375,67.3828125,-2.9296875,351.5625,0.0,0,0
1772276385.902279,1772276385.8269632,426.7578125,5.859375,8.7890625,468.75,0.0,0,0
1772276385.902418,1772276385.8308551,-202.63671875,-215.8203125,-64.453125,13.671875,0.0,0,0
1772276385.902462,1772276385.834747,-604.00390625,-246.58203125,-112.79296875,-370.1171875,0.0,0,0
1772276385.902503,1772276385.838639,-340.33203125,-112.79296875,-80.078125,-274.4140625,0.0,0,0
1772276385.902542,1772276385.842531,416.9921875,-16.6015625,16.11328125,259.27734375,0.0,0,0
1772276385.90258,1772276385.846423,636.71875,-37.109375,42.48046875,452.1484375,0.0,0,0
1772276385.9026182,1772276385.8503149,45.8984375,-186.5234375,-44.921875,60.05859375,0.0,0,0
1772276385.902657,1772276385.8542068,-570.80078125,-242.67578125,-98.6328125,-385.7421875,0.0,0,0
1772276385.902695,1772276385.858099,-416.9921875,-141.11328125,-77.1484375,-325.68359375,0.0,0,0
1772276385.902733,1772276385.861991,339.84375,0.0,4.39453125,231.93359375,0.0,0,0
1772276385.9027698,1772276385.8658829,563.96484375,-49.8046875,48.828125,462.40234375,0.0,0,0
1772276385.9028091,1772276385.8697748,113.28125,-204.1015625,-4.39453125,161.1328125,0.0,0,0
1772276385.946347,1772276385.8738089,-575.1953125,-287.59765625,-76.66015625,-339.84375,0.0,0,0
1772276385.946468,1772276385.877701,-601.07421875,-216.30859375,-76.171875,-384.765625,0.0,0,0
1772276385.946527,1772276385.881593,194.82421875,23.92578125,-19.53125,159.1796875,0.0,0,0
1772276385.946581,1772276385.885485,551.26953125,34.66796875,25.390625,407.2265625,0.0,0,0
1772276385.9466329,1772276385.8893769,246.09375,-95.21484375,13.18359375,206.0546875,0.0,0,0
1772276385.9466848,1772276385.8932688,-478.515625,-205.56640625,-83.49609375,-312.01171875,0.0,0,0
1772276385.9467368,1772276385.897161,-636.23046875,-174.8046875,-112.3046875,-454.58984375,0.0,0,0
1772276385.946788,1772276385.901053,137.20703125,55.6640625,-25.390625,73.73046875,0.0,0,0
1772276385.946847,1772276385.904945,524.90234375,93.26171875,31.73828125,413.0859375,0.0,0,0
1772276385.947,1772276385.9088368,259.765625,-20.5078125,22.94921875,284.66796875,0.0,0,0
1772276385.947063,1772276385.9127288,-471.19140625,-226.5625,-77.1484375,-279.78515625,0.0,0,0
1772276385.947123,1772276385.9166207,-622.0703125,-263.671875,-102.5390625,-453.61328125,0.0,0,0
1772276385.9916532,1772276385.9206452,73.2421875,-8.30078125,-20.5078125,17.578125,0.0,0,0
1772276385.991775,1772276385.9245372,540.52734375,79.1015625,32.71484375,393.06640625,0.0,0,0
1772276385.991837,1772276385.9284294,410.15625,-47.36328125,20.99609375,336.9140625,0.0,0,0
1772276385.991893,1772276385.9323213,-367.1875,-244.140625,-79.1015625,-213.8671875,0.0,0,0
1772276385.991946,1772276385.9362133,-610.3515625,-203.125,-113.28125,-432.12890625,0.0,0,0
1772276385.9919958,1772276385.9401054,3.41796875,41.015625,-30.2734375,-14.16015625,0.0,0,0
1772276385.992048,1772276385.9439974,537.59765625,130.37109375,48.33984375,427.24609375,0.0,0,0
1772276385.992099,1772276385.9478893,444.3359375,42.48046875,42.48046875,422.36328125,0.0,0,0
1772276385.99215,1772276385.9517813,-376.46484375,-160.64453125,-46.875,-126.46484375,0.0,0,0
1772276385.9922009,1772276385.9556735,-664.55078125,-194.3359375,-97.65625,-418.45703125,0.0,0,0
1772276385.992238,1772276385.9595654,-114.2578125,-64.94140625,-48.828125,-99.609375,0.0,0,0
1772276385.9923232,1772276385.9634573,534.1796875,44.43359375,33.203125,380.37109375,0.0,0,0
1772276386.048922,1772276385.9674726,607.421875,20.01953125,21.97265625,427.24609375,0.0,0,0
1772276386.048992,1772276385.9713645,-219.23828125,-220.703125,-81.0546875,-129.8828125,0.0,0,0
1772276386.049021,1772276385.9752567,-683.10546875,-273.92578125,-109.375,-454.58984375,0.0,0,0
1772276386.049046,1772276385.9791486,-298.828125,-124.51171875,-45.41015625,-201.66015625,0.0,0,0
1772276386.049071,1772276385.9830406,413.57421875,15.13671875,44.921875,324.70703125,0.0,0,0
1772276386.0490959,1772276385.9869328,553.22265625,-10.25390625,55.6640625,450.1953125,0.0,0,0
1772276386.04912,1772276385.9908247,-163.0859375,-247.0703125,-42.96875,-73.2421875,0.0,0,0
1772276386.049144,1772276385.9947166,-560.546875,-307.12890625,-84.9609375,-451.171875,0.0,0,0
1772276386.0491688,1772276385.9986088,-227.5390625,-172.36328125,-55.6640625,-304.19921875,0.0,0,0
1772276386.049193,1772276386.0025008,471.19140625,-2.44140625,11.23046875,214.35546875,0.0,0,0
1772276386.049218,1772276386.006393,689.453125,19.53125,42.96875,399.4140625,0.0,0,0
1772276386.049242,1772276386.010285,87.40234375,-187.01171875,-26.3671875,-18.06640625,0.0,0,0
1772276386.11216,1772276386.014472,-529.296875,-279.296875,-93.26171875,-433.10546875,0.0,0,0
1772276386.112205,1772276386.018364,-393.06640625,-133.7890625,-64.94140625,-367.1875,0.0,0,0
1772276386.1122181,1772276386.0222561,362.79296875,28.80859375,34.1796875,176.7578125,0.0,0,0
1772276386.1122298,1772276386.026148,592.7734375,-44.43359375,72.265625,408.203125,0.0,0,0
1772276386.1122408,1772276386.0300403,41.9921875,-250.48828125,19.53125,76.171875,0.0,0,0
1772276386.112274,1772276386.0339322,-661.1328125,-299.31640625,-61.03515625,-408.203125,0.0,0,0
1772276386.112303,1772276386.0378244,-622.0703125,-183.59375,-58.10546875,-418.45703125,0.0,0,0
1772276386.112334,1772276386.0417163,225.5859375,8.30078125,32.2265625,126.953125,0.0,0,0
1772276386.1123672,1772276386.0456085,527.34375,-16.11328125,66.89453125,366.69921875,0.0,0,0
1772276386.112381,1772276386.0495007,166.50390625,-187.5,26.85546875,124.51171875,0.0,0,0
1772276386.112405,1772276386.0533926,-493.1640625,-322.75390625,-60.05859375,-383.7890625,0.0,0,0
1772276386.112424,1772276386.0572848,-578.61328125,-293.45703125,-78.125,-460.44921875,0.0,0,0
1772276386.1402109,1772276386.0613563,167.48046875,-78.125,18.5546875,78.61328125,0.0,0,0
1772276386.1403,1772276386.0652483,519.04296875,-28.80859375,54.6875,372.0703125,0.0,0,0
1772276386.14038,1772276386.0691404,180.6640625,-157.2265625,2.9296875,204.58984375,0.0,0,0
1772276386.140445,1772276386.0730324,-628.90625,-337.890625,-89.84375,-325.1953125,0.0,0,0
1772276386.1406028,1772276386.0769246,-714.35546875,-302.734375,-99.12109375,-459.47265625,0.0,0,0
1772276386.140682,1772276386.0808167,101.07421875,-56.640625,-1.953125,34.1796875,0.0,0,0
1772276386.140738,1772276386.0847087,495.60546875,-20.01953125,47.8515625,366.69921875,0.0,0,0
1772276386.140859,1772276386.0886009,243.65234375,-142.578125,11.71875,262.6953125,0.0,0,0
1772276386.1409159,1772276386.092493,-488.76953125,-276.3671875,-83.0078125,-286.62109375,0.0,0,0
1772276386.1409779,1772276386.096385,-738.76953125,-214.35546875,-90.33203125,-493.65234375,0.0,0,0
1772276386.140992,1772276386.1002772,-125.0,12.6953125,-3.90625,-37.109375,0.0,0,0
1772276386.141143,1772276386.1041694,378.90625,75.1953125,58.10546875,394.53125,0.0,0,0
1772276386.199183,1772276386.108233,276.3671875,-18.06640625,45.41015625,367.1875,0.0,0,0
1772276386.199245,1772276386.1121252,-481.4453125,-200.1953125,-71.77734375,-207.03125,0.0,0,0
1772276386.199266,1772276386.116017,-738.76953125,-190.91796875,-109.86328125,-464.35546875,0.0,0,0
1772276386.1996071,1772276386.1199093,-184.5703125,-6.34765625,-37.109375,-94.23828125,0.0,0,0
1772276386.1996522,1772276386.1238015,418.9453125,76.171875,19.04296875,357.91015625,0.0,0,0
1772276386.200544,1772276386.1276937,395.99609375,-2.9296875,17.578125,406.73828125,0.0,0,0
1772276386.200573,1772276386.1315858,-416.015625,-238.28125,-72.265625,-124.51171875,0.0,0,0
1772276386.201764,1772276386.1354778,-696.77734375,-234.375,-107.91015625,-429.19921875,0.0,0,0
1772276386.201806,1772276386.13937,-229.4921875,0.48828125,-50.29296875,-141.6015625,0.0,0,0
1772276386.2018251,1772276386.1432621,406.73828125,103.02734375,14.16015625,378.90625,0.0,0,0
1772276386.2018619,1772276386.1471543,473.14453125,12.20703125,14.6484375,473.14453125,0.0,0,0
1772276386.201905,1772276386.1510463,-264.16015625,-198.73046875,-64.94140625,-57.12890625,0.0,0,0
1772276386.230316,1772276386.1550982,-684.08203125,-259.27734375,-98.6328125,-398.4375,0.0,0,0
1772276386.230363,1772276386.1589904,-375.9765625,-96.6796875,-68.84765625,-211.9140625,0.0,0,0
1772276386.23038,1772276386.1628823,357.91015625,99.12109375,20.99609375,293.9453125,0.0,0,0
1772276386.2303948,1772276386.1667745,485.83984375,79.1015625,42.48046875,459.47265625,0.0,0,0
1772276386.230408,1772276386.1706667,-199.21875,-131.34765625,-61.5234375,-2.9296875,0.0,0,0
1772276386.230423,1772276386.1745589,-675.29296875,-192.87109375,-116.2109375,-428.22265625,0.0,0,0
1772276386.230437,1772276386.178451,-466.30859375,-83.49609375,-78.125,-314.453125,0.0,0,0
1772276386.23045,1772276386.1823432,269.53125,71.77734375,-2.44140625,225.5859375,0.0,0,0
1772276386.2304618,1772276386.1862354,488.28125,51.26953125,26.85546875,419.921875,0.0,0,0
1772276386.230475,1772276386.1901276,-9.765625,-148.92578125,-18.06640625,63.96484375,0.0,0,0
1772276386.230488,1772276386.1940196,-597.65625,-220.21484375,-86.42578125,-382.32421875,0.0,0,0
1772276386.2305012,1772276386.1979117,-509.27734375,-109.375,-76.171875,-338.8671875,0.0,0,0
1772276386.2754529,1772276386.2019525,254.8828125,83.49609375,-2.44140625,195.80078125,0.0,0,0
1772276386.2755258,1772276386.2058446,485.83984375,64.453125,21.97265625,415.0390625,0.0,0,0
1772276386.275554,1772276386.2097368,58.10546875,-125.9765625,-7.32421875,160.64453125,0.0,0,0
1772276386.27558,1772276386.213629,-632.32421875,-249.51171875,-69.82421875,-309.08203125,0.0,0,0
1772276386.275607,1772276386.2175212,-659.66796875,-171.38671875,-66.89453125,-334.9609375,0.0,0,0
1772276386.275677,1772276386.2214134,147.4609375,42.48046875,31.73828125,218.26171875,0.0,0,0
1772276386.275705,1772276386.2253056,479.98046875,18.06640625,56.15234375,493.65234375,0.0,0,0
1772276386.2757602,1772276386.2291977,137.6953125,-132.32421875,-7.32421875,277.83203125,0.0,0,0
1772276386.2758029,1772276386.23309,-595.703125,-259.765625,-86.9140625,-270.5078125,0.0,0,0
1772276386.275899,1772276386.236982,-742.67578125,-186.5234375,-88.8671875,-401.3671875,0.0,0,0
1772276386.275944,1772276386.2408743,21.484375,67.3828125,0.0,98.14453125,0.0,0,0
1772276386.2759721,1772276386.2447665,452.1484375,74.70703125,36.62109375,399.90234375,0.0,0,0
1772276386.3201978,1772276386.2487972,227.05078125,-71.77734375,18.5546875,261.71875,0.0,1,0
1772276386.320239,1772276386.2526896,-511.23046875,-238.76953125,-72.75390625,-282.2265625,0.0,0,0
1772276386.32025,1772276386.2565818,-686.03515625,-210.9375,-113.76953125,-447.265625,0.0,0,0
1772276386.320259,1772276386.260474,-2.44140625,52.734375,-14.6484375,32.2265625,0.0,0,0
1772276386.320269,1772276386.2643661,449.70703125,100.09765625,38.0859375,383.7890625,0.0,0,0
1772276386.320277,1772276386.2682583,271.97265625,10.7421875,6.34765625,305.6640625,0.0,0,0
1772276386.3203268,1772276386.2721505,-523.92578125,-130.37109375,-92.7734375,-242.67578125,0.0,0,0
1772276386.3203478,1772276386.2760427,-764.16015625,-132.32421875,-122.0703125,-492.67578125,0.0,0,0
1772276386.320414,1772276386.279935,-87.40234375,45.8984375,-26.3671875,-109.86328125,0.0,0,0
1772276386.320435,1772276386.283827,629.39453125,86.9140625,61.5234375,337.40234375,0.0,0,0
1772276386.320489,1772276386.2877192,563.96484375,12.6953125,61.5234375,370.1171875,0.0,0,0
1772276386.3205109,1772276386.2916114,-214.35546875,-159.1796875,-55.17578125,-177.734375,0.0,0,0
1772276386.3655381,1772276386.2956324,-508.30078125,-176.7578125,-93.26171875,-451.66015625,0.0,0,0
1772276386.365618,1772276386.2995245,-69.3359375,-2.9296875,-19.04296875,-138.671875,0.0,0,0
1772276386.365647,1772276386.303417,581.0546875,100.09765625,46.875,314.453125,0.0,0,0
1772276386.3656719,1772276386.3073092,629.8828125,26.85546875,55.6640625,376.46484375,0.0,0,0
1772276386.365697,1772276386.3112013,-155.2734375,-190.4296875,-26.3671875,-165.52734375,0.0,0,0
1772276386.365762,1772276386.3150935,-531.73828125,-214.35546875,-78.125,-490.72265625,0.0,0,0
1772276386.365797,1772276386.3189857,-121.58203125,-70.3125,-33.69140625,-250.48828125,0.0,0,0
1772276386.365823,1772276386.322878,604.98046875,36.1328125,48.828125,280.76171875,0.0,0,0
1772276386.365849,1772276386.32677,735.83984375,-10.25390625,62.5,422.8515625,0.0,0,0
1772276386.3658729,1772276386.3306623,4.39453125,-194.3359375,-10.7421875,-76.171875,0.0,0,0
1772276386.365897,1772276386.3345547,-507.32421875,-231.4453125,-57.6171875,-455.56640625,0.0,0,0
1772276386.365921,1772276386.3384469,-233.3984375,-107.421875,-20.5078125,-291.50390625,0.0,0,0
1772276386.4257421,1772276386.3424609,496.58203125,22.4609375,50.78125,224.609375,0.0,0,0
1772276386.425864,1772276386.346353,710.9375,12.6953125,50.29296875,396.484375,0.0,0,0
1772276386.425906,1772276386.3502455,127.9296875,-128.41796875,-6.8359375,6.34765625,0.0,0,0
1772276386.425935,1772276386.3541377,-474.12109375,-179.19921875,-45.8984375,-392.08984375,0.0,0,0
1772276386.425962,1772276386.3580298,-303.7109375,-68.84765625,-30.76171875,-314.94140625,0.0,0,0
1772276386.426004,1772276386.361922,493.65234375,85.9375,45.41015625,208.49609375,0.0,0,0
1772276386.426045,1772276386.3658144,675.29296875,66.89453125,85.9375,429.19921875,0.0,0,0
1772276386.426081,1772276386.3697066,160.15625,-125.9765625,21.97265625,104.98046875,0.0,0,0
1772276386.4261272,1772276386.3735988,-433.59375,-227.5390625,-78.61328125,-369.62890625,0.0,0,0
1772276386.426177,1772276386.377491,-421.38671875,-125.48828125,-78.61328125,-362.3046875,0.0,0,0
1772276386.4262028,1772276386.3813832,287.59765625,41.50390625,11.23046875,186.03515625,0.0,0,0
1772276386.426228,1772276386.3852756,533.69140625,44.43359375,50.78125,430.6640625,0.0,0,0
1772276386.471703,1772276386.3893576,174.31640625,-69.82421875,-0.48828125,174.8046875,0.0,0,0
1772276386.471786,1772276386.39325,-492.1875,-192.3828125,-97.16796875,-349.609375,0.0,0,0
1772276386.4718158,1772276386.3971422,-581.54296875,-151.3671875,-95.21484375,-421.38671875,0.0,0,0
1772276386.471842,1772276386.4010344,149.90234375,32.2265625,2.44140625,112.79296875,0.0,0,0
1772276386.471901,1772276386.4049268,517.08984375,31.25,42.96875,386.23046875,0.0,0,0
1772276386.4719412,1772276386.408819,293.9453125,-83.0078125,-2.44140625,215.33203125,0.0,0,0
1772276386.4719691,1772276386.4127111,-405.76171875,-235.83984375,-104.00390625,-330.56640625,0.0,0,0
1772276386.471997,1772276386.4166036,-527.34375,-217.28515625,-98.6328125,-500.0,0.0,0,0
1772276386.472021,1772276386.4204957,230.95703125,1.46484375,9.765625,-20.5078125,0.0,0,0
1772276386.472045,1772276386.424388,725.5859375,62.5,58.59375,345.21484375,0.0,0,0
1772276386.472068,1772276386.4282804,567.87109375,-39.55078125,38.0859375,293.9453125,0.0,0,0
1772276386.472092,1772276386.4321725,-307.6171875,-195.3125,-51.7578125,-259.765625,0.0,0,0
1772276386.515604,1772276386.4362438,-628.90625,-144.04296875,-82.51953125,-465.8203125,0.0,0,0
1772276386.515693,1772276386.440136,10.25390625,57.12890625,-9.765625,-49.8046875,0.0,0,0
1772276386.515722,1772276386.4440284,541.015625,93.26171875,36.62109375,354.4921875,0.0,0,0
1772276386.515748,1772276386.4479206,506.34765625,7.32421875,32.71484375,369.62890625,0.0,0,0
1772276386.5157728,1772276386.4518127,-211.42578125,-170.41015625,-48.33984375,-186.03515625,0.0,0,0
1772276386.515799,1772276386.4557052,-465.8203125,-149.4140625,-93.26171875,-459.47265625,0.0,0,0
1772276386.5158231,1772276386.4595973,70.3125,33.69140625,-40.0390625,-109.86328125,0.0,0,0
1772276386.515847,1772276386.4634898,666.50390625,115.72265625,30.2734375,350.09765625,0.0,0,0
1772276386.5158699,1772276386.467382,681.640625,93.26171875,46.38671875,406.73828125,0.0,0,0
1772276386.515894,1772276386.4712744,-115.72265625,-82.03125,-24.4140625,-114.74609375,0.0,0,0
1772276386.515917,1772276386.4751666,-463.8671875,-130.859375,-62.01171875,-401.85546875,0.0,0,0
1772276386.5159411,1772276386.479059,-29.296875,53.7109375,-26.3671875,-139.6484375,0.0,0,0
1772276386.560981,1772276386.483119,620.1171875,213.37890625,54.19921875,365.234375,0.0,0,0
1772276386.561086,1772276386.4870114,721.6796875,186.5234375,74.70703125,479.98046875,0.0,0,0
1772276386.561148,1772276386.4909036,-24.90234375,-58.10546875,-4.8828125,-51.7578125,0.0,0,0
1772276386.561224,1772276386.494796,-525.390625,-95.21484375,-59.5703125,-416.9921875,0.0,0,0
1772276386.561261,1772276386.4986882,-250.48828125,57.12890625,-44.43359375,-243.1640625,0.0,0,0
1772276386.561289,1772276386.5025806,411.1328125,168.45703125,41.50390625,240.72265625,0.0,0,0
1772276386.561367,1772276386.5064728,525.390625,138.671875,72.75390625,413.57421875,0.0,0,0
1772276386.561407,1772276386.5103652,-146.484375,-68.84765625,-25.87890625,-19.04296875,0.0,0,0
1772276386.56148,1772276386.5142574,-632.8125,-114.74609375,-81.54296875,-432.6171875,0.0,0,0
1772276386.5615768,1772276386.5181499,-429.6875,-8.30078125,-35.15625,-291.015625,0.0,0,0
1772276386.561625,1772276386.5220423,274.90234375,108.3984375,37.59765625,250.9765625,0.0,0,0
1772276386.561672,1772276386.5259345,527.83203125,70.80078125,47.36328125,419.921875,0.0,0,0
1772276386.619089,1772276386.5299854,-26.85546875,-114.74609375,-18.5546875,56.640625,0.0,0,0
1772276386.61917,1772276386.5338778,-673.828125,-190.4296875,-86.42578125,-394.53125,0.0,0,0
1772276386.6191978,1772276386.53777,-566.40625,-77.1484375,-62.01171875,-363.28125,0.0,0,0
1772276386.619222,1772276386.5416625,306.15234375,123.046875,11.71875,192.3828125,0.0,0,0
1772276386.619246,1772276386.5455549,643.06640625,112.3046875,29.296875,431.640625,0.0,0,0
1772276386.6192698,1772276386.549447,202.63671875,-32.71484375,-2.44140625,141.6015625,0.0,0,0
1772276386.619293,1772276386.5533395,-532.71484375,-108.88671875,-71.77734375,-416.9921875,0.0,0,0
1772276386.619317,1772276386.557232,-587.890625,-38.57421875,-63.4765625,-455.078125,0.0,0,0
1772276386.6193411,1772276386.561124,163.0859375,105.46875,15.625,107.421875,0.0,0,0
1772276386.619391,1772276386.5650165,491.2109375,83.49609375,36.62109375,368.1640625,0.0,0,0
1772276386.619432,1772276386.5689087,240.72265625,-42.48046875,1.953125,181.640625,0.0,0,0
1772276386.61946,1772276386.572801,-488.28125,-180.17578125,-77.1484375,-379.39453125,0.0,0,0
1772276386.650603,1772276386.5768416,-617.1875,-144.53125,-116.2109375,-516.6015625,0.0,0,0
1772276386.6506848,1772276386.580734,162.59765625,52.24609375,-23.92578125,23.92578125,0.0,0,0
1772276386.6507132,1772276386.5846264,573.2421875,86.9140625,44.43359375,360.83984375,0.0,0,0
1772276386.650738,1772276386.5885186,380.37109375,-1.46484375,24.90234375,249.51171875,0.0,0,0
1772276386.650762,1772276386.592411,-380.859375,-145.01953125,-67.87109375,-304.6875,0.0,0,0
1772276386.650787,1772276386.5963035,-666.50390625,-119.62890625,-111.328125,-525.390625,0.0,0,0
1772276386.650812,1772276386.6001956,-48.33984375,49.31640625,-31.25,-87.890625,0.0,0,0
1772276386.650835,1772276386.604088,461.42578125,107.91015625,41.50390625,302.24609375,0.0,0,0
1772276386.650859,1772276386.6079805,392.578125,58.59375,29.296875,267.578125,0.0,0,0
1772276386.650882,1772276386.611873,-382.8125,-114.74609375,-59.5703125,-278.3203125,0.0,0,0
1772276386.6509051,1772276386.615765,-655.2734375,-116.2109375,-83.49609375,-514.16015625,0.0,0,0
1772276386.650929,1772276386.6196575,-74.70703125,71.77734375,-7.32421875,-119.140625,0.0,0,0
1772276386.696337,1772276386.623689,526.85546875,176.7578125,41.9921875,336.9140625,0.0,0,0
1772276386.696478,1772276386.6275811,484.375,124.0234375,32.71484375,355.95703125,0.0,0,0
1772276386.696557,1772276386.6314735,-315.91796875,-87.40234375,-50.78125,-201.171875,0.0,0,0
1772276386.6965828,1772276386.635366,-645.5078125,-145.5078125,-82.03125,-483.88671875,0.0,0,0
1772276386.696608,1772276386.6392584,-220.703125,-5.859375,-31.73828125,-192.87109375,0.0,0,0
1772276386.696633,1772276386.6431508,427.24609375,108.88671875,23.92578125,276.85546875,0.0,0,0
1772276386.696657,1772276386.6470432,531.73828125,82.51953125,40.52734375,388.18359375,0.0,0,0
1772276386.6966798,1772276386.6509354,-262.6953125,-108.3984375,-56.640625,-112.3046875,0.0,0,0
1772276386.696704,1772276386.6548278,-676.7578125,-164.55078125,-113.28125,-454.58984375,0.0,0,0
1772276386.696727,1772276386.6587203,-325.68359375,-62.01171875,-59.08203125,-259.27734375,0.0,0,0
1772276386.696751,1772276386.6626127,353.02734375,83.984375,20.01953125,264.6484375,0.0,0,0
1772276386.696775,1772276386.666505,511.71875,101.07421875,30.76171875,425.29296875,0.0,0,0
1772276386.74116,1772276386.670526,-145.99609375,-109.86328125,-50.78125,-49.31640625,0.0,0,0
1772276386.74127,1772276386.6744184,-612.3046875,-201.171875,-111.81640625,-437.01171875,0.0,0,0
1772276386.741298,1772276386.6783109,-386.23046875,-109.375,-74.21875,-281.25,0.0,0,0
1772276386.741322,1772276386.6822033,367.1875,31.73828125,16.11328125,251.953125,0.0,0,0
1772276386.741371,1772276386.6860957,583.984375,80.078125,37.109375,436.03515625,0.0,0,0
1772276386.741411,1772276386.6899881,-17.578125,-47.8515625,-24.90234375,37.59765625,0.0,0,0
1772276386.741437,1772276386.6938806,-596.6796875,-104.98046875,-104.4921875,-423.33984375,0.0,0,0
1772276386.741463,1772276386.6977727,-469.23828125,-22.4609375,-92.7734375,-372.55859375,0.0,0,0
1772276386.741487,1772276386.7016652,282.2265625,136.23046875,15.625,171.38671875,0.0,0,0
1772276386.7415109,1772276386.7055576,560.05859375,168.9453125,41.50390625,385.7421875,0.0,0,0
1772276386.741535,1772276386.70945,115.72265625,20.01953125,-16.6015625,96.6796875,0.0,0,0
1772276386.741558,1772276386.7133424,-570.3125,-93.75,-92.28515625,-372.55859375,0.0,0,0
1772276386.800291,1772276386.7173524,-539.0625,-48.33984375,-83.0078125,-394.04296875,0.0,0,0
1772276386.800407,1772276386.7212448,284.1796875,116.69921875,22.4609375,158.203125,0.0,0,0
1772276386.8004348,1772276386.7251372,562.01171875,103.02734375,54.6875,387.20703125,0.0,0,0
1772276386.800461,1772276386.7290297,170.41015625,-37.109375,0.9765625,155.2734375,0.0,0,0
1772276386.8004868,1772276386.732922,-567.87109375,-173.33984375,-82.03125,-363.28125,0.0,0,0
1772276386.8005152,1772276386.7368145,-668.9453125,-132.8125,-90.33203125,-450.1953125,0.0,0,0
1772276386.8005388,1772276386.740707,135.7421875,98.14453125,4.39453125,122.0703125,0.0,0,0
1772276386.8005629,1772276386.7445993,547.8515625,79.58984375,61.5234375,436.5234375,0.0,0,0
1772276386.800586,1772276386.7484918,300.29296875,-46.875,34.1796875,274.90234375,0.0,0,0
1772276386.80061,1772276386.7523842,-493.65234375,-177.734375,-52.24609375,-282.71484375,0.0,0,0
1772276386.8006341,1772276386.7562766,-690.4296875,-166.9921875,-71.2890625,-456.54296875,0.0,0,0
1772276386.8006568,1772276386.760169,35.15625,12.20703125,9.765625,26.85546875,0.0,0,0
1772276386.84563,1772276386.7642496,480.95703125,41.50390625,58.59375,387.20703125,0.0,0,0
1772276386.845718,1772276386.7681422,306.15234375,-29.78515625,46.38671875,318.359375,0.0,0,0
1772276386.8457458,1772276386.7720346,-435.05859375,-180.6640625,-47.8515625,-240.234375,0.0,0,0
1772276386.845862,1772276386.775927,-649.90234375,-158.69140625,-72.265625,-471.19140625,0.0,0,0
1772276386.84589,1772276386.7798195,-50.29296875,41.9921875,1.46484375,-41.9921875,0.0,0,0
1772276386.8459148,1772276386.783712,502.9296875,108.88671875,63.96484375,386.71875,0.0,0,0
1772276386.845939,1772276386.7876043,429.19921875,-23.4375,55.17578125,381.8359375,0.0,0,0
1772276386.845962,1772276386.7914968,-397.94921875,-258.7890625,-50.78125,-172.36328125,0.0,0,0
1772276386.8459861,1772276386.7953892,-712.890625,-248.046875,-67.3828125,-425.29296875,0.0,0,0
1772276386.846009,1772276386.7992816,-175.78125,-68.359375,2.9296875,-94.7265625,0.0,0,0
1772276386.846032,1772276386.8031743,452.1484375,20.99609375,68.359375,354.00390625,0.0,0,0
1772276386.846056,1772276386.8070667,452.1484375,-39.55078125,53.22265625,412.59765625,0.0,0,0
1772276386.8918679,1772276386.8111372,-299.8046875,-234.86328125,-47.36328125,-118.1640625,0.0,0,0
1772276386.891952,1772276386.8150296,-642.08984375,-209.9609375,-85.44921875,-440.4296875,0.0,0,0
1772276386.89198,1772276386.8189223,-250.9765625,-13.18359375,-43.45703125,-203.125,0.0,0,0
1772276386.8920052,1772276386.8228147,434.08203125,134.765625,29.296875,308.10546875,0.0,0,0
1772276386.89203,1772276386.8267071,550.78125,124.51171875,40.52734375,432.6171875,0.0,0,0
1772276386.892053,1772276386.8305995,-190.91796875,-87.40234375,-40.0390625,-66.89453125,0.0,0,0
1772276386.892077,1772276386.834492,-617.1875,-108.88671875,-75.1953125,-414.55078125,0.0,0,0
1772276386.8921,1772276386.8383846,-314.94140625,26.85546875,-39.55078125,-247.55859375,0.0,0,0
1772276386.892124,1772276386.842277,362.79296875,116.69921875,23.4375,254.39453125,0.0,0,0
1772276386.892148,1772276386.8461695,530.2734375,62.98828125,37.59765625,430.6640625,0.0,0,0
1772276386.892172,1772276386.850062,-76.66015625,-161.1328125,-27.83203125,7.32421875,0.0,0,0
1772276386.892195,1772276386.8539546,-616.2109375,-205.56640625,-83.49609375,-404.78515625,0.0,0,0
1772276386.9362261,1772276386.858014,-477.5390625,-57.6171875,-74.21875,-312.01171875,0.0,0,0
1772276386.936301,1772276386.8619065,299.31640625,99.12109375,16.6015625,216.796875,0.0,0,0
1772276386.936328,1772276386.865799,577.63671875,72.265625,53.7109375,417.48046875,0.0,0,0
1772276386.936353,1772276386.8696916,57.12890625,-143.5546875,-22.4609375,35.15625,0.0,0,0
1772276386.9364128,1772276386.873584,-569.82421875,-258.30078125,-79.1015625,-442.3828125,0.0,0,0
1772276386.936439,1772276386.8774765,-466.796875,-139.16015625,-61.5234375,-396.484375,0.0,0,0
1772276386.936463,1772276386.881369,333.984375,75.68359375,10.7421875,174.8046875,0.0,0,0
1772276386.936486,1772276386.8852615,574.70703125,58.59375,41.015625,407.2265625,0.0,0,0
1772276386.9365098,1772276386.889154,174.8046875,-102.5390625,-7.32421875,139.6484375,0.0,0,0
1772276386.936533,1772276386.8930466,-501.46484375,-169.921875,-92.28515625,-346.19140625,0.0,0,0
1772276386.936557,1772276386.896939,-563.96484375,-69.3359375,-91.796875,-406.25,0.0,0,0
1772276386.9365802,1772276386.9008315,214.84375,105.95703125,-3.90625,115.234375,0.0,0,0
1772276386.980265,1772276386.90488,540.52734375,59.08203125,44.921875,380.37109375,0.0,0,0
1772276386.9803362,1772276386.9087725,233.88671875,-63.96484375,9.765625,180.17578125,0.0,0,0
1772276386.980364,1772276386.9126651,-501.46484375,-139.6484375,-87.40234375,-374.0234375,0.0,0,0
1772276386.980389,1772276386.9165576,-533.69140625,-81.54296875,-101.5625,-479.00390625,0.0,0,0
1772276386.980414,1772276386.9204502,271.97265625,76.171875,-17.08984375,86.9140625,0.0,0,0
1772276386.980438,1772276386.9243426,650.390625,58.59375,27.83203125,426.7578125,0.0,0,0
1772276386.980489,1772276386.928235,423.828125,-61.03515625,-6.8359375,325.68359375,0.0,0,0
1772276386.98053,1772276386.9321277,-372.55859375,-223.14453125,-100.09765625,-219.23828125,0.0,0,0
1772276386.980559,1772276386.9360201,-543.45703125,-188.96484375,-100.5859375,-411.1328125,0.0,0,0
1772276386.980584,1772276386.9399128,76.66015625,30.76171875,-12.6953125,31.25,0.0,0,0
1772276386.980608,1772276386.9438052,495.1171875,93.26171875,23.92578125,397.94921875,0.0,0,0
1772276386.980633,1772276386.9476979,420.8984375,-7.8125,16.6015625,340.8203125,0.0,0,0
1772276387.026488,1772276386.951738,-305.6640625,-208.0078125,-74.70703125,-238.76953125,0.0,0,0
1772276387.026571,1772276386.9556305,-613.76953125,-192.3828125,-105.46875,-494.140625,0.0,0,0
1772276387.026598,1772276386.9595232,-68.359375,3.90625,-32.2265625,-121.09375,0.0,0,0
1772276387.026623,1772276386.9634156,500.9765625,93.75,28.80859375,325.1953125,0.0,0,0
1772276387.026647,1772276386.9673083,499.0234375,4.8828125,17.578125,349.609375,0.0,0,0
1772276387.026697,1772276386.9712007,-296.38671875,-201.171875,-79.58984375,-177.734375,0.0,0,0
1772276387.026757,1772276386.9750934,-640.625,-221.6796875,-116.2109375,-442.3828125,0.0,0,0
1772276387.026786,1772276386.9789858,-128.90625,-47.36328125,-56.15234375,-159.1796875,0.0,0,0
1772276387.026845,1772276386.9828784,505.37109375,77.63671875,17.578125,318.359375,0.0,0,0
1772276387.026873,1772276386.9867709,546.875,41.50390625,10.7421875,415.52734375,0.0,0,0
1772276387.0269482,1772276386.9906635,-176.7578125,-147.4609375,-73.73046875,-95.21484375,0.0,0,0
1772276387.027,1772276386.994556,-545.8984375,-186.03515625,-104.4921875,-438.96484375,0.0,0,0
1772276387.07139,1772276386.9985862,-208.0078125,-72.75390625,-73.2421875,-247.0703125,0.0,0,0
1772276387.071509,1772276387.0024788,482.421875,42.48046875,3.90625,245.60546875,0.0,0,0
1772276387.0715368,1772276387.0063713,659.1796875,33.203125,29.296875,381.34765625,0.0,0,0
1772276387.071567,1772276387.010264,-14.16015625,-182.12890625,-47.36328125,-70.3125,0.0,0,0
1772276387.0715919,1772276387.0141563,-500.0,-235.3515625,-101.5625,-440.91796875,0.0,0,0
1772276387.0716171,1772276387.018049,-221.6796875,-82.51953125,-66.89453125,-293.9453125,0.0,0,0
1772276387.0716412,1772276387.0219417,528.3203125,91.30859375,14.6484375,238.76953125,0.0,0,0
1772276387.07169,1772276387.025834,705.56640625,74.21875,31.25,424.8046875,0.0,0,0
1772276387.0717561,1772276387.0297267,120.1171875,-135.7421875,-44.43359375,32.2265625,0.0,0,0
1772276387.071786,1772276387.0336192,-451.171875,-196.77734375,-110.83984375,-420.41015625,0.0,0,0
1772276387.0718458,1772276387.0375118,-320.3125,-69.82421875,-82.51953125,-361.81640625,0.0,0,0
1772276387.071875,1772276387.0414045,427.734375,94.23828125,11.23046875,186.5234375,0.0,0,0
1772276387.130408,1772276387.045501,670.41015625,62.5,38.57421875,404.78515625,0.0,0,0
1772276387.1304672,1772276387.0493937,232.91015625,-117.1875,-24.4140625,114.74609375,0.0,0,0
1772276387.1304908,1772276387.0532863,-454.1015625,-226.5625,-90.8203125,-360.83984375,0.0,0,0
1772276387.13051,1772276387.0571787,-468.75,-145.99609375,-81.0546875,-396.97265625,0.0,0,0
1772276387.130527,1772276387.0610714,342.28515625,62.98828125,-8.7890625,147.4609375,0.0,0,0
1772276387.1305442,1772276387.064964,632.32421875,69.82421875,20.99609375,390.625,0.0,0,0
1772276387.130562,1772276387.0688565,274.4140625,-68.84765625,-5.37109375,168.9453125,0.0,0,0
1772276387.130579,1772276387.0727491,-426.26953125,-196.2890625,-76.171875,-329.58984375,0.0,0,0
1772276387.130597,1772276387.0766418,-516.11328125,-136.71875,-81.0546875,-428.22265625,0.0,0,0
1772276387.1306171,1772276387.0805345,261.23046875,73.2421875,12.6953125,96.6796875,0.0,0,0
1772276387.130634,1772276387.0844269,631.34765625,64.94140625,49.31640625,387.6953125,0.0,0,0
1772276387.1306581,1772276387.0883195,394.04296875,-29.78515625,12.6953125,259.27734375,0.0,0,0
1772276387.1757498,1772276387.0923364,-352.5390625,-171.875,-71.77734375,-272.94921875,0.0,0,0
1772276387.175861,1772276387.096229,-517.578125,-160.64453125,-95.703125,-469.23828125,0.0,0,0
1772276387.175915,1772276387.1001217,135.7421875,49.31640625,-10.7421875,7.32421875,0.0,0,0
1772276387.175959,1772276387.1040142,535.15625,116.69921875,56.640625,371.58203125,0.0,0,0
1772276387.1759849,1772276387.1079068,394.53125,37.59765625,45.41015625,306.15234375,0.0,0,0
1772276387.176034,1772276387.1117995,-405.76171875,-120.60546875,-40.0390625,-250.9765625,0.0,0,0
1772276387.176186,1772276387.1156921,-690.4296875,-139.6484375,-78.61328125,-498.046875,0.0,0,0
1772276387.1762161,1772276387.1195848,-81.54296875,24.90234375,-31.73828125,-102.05078125,0.0,0,0
1772276387.176241,1772276387.1234772,485.3515625,74.21875,42.96875,330.56640625,0.0,0,0
1772276387.176266,1772276387.1273699,436.5234375,-3.90625,46.38671875,345.703125,0.0,0,0
1772276387.17629,1772276387.1312625,-312.01171875,-157.71484375,-67.87109375,-210.9375,0.0,0,0
1772276387.176314,1772276387.1351552,-594.23828125,-181.15234375,-108.88671875,-486.81640625,0.0,0,0
1772276387.225198,1772276387.1392329,-126.46484375,-10.7421875,-36.62109375,-174.31640625,0.0,0,0
1772276387.2255738,1772276387.1431255,486.328125,87.40234375,41.9921875,312.5,0.0,0,0
1772276387.226437,1772276387.1470182,553.22265625,28.80859375,41.015625,406.73828125,0.0,0,0
1772276387.227319,1772276387.1509109,-186.03515625,-157.2265625,-53.7109375,-109.375,0.0,0,0
1772276387.227531,1772276387.1548035,-550.78125,-149.90234375,-94.7265625,-422.36328125,0.0,0,0
1772276387.227628,1772276387.1586962,-162.109375,4.8828125,-47.36328125,-200.1953125,0.0,0,0
1772276387.228411,1772276387.1625888,517.578125,84.9609375,27.34375,311.5234375,0.0,0,0
1772276387.228508,1772276387.1664815,605.95703125,47.8515625,39.0625,444.82421875,0.0,0,0
1772276387.228543,1772276387.1703742,-141.11328125,-142.578125,-48.33984375,-46.875,0.0,0,0
1772276387.2286038,1772276387.1742666,-576.171875,-163.0859375,-103.02734375,-411.62109375,0.0,0,0
1772276387.228637,1772276387.1781592,-276.3671875,-25.390625,-60.546875,-265.625,0.0,0,0
1772276387.2287161,1772276387.182052,391.6015625,102.5390625,19.53125,233.3984375,0.0,0,0
1772276387.265339,1772276387.1861205,540.0390625,83.0078125,42.48046875,413.57421875,0.0,0,0
1772276387.265453,1772276387.1900132,-89.35546875,-125.0,-11.23046875,17.08984375,0.0,0,0
1772276387.265482,1772276387.1939058,-646.484375,-186.5234375,-83.0078125,-416.50390625,0.0,0,0
1772276387.2655091,1772276387.1977985,-500.0,-52.734375,-70.80078125,-347.16796875,0.0,0,0
1772276387.265533,1772276387.2016912,232.421875,119.140625,31.25,188.4765625,0.0,0,0
1772276387.2655559,1772276387.2055838,429.6875,121.09375,51.7578125,385.25390625,0.0,0,0
1772276387.26558,1772276387.2094765,-85.9375,-65.91796875,-18.5546875,42.96875,0.0,0,0
1772276387.2656052,1772276387.2133691,-676.26953125,-173.33984375,-90.33203125,-436.5234375,0.0,0,0
1772276387.2656288,1772276387.2172618,-594.23828125,-74.70703125,-77.1484375,-419.921875,0.0,0,0
1772276387.265653,1772276387.2211545,200.1953125,106.93359375,21.97265625,133.30078125,0.0,0,0
1772276387.265677,1772276387.225047,421.875,97.65625,45.41015625,368.65234375,0.0,0,0
1772276387.2657,1772276387.2289398,-6.8359375,-34.1796875,-13.18359375,125.0,0.0,0,0
1772276387.3131788,1772276387.233,-630.37109375,-137.6953125,-93.26171875,-380.37109375,0.0,0,0
1772276387.313306,1772276387.2368927,-605.95703125,-98.14453125,-91.796875,-464.35546875,0.0,0,0
1772276387.313356,1772276387.2407854,163.0859375,81.54296875,-0.48828125,74.70703125,0.0,0,0
1772276387.313382,1772276387.244678,476.07421875,113.28125,40.0390625,374.0234375,0.0,0,0
1772276387.313405,1772276387.2485707,214.35546875,-5.859375,-0.9765625,198.2421875,0.0,0,0
1772276387.313426,1772276387.2524633,-517.08984375,-138.671875,-91.796875,-352.05078125,0.0,0,0
1772276387.313448,1772276387.256356,-670.41015625,-100.5859375,-105.95703125,-504.8828125,0.0,0,0
1772276387.313469,1772276387.2602487,68.84765625,77.63671875,-17.578125,10.7421875,0.0,0,0
1772276387.31349,1772276387.2641416,489.2578125,105.46875,21.97265625,354.4921875,0.0,0,0
1772276387.3135118,1772276387.2680342,339.84375,2.44140625,-2.44140625,244.140625,0.0,0,0
1772276387.3135629,1772276387.2719269,-419.43359375,-156.73828125,-73.73046875,-301.26953125,0.0,0,0
1772276387.313612,1772276387.2758195,-682.12890625,-133.7890625,-91.796875,-505.859375,0.0,0,0
1772276387.369386,1772276387.2798676,-44.921875,77.1484375,-19.04296875,-62.5,0.0,0,0
1772276387.3694332,1772276387.2837603,508.7890625,152.34375,34.1796875,334.9609375,0.0,0,0
1772276387.3694458,1772276387.287653,457.51953125,63.4765625,25.87890625,305.17578125,0.0,0,0
1772276387.369458,1772276387.2915459,-284.66796875,-140.13671875,-58.10546875,-229.4921875,0.0,0,0
1772276387.369473,1772276387.2954385,-565.4296875,-151.3671875,-83.49609375,-496.09375,0.0,0,0
1772276387.369484,1772276387.2993312,-101.5625,37.59765625,-22.4609375,-133.30078125,0.0,0,0
1772276387.369497,1772276387.3032238,431.15234375,103.515625,32.71484375,336.42578125,0.0,0,0
1772276387.369508,1772276387.3071167,391.11328125,15.625,20.99609375,371.58203125,0.0,0,0
1772276387.3695202,1772276387.3110094,-360.83984375,-159.66796875,-85.44921875,-166.50390625,0.0,0,0
1772276387.369531,1772276387.314902,-649.90234375,-161.62109375,-121.09375,-452.1484375,0.0,0,0
1772276387.3695428,1772276387.3187947,-247.0703125,1.953125,-65.4296875,-189.453125,0.0,0,0
1772276387.3695538,1772276387.3226874,422.8515625,139.6484375,22.4609375,291.015625,0.0,0,0
1772276387.414114,1772276387.326726,503.90625,95.703125,37.109375,402.34375,0.0,0,0
1772276387.41415,1772276387.3306186,-252.9296875,-100.09765625,-52.734375,-92.7734375,0.0,0,0
1772276387.414164,1772276387.3345113,-645.01953125,-117.67578125,-89.84375,-429.19921875,0.0,0,0
1772276387.414177,1772276387.338404,-338.37890625,-3.90625,-60.05859375,-242.67578125,0.0,0,0
1772276387.414189,1772276387.3422968,329.1015625,116.2109375,-3.90625,263.18359375,0.0,0,0
1772276387.4142022,1772276387.3461895,534.1796875,111.81640625,8.7890625,415.0390625,0.0,0,0
1772276387.4142148,1772276387.3500822,-69.82421875,-96.19140625,-63.4765625,-31.73828125,0.0,0,0
1772276387.414228,1772276387.353975,-602.05078125,-160.64453125,-118.1640625,-445.80078125,0.0,0,0
1772276387.414264,1772276387.3578677,-382.8125,-31.25,-77.1484375,-331.0546875,0.0,0,0
1772276387.4142962,1772276387.3617604,304.19921875,100.5859375,16.6015625,203.61328125,0.0,0,0
1772276387.414312,1772276387.3656533,470.703125,83.0078125,41.015625,392.08984375,0.0,0,0
1772276387.414326,1772276387.369546,-74.70703125,-101.5625,-39.55078125,6.8359375,0.0,0,0
1772276387.4457989,1772276387.3735805,-677.734375,-192.87109375,-114.74609375,-431.15234375,0.0,0,0
1772276387.445827,1772276387.3774734,-495.60546875,-81.0546875,-96.19140625,-358.3984375,0.0,0,0
1772276387.445845,1772276387.381366,339.84375,110.83984375,2.44140625,191.40625,0.0,0,0
1772276387.4458618,1772276387.385259,511.71875,99.12109375,47.36328125,413.0859375,0.0,0,0
1772276387.4458811,1772276387.3891516,71.2890625,-85.9375,-16.11328125,122.0703125,0.0,0,0
1772276387.445898,1772276387.3930442,-541.9921875,-172.8515625,-96.19140625,-365.72265625,0.0,0,0
1772276387.445915,1772276387.3969371,-550.29296875,-59.08203125,-86.42578125,-401.3671875,0.0,0,0
1772276387.4459321,1772276387.4008298,243.1640625,131.34765625,10.25390625,161.1328125,0.0,0,0
1772276387.4459488,1772276387.4047225,551.7578125,118.1640625,29.78515625,418.45703125,0.0,0,0
1772276387.445992,1772276387.4086154,242.67578125,-15.13671875,-16.6015625,197.75390625,0.0,0,0
1772276387.446014,1772276387.412508,-440.4296875,-137.6953125,-81.0546875,-322.265625,0.0,0,0
1772276387.4460318,1772276387.416401,-559.08203125,-105.46875,-88.8671875,-422.36328125,0.0,0,0
1772276387.50384,1772276387.4204175,166.015625,63.96484375,0.9765625,107.421875,0.0,0,0
1772276387.503893,1772276387.4243104,572.265625,65.4296875,48.828125,419.921875,0.0,0,0
1772276387.50392,1772276387.428203,361.81640625,-27.83203125,16.6015625,280.76171875,0.0,0,0
1772276387.503946,1772276387.432096,-416.9921875,-164.0625,-75.1953125,-275.87890625,0.0,0,0
1772276387.5039701,1772276387.4359887,-648.92578125,-152.83203125,-91.796875,-450.68359375,0.0,0,0
1772276387.5039942,1772276387.4398816,46.875,61.5234375,-2.9296875,9.27734375,0.0,0,0
1772276387.5040169,1772276387.4437742,514.6484375,124.51171875,45.8984375,375.48828125,0.0,0,0
1772276387.504072,1772276387.4476671,324.21875,29.296875,12.6953125,315.91796875,0.0,0,0
1772276387.504131,1772276387.4515598,-410.64453125,-145.01953125,-76.66015625,-234.86328125,0.0,0,0
1772276387.50416,1772276387.4554527,-597.16796875,-148.92578125,-92.28515625,-475.09765625,0.0,0,0
1772276387.504272,1772276387.4593453,6.8359375,31.25,-20.5078125,-83.49609375,0.0,0,0
1772276387.5043,1772276387.4632382,558.10546875,110.83984375,41.015625,363.76953125,0.0,0,0
1772276387.550154,1772276387.4672477,557.12890625,28.3203125,31.25,377.9296875,0.0,0,0
1772276387.5502322,1772276387.4711406,-164.55078125,-169.43359375,-48.828125,-186.5234375,0.0,0,0
1772276387.55026,1772276387.4750333,-521.97265625,-173.33984375,-79.1015625,-477.5390625,0.0,0,0
1772276387.550285,1772276387.4789262,-53.22265625,1.46484375,-17.578125,-141.11328125,0.0,0,0
1772276387.550313,1772276387.4828188,612.79296875,100.5859375,43.9453125,318.84765625,0.0,0,0
1772276387.550337,1772276387.4867117,607.91015625,62.5,34.1796875,363.28125,0.0,0,0
1772276387.5503628,1772276387.4906044,-199.70703125,-120.60546875,-35.15625,-157.71484375,0.0,0,0
1772276387.5504231,1772276387.4944973,-551.26953125,-149.90234375,-83.0078125,-459.9609375,0.0,0,0
1772276387.550459,1772276387.49839,-183.10546875,-31.25,-60.546875,-212.890625,0.0,0,0
1772276387.550485,1772276387.5022829,447.75390625,87.890625,11.71875,275.87890625,0.0,0,0
1772276387.5505102,1772276387.5061758,578.125,81.0546875,39.0625,428.7109375,0.0,0,0
1772276387.5505338,1772276387.5100684,-105.95703125,-138.18359375,-26.3671875,-45.8984375,0.0,0,0
1772276387.596538,1772276387.514142,-575.1953125,-197.265625,-81.54296875,-408.69140625,0.0,0,0
1772276387.5966132,1772276387.518035,-347.16796875,-69.82421875,-70.80078125,-266.6015625,0.0,0,0
1772276387.596668,1772276387.5219276,341.796875,71.2890625,1.46484375,227.5390625,0.0,0,0
1772276387.5967019,1772276387.5258205,537.59765625,76.171875,31.73828125,407.71484375,0.0,0,0
1772276387.5967271,1772276387.5297134,-45.8984375,-107.91015625,-24.90234375,5.859375,0.0,0,0
1772276387.5967512,1772276387.533606,-571.2890625,-159.66796875,-78.61328125,-416.9921875,0.0,0,0
1772276387.5967748,1772276387.537499,-429.6875,-67.3828125,-76.66015625,-357.421875,0.0,0,0
1772276387.596799,1772276387.5413918,287.59765625,74.70703125,8.7890625,186.5234375,0.0,0,0
1772276387.596823,1772276387.5452845,503.41796875,72.75390625,46.38671875,389.6484375,0.0,0,0
1772276387.596846,1772276387.5491774,49.31640625,-81.54296875,-15.625,44.921875,0.0,0,0
1772276387.59687,1772276387.55307,-559.5703125,-173.828125,-79.1015625,-414.55078125,0.0,0,0
1772276387.5969138,1772276387.556963,-539.0625,-106.93359375,-68.84765625,-415.0390625,0.0,0,0
1772276387.6403341,1772276387.5610287,235.3515625,77.1484375,6.8359375,120.1171875,0.0,0,0
1772276387.6404538,1772276387.5649214,555.17578125,77.63671875,26.85546875,353.515625,0.0,0,0
1772276387.640515,1772276387.5688143,242.67578125,-58.59375,-21.97265625,115.234375,0.0,0,0
1772276387.640542,1772276387.5727072,-424.8046875,-166.015625,-109.375,-395.01953125,0.0,0,0
1772276387.640567,1772276387.5766,-517.08984375,-96.6796875,-104.98046875,-467.28515625,0.0,0,0
1772276387.6405919,1772276387.5804927,184.5703125,123.53515625,-3.90625,83.0078125,0.0,0,0
1772276387.640616,1772276387.5843856,471.6796875,119.62890625,41.9921875,366.69921875,0.0,0,0
1772276387.640641,1772276387.5882785,191.40625,-35.15625,22.94921875,194.82421875,0.0,0,0
1772276387.640665,1772276387.5921714,-533.69140625,-184.08203125,-67.87109375,-351.07421875,0.0,0,0
1772276387.6406898,1772276387.596064,-704.1015625,-122.55859375,-93.75,-499.51171875,0.0,0,0
1772276387.640714,1772276387.599957,26.85546875,97.65625,-7.32421875,-4.8828125,0.0,0,0
1772276387.640737,1772276387.60385,437.01171875,123.53515625,44.921875,340.33203125,0.0,0,0
1772276387.685622,1772276387.6079051,217.7734375,3.41796875,18.5546875,265.13671875,0.0,0,0
1772276387.685717,1772276387.611798,-477.05078125,-180.17578125,-75.68359375,-270.99609375,0.0,0,0
1772276387.685745,1772276387.615691,-664.0625,-161.1328125,-118.65234375,-500.48828125,0.0,0,0
1772276387.685775,1772276387.6195838,-81.0546875,31.25,-35.15625,-68.359375,0.0,0,0
1772276387.685799,1772276387.6234767,395.99609375,70.80078125,37.59765625,351.07421875,0.0,0,0
1772276387.685822,1772276387.6273694,291.015625,-3.41796875,4.8828125,317.87109375,0.0,0,0
1772276387.685846,1772276387.6312623,-479.98046875,-182.12890625,-79.58984375,-229.4921875,0.0,0,0
1772276387.6858711,1772276387.6351552,-710.9375,-184.08203125,-104.00390625,-481.4453125,0.0,0,0
1772276387.685896,1772276387.639048,-138.671875,27.34375,-45.41015625,-125.0,0.0,0,0
1772276387.685919,1772276387.642941,513.18359375,115.72265625,40.0390625,345.21484375,0.0,0,0
1772276387.6859431,1772276387.646834,602.5390625,37.109375,31.25,383.7890625,0.0,0,0
1772276387.685966,1772276387.6507268,-158.203125,-181.640625,-60.546875,-166.9921875,0.0,0,0
1772276387.744725,1772276387.654773,-514.6484375,-194.82421875,-90.8203125,-461.9140625,0.0,0,0
1772276387.744831,1772276387.658666,-94.7265625,-16.6015625,-48.33984375,-194.3359375,0.0,0,0
1772276387.744892,1772276387.6625586,585.44921875,118.65234375,26.85546875,293.45703125,0.0,0,0
1772276387.7449238,1772276387.6664515,656.25,88.37890625,43.9453125,401.85546875,0.0,0,0
1772276387.744954,1772276387.6703444,-101.5625,-139.6484375,-47.36328125,-93.75,0.0,0,0
1772276387.744979,1772276387.6742373,-478.515625,-146.97265625,-102.5390625,-430.17578125,0.0,0,0
1772276387.745004,1772276387.6781301,-192.3828125,-5.37109375,-64.94140625,-234.375,0.0,0,0
1772276387.745027,1772276387.682023,408.69140625,84.9609375,18.5546875,278.3203125,0.0,0,0
1772276387.7450519,1772276387.685916,531.25,70.3125,46.38671875,428.22265625,0.0,0,0
1772276387.74508,1772276387.6898088,-120.60546875,-128.41796875,-42.48046875,-43.9453125,0.0,0,0
1772276387.745108,1772276387.6937017,-636.23046875,-179.6875,-101.07421875,-444.82421875,0.0,0,0
1772276387.7451751,1772276387.6975946,-433.59375,-44.43359375,-55.6640625,-297.8515625,0.0,0,0
1772276387.775635,1772276387.7016304,245.1171875,101.5625,21.484375,228.02734375,0.0,0,0
1772276387.775723,1772276387.7055233,399.4140625,81.0546875,31.25,413.57421875,0.0,0,0
1772276387.77575,1772276387.7094162,-123.53515625,-102.5390625,-22.94921875,58.10546875,0.0,0,0
1772276387.775777,1772276387.713309,-678.7109375,-189.453125,-80.56640625,-415.0390625,0.0,0,0
1772276387.7758021,1772276387.717202,-534.1796875,-89.84375,-60.05859375,-351.07421875,0.0,0,0
1772276387.7758331,1772276387.7210948,236.81640625,86.42578125,33.203125,213.37890625,0.0,0,0
1772276387.775888,1772276387.7249877,446.2890625,71.2890625,58.10546875,395.01953125,0.0,0,0
1772276387.775935,1772276387.7288806,81.54296875,-55.6640625,3.90625,122.0703125,0.0,0,0
1772276387.775965,1772276387.7327735,-531.25,-147.4609375,-63.4765625,-374.51171875,0.0,0,0
1772276387.775991,1772276387.7366664,-531.73828125,-92.28515625,-51.7578125,-428.22265625,0.0,0,0
1772276387.776015,1772276387.7405593,208.984375,103.515625,35.64453125,125.48828125,0.0,0,0
1772276387.7760398,1772276387.7444522,466.796875,107.421875,79.58984375,384.27734375,0.0,0,0
1772276387.821416,1772276387.7484787,102.5390625,-41.015625,32.2265625,176.26953125,0.0,0,0
1772276387.8215868,1772276387.7523715,-598.6328125,-185.546875,-64.453125,-357.91015625,0.0,0,0
1772276387.821666,1772276387.7562644,-697.265625,-127.9296875,-76.171875,-481.93359375,0.0,0,0
1772276387.821803,1772276387.7601573,5.859375,83.0078125,14.16015625,48.828125,0.0,0,0
1772276387.821831,1772276387.7640502,391.6015625,91.30859375,60.546875,371.58203125,0.0,0,0
1772276387.821892,1772276387.7679431,224.609375,-14.16015625,38.0859375,252.44140625,0.0,0,0
1772276387.8219242,1772276387.771836,-488.76953125,-148.92578125,-41.9921875,-291.015625,0.0,0,0
1772276387.822002,1772276387.775729,-616.69921875,-143.06640625,-58.59375,-471.6796875,0.0,0,0
1772276387.8220532,1772276387.779622,118.65234375,21.97265625,21.97265625,8.7890625,0.0,0,0
1772276387.822168,1772276387.783515,583.49609375,84.9609375,60.546875,371.58203125,0.0,0,0
1772276387.8222349,1772276387.7874079,443.359375,6.8359375,30.2734375,307.12890625,0.0,0,0
1772276387.822298,1772276387.7913008,-310.05859375,-171.38671875,-64.453125,-245.60546875,0.0,0,0
1772276387.866503,1772276387.7953176,-528.3203125,-158.203125,-91.30859375,-499.0234375,0.0,0,0
1772276387.8665879,1772276387.7992105,62.5,44.921875,-12.6953125,-104.4921875,0.0,0,0
1772276387.866682,1772276387.8031037,636.23046875,119.62890625,50.29296875,331.54296875,0.0,0,0
1772276387.866709,1772276387.8069966,643.5546875,56.15234375,46.875,346.19140625,0.0,0,0
1772276387.8667362,1772276387.8108895,-159.1796875,-122.0703125,-26.3671875,-171.875,0.0,0,0
1772276387.86676,1772276387.8147824,-563.96484375,-120.1171875,-52.734375,-434.08203125,0.0,0,0
1772276387.866784,1772276387.8186753,-165.0390625,24.90234375,-5.859375,-154.78515625,0.0,0,0
1772276387.866807,1772276387.8225682,433.59375,107.421875,54.6875,311.03515625,0.0,0,0
1772276387.86683,1772276387.8264613,475.09765625,64.453125,46.875,394.04296875,0.0,0,0
1772276387.8668532,1772276387.8303542,-268.5546875,-141.6015625,-37.59765625,-124.51171875,0.0,0,0
1772276387.8668811,1772276387.834247,-661.1328125,-162.59765625,-83.0078125,-437.5,0.0,0,0
1772276387.866903,1772276387.83814,-309.08203125,6.8359375,-47.8515625,-225.5859375,0.0,0,0
1772276387.925612,1772276387.8422236,395.01953125,128.41796875,31.25,282.71484375,0.0,0,0
1772276387.925805,1772276387.8461168,526.3671875,82.51953125,46.38671875,424.8046875,0.0,0,0
1772276387.926046,1772276387.8500097,-174.8046875,-108.88671875,-28.3203125,-47.36328125,0.0,0,0
1772276387.926191,1772276387.8539026,-592.28515625,-139.16015625,-74.70703125,-403.3203125,0.0,0,0
1772276387.926234,1772276387.8577955,-303.7109375,-18.5546875,-59.5703125,-264.6484375,0.0,0,0
1772276387.926261,1772276387.8616886,367.1875,126.46484375,24.90234375,250.0,0.0,0,0
1772276387.926286,1772276387.8655815,558.59375,104.4921875,64.453125,442.3828125,0.0,0,0
1772276387.926312,1772276387.8694744,-41.50390625,-118.1640625,-18.5546875,40.52734375,0.0,0,0
1772276387.9263518,1772276387.8733675,-623.53515625,-170.8984375,-87.890625,-392.578125,0.0,0,0
1772276387.926379,1772276387.8772604,-491.2109375,-41.9921875,-62.01171875,-320.80078125,0.0,0,0
1772276387.926403,1772276387.8811533,231.4453125,113.28125,15.13671875,184.5703125,0.0,0,0
1772276387.926427,1772276387.8850465,500.9765625,93.26171875,38.0859375,392.08984375,0.0,0,0
1772276387.9708369,1772276387.88912,55.6640625,-75.1953125,-20.01953125,115.72265625,0.0,0,0
1772276387.9709299,1772276387.893013,-575.1953125,-181.15234375,-92.7734375,-364.74609375,0.0,0,0
1772276387.971,1772276387.8969061,-572.75390625,-105.95703125,-90.33203125,-388.671875,0.0,0,0
1772276387.971027,1772276387.900799,212.40234375,85.9375,7.32421875,169.921875,0.0,0,0
1772276387.9710531,1772276387.9046922,500.0,71.77734375,37.109375,423.828125,0.0,0,0
1772276387.9710772,1772276387.908585,164.0625,-59.5703125,-33.203125,172.36328125,0.0,0,0
1772276387.971141,1772276387.912478,-464.35546875,-173.828125,-118.65234375,-360.3515625,0.0,0,0
1772276387.97118,1772276387.916371,-571.77734375,-126.46484375,-117.67578125,-466.796875,0.0,0,0
1772276387.971222,1772276387.920264,152.34375,76.66015625,-21.484375,77.63671875,0.0,0,0
1772276387.971286,1772276387.9241571,495.1171875,102.5390625,22.4609375,396.484375,0.0,0,0
1772276387.971315,1772276387.92805,240.234375,-7.32421875,-10.7421875,237.79296875,0.0,0,0
1772276387.971355,1772276387.931943,-508.7890625,-174.31640625,-92.7734375,-309.5703125,0.0,0,0
1772276388.016727,1772276387.9360073,-663.57421875,-156.73828125,-112.3046875,-478.02734375,0.0,0,0
1772276388.016853,1772276387.9399002,121.09375,53.22265625,-35.15625,31.25,0.0,0,0
1772276388.016926,1772276387.9437933,541.50390625,94.7265625,6.34765625,394.53125,0.0,0,0
1772276388.016992,1772276387.9476862,280.2734375,5.859375,-11.23046875,299.31640625,0.0,0,0
1772276388.017023,1772276387.9515793,-476.07421875,-161.1328125,-95.21484375,-259.27734375,0.0,0,0
1772276388.0170481,1772276387.9554722,-661.62109375,-153.80859375,-108.3984375,-462.890625,0.0,0,0
1772276388.017073,1772276387.9593654,-41.015625,37.59765625,-31.25,-5.37109375,0.0,0,0
1772276388.017098,1772276387.9632583,471.6796875,80.56640625,6.34765625,411.62109375,0.0,0,0
1772276388.017122,1772276387.9671514,404.78515625,-2.44140625,-10.7421875,383.7890625,0.0,0,0
1772276388.017161,1772276387.9710443,-366.2109375,-158.69140625,-91.30859375,-166.9921875,0.0,0,0
1772276388.01719,1772276387.9749374,-655.2734375,-154.296875,-116.69921875,-431.640625,0.0,0,0
1772276388.017236,1772276387.9788303,-139.6484375,14.6484375,-37.109375,-92.7734375,0.0,0,0
1772276388.060322,1772276387.982884,459.47265625,87.890625,34.66796875,374.0234375,0.0,0,0
1772276388.060419,1772276387.986777,459.9609375,29.296875,15.13671875,420.41015625,0.0,0,0
1772276388.060447,1772276387.99067,-297.36328125,-142.578125,-90.33203125,-139.6484375,0.0,0,0
1772276388.0604732,1772276387.994563,-660.15625,-147.94921875,-121.58203125,-461.42578125,0.0,0,0
1772276388.060498,1772276387.9984562,-300.29296875,-2.9296875,-62.98828125,-210.9375,0.0,0,0
1772276388.060522,1772276388.0023491,318.84765625,113.76953125,21.484375,286.1328125,0.0,0,0
1772276388.0605462,1772276388.0062423,453.125,79.58984375,39.55078125,402.34375,0.0,0,0
1772276388.0605812,1772276388.0101352,-196.2890625,-145.01953125,-56.640625,-84.47265625,0.0,0,0
1772276388.060606,1772276388.0140283,-654.296875,-166.015625,-99.12109375,-425.29296875,0.0,0,0
1772276388.060629,1772276388.0179214,-440.91796875,-29.78515625,-67.3828125,-270.01953125,0.0,0,0
1772276388.060653,1772276388.0218143,287.59765625,87.890625,12.20703125,253.41796875,0.0,0,0
1772276388.060677,1772276388.0257075,516.6015625,83.49609375,52.734375,438.4765625,0.0,0,0
1772276388.105226,1772276388.029752,-111.328125,-125.48828125,-22.4609375,-10.25390625,0.0,0,0
1772276388.105356,1772276388.0336452,-635.25390625,-189.94140625,-76.66015625,-414.0625,0.0,0,0
1772276388.105398,1772276388.0375383,-445.80078125,-68.359375,-49.31640625,-304.6875,0.0,0,0
1772276388.105425,1772276388.0414312,287.109375,91.796875,33.203125,229.98046875,0.0,0,0
1772276388.105479,1772276388.0453243,432.6171875,75.1953125,59.08203125,437.5,0.0,0,0
1772276388.105522,1772276388.0492175,-125.0,-113.28125,-13.18359375,77.63671875,0.0,0,0
1772276388.1055481,1772276388.0531106,-654.296875,-196.77734375,-76.66015625,-395.99609375,0.0,0,0
1772276388.105574,1772276388.0570035,-548.828125,-105.46875,-73.73046875,-371.09375,0.0,0,0
1772276388.105598,1772276388.0608966,189.94140625,73.73046875,0.48828125,169.43359375,0.0,0,0
1772276388.105623,1772276388.0647898,449.70703125,80.56640625,42.96875,405.76171875,0.0,0,0
1772276388.105647,1772276388.0686827,15.13671875,-73.73046875,-3.90625,157.2265625,0.0,0,0
1772276388.105671,1772276388.0725758,-635.7421875,-185.05859375,-92.7734375,-357.421875,0.0,0,0
1772276388.151828,1772276388.07661,-622.0703125,-121.09375,-83.984375,-439.94140625,0.0,0,0
1772276388.151916,1772276388.080503,117.67578125,60.546875,0.48828125,86.42578125,0.0,0,0
1772276388.151981,1772276388.0843961,399.4140625,78.125,37.59765625,369.140625,0.0,0,0
1772276388.15201,1772276388.0882893,135.7421875,-34.1796875,18.5546875,199.21875,0.0,0,0
1772276388.1520362,1772276388.0921824,-520.99609375,-168.45703125,-80.56640625,-343.75,0.0,0,0
1772276388.1520782,1772276388.0960755,-627.44140625,-115.72265625,-103.515625,-493.1640625,0.0,0,0
1772276388.152122,1772276388.0999684,75.68359375,70.80078125,-10.25390625,26.3671875,0.0,0,0
1772276388.1521559,1772276388.1038616,403.3203125,90.8203125,26.3671875,345.21484375,0.0,0,0
1772276388.152182,1772276388.1077547,215.8203125,-11.71875,-1.46484375,234.86328125,0.0,0,0
1772276388.1522062,1772276388.1116478,-496.58203125,-185.05859375,-87.40234375,-281.25,0.0,0,0
1772276388.1522298,1772276388.1155407,-720.703125,-157.2265625,-109.375,-477.5390625,0.0,0,0
1772276388.152255,1772276388.1194339,-57.6171875,60.546875,-23.92578125,-24.4140625,0.0,0,0
1772276388.195719,1772276388.1234586,458.49609375,117.67578125,41.9921875,384.27734375,0.0,0,0
1772276388.195807,1772276388.1273518,415.0390625,12.6953125,20.01953125,347.16796875,0.0,0,0
1772276388.1958342,1772276388.131245,-348.14453125,-149.90234375,-70.80078125,-212.40234375,0.0,0,0
1772276388.195859,1772276388.135138,-697.75390625,-152.83203125,-92.28515625,-467.7734375,0.0,0,0
1772276388.195883,1772276388.1390312,-108.88671875,13.671875,-26.85546875,-98.14453125,0.0,0,0
1772276388.195907,1772276388.142924,516.11328125,108.3984375,32.2265625,348.14453125,0.0,0,0
1772276388.196011,1772276388.1468172,533.69140625,53.22265625,22.94921875,375.9765625,0.0,0,0
1772276388.196037,1772276388.1507103,-250.9765625,-140.625,-61.03515625,-155.2734375,0.0,0,0
1772276388.196061,1772276388.1546035,-633.30078125,-155.76171875,-103.02734375,-427.24609375,0.0,0,0
1772276388.196085,1772276388.1584966,-208.0078125,20.01953125,-53.7109375,-142.578125,0.0,0,0
1772276388.196109,1772276388.1623898,391.6015625,127.44140625,31.73828125,320.80078125,0.0,0,0
1772276388.196152,1772276388.166283,418.9453125,56.15234375,46.38671875,391.11328125,0.0,0,0
1772276388.240129,1772276388.1702974,-293.45703125,-151.85546875,-46.875,-128.41796875,0.0,0,0
1772276388.2402198,1772276388.1741905,-673.828125,-158.69140625,-88.37890625,-451.171875,0.0,0,0
1772276388.240248,1772276388.1780837,-353.02734375,-18.5546875,-45.8984375,-232.91015625,0.0,0,0
1772276388.240274,1772276388.1819768,332.51953125,101.5625,42.96875,268.5546875,0.0,0,0
1772276388.2403011,1772276388.18587,445.3125,55.6640625,60.546875,395.01953125,0.0,0,0
1772276388.2403252,1772276388.189763,-229.4921875,-138.671875,-33.203125,-48.828125,0.0,0,0
1772276388.240373,1772276388.1936562,-686.03515625,-143.5546875,-89.35546875,-409.66796875,0.0,0,0
1772276388.240404,1772276388.1975493,-464.84375,-37.59765625,-62.5,-293.9453125,0.0,0,0
1772276388.2404659,1772276388.2014425,270.99609375,79.58984375,16.11328125,196.2890625,0.0,0,0
1772276388.24051,1772276388.2053356,443.359375,80.078125,38.57421875,375.9765625,0.0,0,0
1772276388.240552,1772276388.2092288,-152.34375,-110.3515625,-27.83203125,-4.39453125,0.0,0,0
1772276388.2406049,1772276388.2131217,-686.03515625,-176.7578125,-81.0546875,-430.17578125,0.0,0,0
1772276388.299941,1772276388.2171283,-545.8984375,-62.01171875,-58.59375,-369.140625,0.0,0,0
1772276388.30012,1772276388.2210214,251.46484375,85.44921875,28.80859375,175.29296875,0.0,0,0
1772276388.3001542,1772276388.2249146,538.57421875,66.40625,66.89453125,405.2734375,0.0,0,0
1772276388.30018,1772276388.2288077,57.6171875,-97.65625,8.7890625,84.47265625,0.0,0,0
1772276388.300204,1772276388.2327008,-570.80078125,-185.05859375,-83.984375,-408.69140625,0.0,0,0
1772276388.300231,1772276388.236594,-561.5234375,-82.03125,-83.49609375,-434.08203125,0.0,0,0
1772276388.300277,1772276388.240487,118.1640625,104.4921875,5.37109375,102.05078125,0.0,0,0
1772276388.300315,1772276388.2443802,399.90234375,62.01171875,35.64453125,361.81640625,0.0,0,0
1772276388.300342,1772276388.2482734,130.859375,-73.73046875,0.48828125,157.71484375,0.0,0,0
1772276388.300371,1772276388.2521665,-513.18359375,-169.43359375,-84.47265625,-354.00390625,0.0,0,0
1772276388.300399,1772276388.2560596,-649.90234375,-120.1171875,-99.12109375,-471.6796875,0.0,0,0
1772276388.300423,1772276388.2599528,65.4296875,70.80078125,-4.8828125,51.26953125,0.0,0,0
1772276388.344993,1772276388.2640224,460.44921875,80.078125,46.875,368.1640625,0.0,0,0
1772276388.3450692,1772276388.2679157,250.48828125,-40.52734375,20.99609375,237.3046875,0.0,0,0
1772276388.345098,1772276388.2718089,-409.1796875,-205.56640625,-78.61328125,-301.26953125,0.0,0,0
1772276388.345124,1772276388.275702,-562.5,-171.38671875,-103.515625,-470.703125,0.0,0,0
1772276388.3451478,1772276388.2795951,127.9296875,56.640625,-34.66796875,12.6953125,0.0,0,0
1772276388.345172,1772276388.2834883,595.703125,105.46875,16.6015625,382.32421875,0.0,0,0
1772276388.345196,1772276388.2873814,477.5390625,-9.27734375,12.20703125,312.5,0.0,0,0
1772276388.34522,1772276388.2912745,-221.19140625,-188.4765625,-73.2421875,-229.98046875,0.0,0,0
1772276388.345279,1772276388.2951677,-503.41796875,-169.921875,-96.19140625,-445.80078125,0.0,0,0
1772276388.345336,1772276388.2990608,61.5234375,46.38671875,-34.1796875,-45.8984375,0.0,0,0
1772276388.3453598,1772276388.3029542,596.6796875,115.234375,22.94921875,376.953125,0.0,0,0
1772276388.345464,1772276388.3068473,543.45703125,28.3203125,19.04296875,380.37109375,0.0,0,0
1772276388.4206562,1772276388.3110583,-170.41015625,-162.59765625,-89.84375,-179.19921875,0.0,0,0
1772276388.4207811,1772276388.3149517,-434.08203125,-172.36328125,-137.20703125,-447.265625,0.0,0,0
1772276388.4208121,1772276388.3188448,88.37890625,15.625,-62.01171875,-102.5390625,0.0,0,0
1772276388.4208379,1772276388.322738,632.32421875,117.67578125,19.04296875,375.0,0.0,0,0
1772276388.4209,1772276388.326631,624.0234375,69.82421875,33.69140625,427.734375,0.0,0,0
1772276388.4209301,1772276388.3305244,-71.77734375,-123.53515625,-41.015625,-117.1875,0.0,0,0
1772276388.42096,1772276388.3344176,-413.0859375,-145.01953125,-92.28515625,-439.453125,0.0,0,0
1772276388.420985,1772276388.3383107,-55.17578125,-11.23046875,-56.640625,-221.19140625,0.0,0,0
1772276388.42101,1772276388.342204,584.9609375,101.5625,17.08984375,252.9296875,0.0,0,0
1772276388.421035,1772276388.3460972,703.125,88.8671875,23.4375,368.1640625,0.0,0,0
1772276388.421061,1772276388.3499904,9.27734375,-113.76953125,-54.19921875,-108.3984375,0.0,0,0
1772276388.4210858,1772276388.3538835,-452.63671875,-145.99609375,-91.30859375,-452.63671875,0.0,0,0
1772276388.4361548,1772276388.3579435,-221.19140625,-8.30078125,-37.109375,-294.43359375,0.0,0,0
1772276388.436248,1772276388.3618367,467.7734375,112.3046875,53.7109375,214.84375,0.0,0,0
1772276388.436279,1772276388.36573,639.6484375,96.19140625,59.5703125,394.53125,0.0,0,0
1772276388.4363048,1772276388.3696232,34.66796875,-94.7265625,-17.578125,-23.4375,0.0,0,0
1772276388.43633,1772276388.3735163,-452.63671875,-157.71484375,-74.70703125,-443.84765625,0.0,0,0
1772276388.4363542,1772276388.3774097,-253.90625,-20.99609375,-63.4765625,-345.21484375,0.0,0,0
1772276388.436378,1772276388.3813028,473.14453125,108.88671875,17.578125,194.82421875,0.0,0,0
1772276388.4364018,1772276388.3851962,698.2421875,75.68359375,39.55078125,406.25,0.0,0,0
1772276388.436436,1772276388.3890893,212.40234375,-109.86328125,-26.85546875,54.6875,0.0,0,0
1772276388.436461,1772276388.3929825,-383.7890625,-215.33203125,-80.078125,-402.34375,0.0,0,0
1772276388.436484,1772276388.3968759,-341.796875,-113.76953125,-62.98828125,-365.72265625,0.0,0,0
1772276388.436509,1772276388.400769,340.8203125,83.984375,3.90625,145.5078125,0.0,0,0
1772276388.480716,1772276388.404811,561.5234375,101.07421875,33.203125,369.140625,0.0,0,0
1772276388.4808488,1772276388.408704,176.26953125,-61.03515625,-8.30078125,135.7421875,0.0,0,0
1772276388.480895,1772276388.4125974,-456.54296875,-172.8515625,-103.02734375,-368.65234375,0.0,0,0
1772276388.480934,1772276388.4164906,-482.421875,-99.12109375,-103.02734375,-427.734375,0.0,0,0
1772276388.480971,1772276388.420384,229.98046875,91.796875,-9.765625,118.65234375,0.0,0,0
1772276388.481009,1772276388.424277,504.8828125,96.6796875,18.5546875,406.25,0.0,0,0
1772276388.481079,1772276388.4281704,166.50390625,-33.69140625,-23.4375,225.5859375,0.0,0,0
1772276388.481181,1772276388.4320636,-545.8984375,-154.296875,-100.5859375,-333.984375,0.0,0,0
1772276388.481225,1772276388.435957,-621.58203125,-109.375,-101.07421875,-476.5625,0.0,0,0
1772276388.481341,1772276388.43985,116.69921875,73.73046875,-21.97265625,21.484375,0.0,0,0
1772276388.48144,1772276388.4437435,523.92578125,79.58984375,5.859375,351.5625,0.0,0,0
1772276388.481493,1772276388.4476366,307.6171875,-30.2734375,-17.578125,255.859375,0.0,0,0
1772276388.539052,1772276388.451671,-415.52734375,-174.8046875,-84.47265625,-271.97265625,0.0,0,0
1772276388.539142,1772276388.455564,-641.6015625,-155.76171875,-92.7734375,-477.5390625,0.0,0,0
1772276388.5394502,1772276388.4594574,-47.36328125,56.15234375,-17.578125,-51.7578125,0.0,0,0
1772276388.5396218,1772276388.4633508,420.8984375,101.07421875,22.4609375,333.49609375,0.0,0,0
1772276388.539685,1772276388.467244,262.6953125,0.48828125,8.30078125,293.9453125,0.0,0,0
1772276388.5397341,1772276388.4711373,-450.1953125,-157.71484375,-62.01171875,-248.046875,0.0,0,0
1772276388.539812,1772276388.4750304,-665.52734375,-165.52734375,-90.8203125,-508.7890625,0.0,0,0
1772276388.539849,1772276388.4789238,-56.640625,6.34765625,-30.2734375,-147.4609375,0.0,0,0
1772276388.5399091,1772276388.482817,623.53515625,106.4453125,37.59765625,325.1953125,0.0,0,0
1772276388.540053,1772276388.4867103,629.39453125,42.96875,47.8515625,342.7734375,0.0,0,0
1772276388.540084,1772276388.4906037,-120.1171875,-167.48046875,-43.45703125,-212.40234375,0.0,0,0
1772276388.540164,1772276388.4944968,-461.42578125,-185.05859375,-96.19140625,-470.703125,0.0,0,0
1772276388.571556,1772276388.4985204,-57.6171875,-17.578125,-42.96875,-192.3828125,0.0,0,0
1772276388.5716412,1772276388.5024135,542.96875,105.46875,23.92578125,291.9921875,0.0,0,0
1772276388.5717492,1772276388.506307,562.01171875,71.77734375,20.01953125,381.8359375,0.0,0,0
1772276388.5717812,1772276388.5102,-165.0390625,-138.18359375,-55.6640625,-129.8828125,0.0,0,0
1772276388.571841,1772276388.5140934,-547.36328125,-168.45703125,-95.21484375,-441.40625,0.0,0,0
1772276388.571869,1772276388.5179868,-256.34765625,-26.3671875,-51.7578125,-246.09375,0.0,0,0
1772276388.571894,1772276388.52188,345.21484375,115.234375,28.80859375,248.046875,0.0,0,0
1772276388.571918,1772276388.5257733,511.23046875,83.49609375,43.45703125,381.34765625,0.0,0,0
1772276388.5719419,1772276388.5296667,-102.05078125,-145.99609375,-42.48046875,-85.9375,0.0,0,0
1772276388.5719922,1772276388.5335598,-655.76171875,-185.05859375,-94.7265625,-471.19140625,0.0,0,0
1772276388.5720398,1772276388.5374532,-423.828125,-52.734375,-67.3828125,-336.9140625,0.0,0,0
1772276388.572067,1772276388.5413465,296.875,109.375,1.46484375,205.56640625,0.0,0,0
1772276388.61583,1772276388.5453637,435.05859375,95.703125,27.83203125,417.96875,0.0,0,0
1772276388.615922,1772276388.549257,-36.62109375,-107.421875,-30.76171875,40.0390625,0.0,0,0
1772276388.61595,1772276388.5531502,-583.984375,-181.640625,-90.8203125,-428.22265625,0.0,0,0
1772276388.615975,1772276388.5570436,-522.94921875,-73.2421875,-64.94140625,-397.94921875,0.0,0,0
1772276388.616,1772276388.560937,251.46484375,105.95703125,21.484375,143.06640625,0.0,0,0
1772276388.616024,1772276388.5648303,562.01171875,101.07421875,51.26953125,371.58203125,0.0,0,0
1772276388.616048,1772276388.5687234,246.58203125,-73.73046875,-11.71875,81.54296875,0.0,0,0
1772276388.616072,1772276388.5726168,-338.8671875,-179.19921875,-97.16796875,-408.69140625,0.0,0,0
1772276388.616096,1772276388.5765102,-381.8359375,-93.75,-83.49609375,-433.10546875,0.0,0,0
1772276388.61612,1772276388.5804033,376.46484375,93.26171875,2.44140625,122.0703125,0.0,0,0
1772276388.616144,1772276388.5842967,743.65234375,78.61328125,46.38671875,390.625,0.0,0,0
1772276388.6161668,1772276388.58819,425.29296875,-69.82421875,25.87890625,168.45703125,0.0,0,0
1772276388.676308,1772276388.592194,-349.609375,-181.15234375,-63.4765625,-362.3046875,0.0,0,0
1772276388.6763961,1772276388.5960875,-500.0,-113.28125,-81.0546875,-474.609375,0.0,0,0
1772276388.6764271,1772276388.5999808,236.328125,98.14453125,4.8828125,52.24609375,0.0,0,0
1772276388.676459,1772276388.6038742,599.609375,94.7265625,49.31640625,372.55859375,0.0,0,0
1772276388.676484,1772276388.6077673,319.3359375,-26.85546875,25.87890625,255.859375,0.0,0,0
1772276388.676508,1772276388.6116607,-430.6640625,-142.08984375,-64.453125,-276.3671875,0.0,0,0
1772276388.676533,1772276388.615554,-547.8515625,-112.79296875,-69.82421875,-439.453125,0.0,0,0
1772276388.676556,1772276388.6194475,135.25390625,77.1484375,22.94921875,56.15234375,0.0,0,0
1772276388.6765802,1772276388.6233406,592.28515625,111.328125,60.546875,403.80859375,0.0,0,0
1772276388.6766028,1772276388.627234,446.2890625,13.671875,31.25,320.80078125,0.0,0,0
1772276388.676627,1772276388.6311274,-254.39453125,-149.4140625,-62.98828125,-228.02734375,0.0,0,0
1772276388.67665,1772276388.6350207,-448.73046875,-140.625,-89.84375,-460.9375,0.0,0,0
1772276388.721605,1772276388.6390903,113.76953125,39.55078125,-13.18359375,-68.84765625,0.0,0,0
1772276388.7217128,1772276388.6429837,637.20703125,112.79296875,53.7109375,354.98046875,0.0,0,0
1772276388.721743,1772276388.646877,509.765625,57.12890625,47.36328125,367.67578125,0.0,0,0
1772276388.7217689,1772276388.6507704,-328.125,-132.8125,-49.31640625,-194.3359375,0.0,0,0
1772276388.7217941,1772276388.6546638,-712.40234375,-143.5546875,-86.9140625,-472.65625,0.0,0,0
1772276388.7218182,1772276388.6585572,-358.3984375,35.15625,-31.25,-140.625,0.0,0,0
1772276388.721845,1772276388.6624506,249.51171875,122.55859375,32.71484375,334.47265625,0.0,0,0
1772276388.721869,1772276388.666344,330.56640625,60.05859375,36.62109375,388.18359375,0.0,0,0
1772276388.721893,1772276388.670237,-387.20703125,-130.859375,-56.640625,-158.69140625,0.0,0,0
1772276388.721917,1772276388.6741304,-683.59375,-135.25390625,-87.40234375,-458.0078125,0.0,0,0
