timestamp,lsl_timestamp,TP9,AF7,AF8,TP10,Right AUX,keypress_A,keypress_B
1772275743.5712168,1772275743.4998243,-142.578125,-107.91015625,-92.28515625,104.00390625,0.0,0,0
1772275743.571796,1772275743.5037177,-1000.0,-208.49609375,-106.4453125,-755.37109375,0.0,0,0
1772275743.5718458,1772275743.5076108,-613.28125,-98.14453125,-78.125,-736.81640625,0.0,0,0
1772275743.571877,1772275743.511504,665.52734375,90.8203125,-48.828125,189.453125,0.0,0,0
1772275743.571904,1772275743.515397,-882.32421875,105.46875,-30.76171875,783.203125,0.0,0,0
1772275743.571928,1772275743.5192902,25.390625,-67.3828125,-46.38671875,250.9765625,0.0,0,0
1772275743.571954,1772275743.5231833,-1000.0,-252.44140625,-85.9375,-662.109375,0.0,0,0
1772275743.571979,1772275743.5270767,-779.296875,-200.68359375,-96.19140625,-775.390625,0.0,0,0
1772275743.5720031,1772275743.5309699,441.89453125,27.34375,-62.98828125,89.35546875,0.0,0,0
1772275743.5720289,1772275743.534863,-833.984375,91.30859375,-46.38671875,768.06640625,0.0,0,0
1772275743.572054,1772275743.5387561,156.25,-95.21484375,-67.87109375,332.03125,0.0,0,0
1772275743.572078,1772275743.5426493,-1000.0,-241.69921875,-86.9140625,-562.01171875,0.0,0,0
1772275743.616307,1772275743.5467083,-917.96875,-171.875,-76.171875,-792.96875,0.0,0,0
1772275743.616423,1772275743.5506015,233.88671875,44.921875,-43.45703125,-60.05859375,0.0,0,0
1772275743.6164548,1772275743.5544946,-826.66015625,139.16015625,-32.2265625,717.7734375,0.0,0,0
1772275743.61648,1772275743.558388,298.33984375,-27.34375,-46.38671875,433.59375,0.0,0,0
1772275743.6165051,1772275743.5622811,-979.00390625,-181.640625,-72.75390625,-501.46484375,0.0,0,0
1772275743.61653,1772275743.5661743,-1000.0,-120.60546875,-76.171875,-877.9296875,0.0,0,0
1772275743.616554,1772275743.5700674,61.5234375,64.453125,-45.8984375,-196.2890625,0.0,0,0
1772275743.6165838,1772275743.5739608,-844.23828125,146.484375,-30.76171875,688.96484375,0.0,0,0
1772275743.616608,1772275743.577854,434.5703125,18.5546875,-39.55078125,545.41015625,0.0,0,0
1772275743.6166332,1772275743.581747,-853.02734375,-146.97265625,-58.59375,-382.32421875,0.0,0,0
1772275743.6166568,1772275743.5856404,-1000.0,-145.5078125,-62.5,-853.02734375,0.0,0,0
1772275743.61668,1772275743.5895336,-34.66796875,50.29296875,-45.8984375,-266.6015625,0.0,0,0
1772275743.662357,1772275743.593578,-875.0,180.17578125,-31.25,620.1171875,0.0,0,0
1772275743.6624682,1772275743.5974712,576.171875,80.078125,-43.9453125,638.671875,0.0,0,0
1772275743.6625159,1772275743.6013644,-668.9453125,-124.0234375,-74.21875,-223.14453125,0.0,0,0
1772275743.662555,1772275743.6052577,-1000.0,-173.33984375,-83.49609375,-879.8828125,0.0,0,0
1772275743.662614,1772275743.609151,-172.8515625,28.80859375,-62.01171875,-413.57421875,0.0,0,0
1772275743.6626549,1772275743.6130443,-913.0859375,172.8515625,-28.80859375,541.9921875,0.0,0,0
1772275743.662692,1772275743.6169374,697.75390625,38.0859375,-25.390625,699.21875,0.0,0,0
1772275743.6627278,1772275743.6208305,-521.97265625,-174.31640625,-51.7578125,-124.0234375,0.0,0,0
1772275743.662766,1772275743.624724,-1000.0,-205.078125,-69.3359375,-870.60546875,0.0,0,0
1772275743.662834,1772275743.628617,-311.5234375,-37.59765625,-64.94140625,-532.71484375,0.0,0,0
1772275743.6629,1772275743.6325104,-997.55859375,132.8125,-39.0625,413.0859375,0.0,0,0
1772275743.662943,1772275743.6364036,862.3046875,92.28515625,-35.64453125,702.63671875,0.0,0,0
1772275743.736419,1772275743.6406388,-315.91796875,-119.62890625,-54.19921875,-18.06640625,0.0,0,0
1772275743.736542,1772275743.6445322,-1000.0,-239.74609375,-56.640625,-853.02734375,0.0,0,0
1772275743.736577,1772275743.6484253,-431.15234375,-95.703125,-44.43359375,-643.5546875,0.0,0,0
1772275743.73661,1772275743.6523187,895.5078125,92.7734375,-22.4609375,327.1484375,0.0,0,0
1772275743.736682,1772275743.656212,974.609375,59.08203125,-4.8828125,733.88671875,0.0,0,0
1772275743.736714,1772275743.6601052,-171.875,-113.76953125,-20.5078125,125.48828125,0.0,0,0
1772275743.736754,1772275743.6639986,-1000.0,-196.77734375,-47.36328125,-725.5859375,0.0,0,0
1772275743.736783,1772275743.667892,-596.19140625,-75.68359375,-33.203125,-687.01171875,0.0,0,0
1772275743.736812,1772275743.671785,692.3828125,91.796875,-4.8828125,244.140625,0.0,0,0
1772275743.736841,1772275743.6756785,-901.85546875,147.4609375,-7.8125,799.8046875,0.0,0,0
1772275743.7368698,1772275743.6795719,-21.484375,-18.06640625,-34.66796875,260.7421875,0.0,0,0
1772275743.736898,1772275743.683465,-1000.0,-192.3828125,-69.82421875,-662.109375,0.0,0,0
1772275743.751921,1772275743.6874907,-739.74609375,-111.328125,-71.2890625,-759.765625,0.0,0,0
1772275743.752022,1772275743.691384,503.41796875,90.33203125,-28.80859375,132.8125,0.0,0,0
1772275743.7520561,1772275743.6952775,-844.23828125,144.53125,-23.92578125,809.08203125,0.0,0,0
1772275743.752087,1772275743.6991706,106.4453125,-53.7109375,-49.31640625,376.46484375,0.0,0,0
1772275743.7521422,1772275743.703064,-1000.0,-210.44921875,-66.89453125,-550.78125,0.0,0,0
1772275743.752172,1772275743.7069573,-826.66015625,-97.16796875,-66.89453125,-747.0703125,0.0,0,0
1772275743.7522008,1772275743.7108507,354.98046875,81.54296875,-20.99609375,43.45703125,0.0,0,0
1772275743.75223,1772275743.714744,-831.54296875,109.86328125,0.0,779.78515625,0.0,0,0
1772275743.752259,1772275743.7186372,236.81640625,-70.3125,-32.2265625,469.23828125,0.0,0,0
1772275743.752288,1772275743.7225306,-1000.0,-236.328125,-69.3359375,-456.54296875,0.0,0,0
1772275743.752317,1772275743.726424,-979.00390625,-172.8515625,-82.03125,-782.71484375,0.0,0,0
1772275743.752349,1772275743.7303174,130.859375,-4.39453125,-41.9921875,-107.91015625,0.0,0,0
1772275743.797227,1772275743.7343223,-836.42578125,85.44921875,-2.44140625,721.19140625,0.0,0,0
1772275743.797371,1772275743.7382157,375.48828125,-41.015625,-16.6015625,559.08203125,0.0,0,0
1772275743.797413,1772275743.7421088,-909.66796875,-216.30859375,-54.6875,-370.1171875,0.0,0,0
1772275743.797452,1772275743.7460022,-1000.0,-192.87109375,-60.546875,-833.0078125,0.0,0,0
1772275743.7974908,1772275743.7498956,-43.9453125,-14.6484375,-34.1796875,-220.21484375,0.0,0,0
1772275743.797529,1772275743.753789,-864.74609375,140.13671875,-14.16015625,690.4296875,0.0,0,0
1772275743.797565,1772275743.7576823,525.390625,41.9921875,-19.04296875,668.45703125,0.0,0,0
1772275743.797605,1772275743.7615757,-740.234375,-203.125,-59.08203125,-252.9296875,0.0,0,0
1772275743.797641,1772275743.765469,-1000.0,-245.1171875,-92.28515625,-857.421875,0.0,0,0
1772275743.797677,1772275743.7693624,-139.6484375,-45.8984375,-67.87109375,-341.796875,0.0,0,0
1772275743.7977128,1772275743.7732556,-904.78515625,96.6796875,-43.45703125,584.47265625,0.0,0,0
1772275743.797749,1772275743.777149,673.33984375,17.08984375,-43.45703125,712.890625,0.0,0,0
1772275743.841464,1772275743.7811427,-553.22265625,-188.4765625,-55.6640625,-141.6015625,0.0,0,0
1772275743.841551,1772275743.7850358,-1000.0,-224.12109375,-82.51953125,-869.140625,0.0,0,0
1772275743.8415842,1772275743.7889292,-275.390625,-40.52734375,-73.73046875,-471.19140625,0.0,0,0
1772275743.841614,1772275743.7928226,-968.75,116.69921875,-40.0390625,495.60546875,0.0,0,0
1772275743.841645,1772275743.796716,800.29296875,55.6640625,-32.71484375,749.51171875,0.0,0,0
1772275743.841674,1772275743.8006094,-390.625,-126.46484375,-60.05859375,-27.34375,0.0,0,0
1772275743.841704,1772275743.8045027,-1000.0,-234.86328125,-75.1953125,-836.9140625,0.0,0,0
1772275743.8417332,1772275743.808396,-393.06640625,-111.81640625,-56.15234375,-573.73046875,0.0,0,0
1772275743.841762,1772275743.8122895,940.91796875,77.63671875,-35.15625,404.78515625,0.0,0,0
1772275743.84179,1772275743.8161829,944.3359375,37.59765625,-22.4609375,769.04296875,0.0,0,0
1772275743.84182,1772275743.8200762,-224.12109375,-152.34375,-47.36328125,81.54296875,0.0,0,0
1772275743.8418481,1772275743.8239696,-1000.0,-260.7421875,-84.9609375,-767.578125,0.0,0,0
1772275743.902664,1772275743.82795,-556.640625,-127.9296875,-70.3125,-661.62109375,0.0,0,0
1772275743.902826,1772275743.8318434,746.09375,68.84765625,-22.4609375,273.4375,0.0,0,0
1772275743.90287,1772275743.8357368,-928.7109375,62.98828125,-1.46484375,791.015625,0.0,0,0
1772275743.90359,1772275743.8396301,-58.59375,-95.21484375,-41.015625,197.265625,0.0,0,0
1772275743.9036338,1772275743.8435237,-1000.0,-179.19921875,-86.42578125,-694.82421875,0.0,0,0
1772275743.9036841,1772275743.847417,-702.1484375,-88.8671875,-77.1484375,-722.65625,0.0,0,0
1772275743.903722,1772275743.8513105,552.24609375,87.890625,-36.1328125,146.484375,0.0,0,0
1772275743.903753,1772275743.8552039,-857.91015625,105.46875,-8.7890625,788.57421875,0.0,0,0
1772275743.9037812,1772275743.8590972,61.5234375,-67.87109375,-26.85546875,296.875,0.0,0,0
1772275743.90381,1772275743.8629906,-1000.0,-173.33984375,-61.5234375,-628.90625,0.0,0,0
1772275743.903837,1772275743.866884,-856.4453125,-77.1484375,-54.6875,-791.50390625,0.0,0,0
1772275743.903865,1772275743.8707774,321.77734375,127.9296875,-18.06640625,21.97265625,0.0,0,0
1772275743.947096,1772275743.874844,-823.73046875,214.84375,-9.765625,792.48046875,0.0,0,0
1772275743.947297,1772275743.8787374,213.37890625,50.78125,-34.66796875,439.94140625,0.0,0,0
1772275743.947378,1772275743.8826308,-1000.0,-135.25390625,-65.4296875,-523.92578125,0.0,0,0
1772275743.947432,1772275743.8865242,-954.58984375,-97.16796875,-78.61328125,-813.96484375,0.0,0,0
1772275743.947495,1772275743.8904176,166.50390625,101.07421875,-56.640625,-89.35546875,0.0,0,0
1772275743.947547,1772275743.894311,-838.8671875,195.3125,-40.0390625,744.62890625,0.0,0,0
1772275743.947597,1772275743.8982046,361.81640625,9.765625,-47.36328125,552.734375,0.0,0,0
1772275743.947647,1772275743.902098,-920.8984375,-164.55078125,-89.84375,-395.5078125,0.0,0,0
1772275743.9476979,1772275743.9059913,-1000.0,-146.97265625,-105.46875,-822.265625,0.0,0,0
1772275743.947747,1772275743.9098847,2.44140625,18.5546875,-52.24609375,-179.19921875,0.0,0,0
1772275743.947797,1772275743.913778,-853.02734375,159.1796875,-23.92578125,706.54296875,0.0,0,0
1772275743.9478478,1772275743.9176714,478.02734375,38.57421875,-32.2265625,663.57421875,0.0,0,0
1772275743.991244,1772275743.9217257,-794.43359375,-165.52734375,-51.26953125,-245.1171875,0.0,0,0
1772275743.991337,1772275743.9256191,-1000.0,-174.31640625,-74.21875,-831.0546875,0.0,0,0
1772275743.9913752,1772275743.9295125,-109.375,21.484375,-59.5703125,-298.33984375,0.0,0,0
1772275743.9914072,1772275743.933406,-895.99609375,166.015625,-31.73828125,632.32421875,0.0,0,0
1772275743.991439,1772275743.9372995,652.34375,79.1015625,-32.2265625,710.44921875,0.0,0,0
1772275743.99147,1772275743.9411929,-574.70703125,-99.12109375,-57.12890625,-135.25390625,0.0,0,0
1772275743.9915001,1772275743.9450865,-1000.0,-145.5078125,-88.8671875,-789.0625,0.0,0,0
1772275743.99153,1772275743.9489799,-262.20703125,-2.9296875,-71.2890625,-385.7421875,0.0,0,0
1772275743.991561,1772275743.9528732,-955.56640625,145.5078125,-27.34375,543.9453125,0.0,0,0
1772275743.991591,1772275743.9567666,769.04296875,94.7265625,-30.2734375,759.27734375,0.0,0,0
1772275743.991621,1772275743.9606602,-430.6640625,-89.84375,-54.19921875,-10.25390625,0.0,0,0
1772275743.991651,1772275743.9645536,-1000.0,-177.734375,-68.84765625,-787.109375,0.0,0,0
1772275744.036255,1772275743.9685926,-363.28125,-22.94921875,-49.31640625,-520.01953125,0.0,0,0
1772275744.0363362,1772275743.9724863,965.8203125,180.17578125,-12.20703125,433.10546875,0.0,0,0
1772275744.036371,1772275743.9763796,911.62109375,157.71484375,-13.671875,766.6015625,0.0,0,0
1772275744.036444,1772275743.9802732,-260.25390625,-36.62109375,-46.38671875,63.4765625,0.0,0,0
1772275744.0364811,1772275743.9841666,-1000.0,-128.90625,-61.5234375,-779.78515625,0.0,0,0
1772275744.036512,1772275743.98806,-496.58203125,35.15625,-53.22265625,-627.9296875,0.0,0,0
1772275744.036541,1772275743.9919536,815.91796875,185.05859375,-31.25,325.68359375,0.0,0,0
1772275744.0365708,1772275743.995847,-959.9609375,125.48828125,-19.53125,802.24609375,0.0,0,0
1772275744.036603,1772275743.9997406,-87.890625,-38.0859375,-27.83203125,210.9375,0.0,0,0
1772275744.036632,1772275744.003634,-1000.0,-164.55078125,-50.29296875,-690.91796875,0.0,0,0
1772275744.036661,1772275744.0075274,-618.65234375,-65.4296875,-58.10546875,-706.54296875,0.0,0,0
1772275744.0366888,1772275744.011421,655.2734375,146.484375,-31.25,212.890625,0.0,0,0
1772275744.082348,1772275744.015451,-875.9765625,175.29296875,-11.23046875,802.24609375,0.0,0,0
1772275744.082478,1772275744.0193443,52.734375,-0.9765625,-30.76171875,291.015625,0.0,0,0
1772275744.082537,1772275744.023238,-1000.0,-148.92578125,-46.38671875,-622.55859375,0.0,0,0
1772275744.082589,1772275744.0271313,-802.24609375,-81.0546875,-37.59765625,-782.71484375,0.0,0,0
1772275744.082641,1772275744.031025,409.66796875,114.74609375,-24.4140625,74.21875,0.0,0,0
1772275744.08269,1772275744.0349183,-831.0546875,197.75390625,-0.48828125,816.40625,0.0,0,0
1772275744.082741,1772275744.038812,170.8984375,26.3671875,-13.671875,403.80859375,0.0,0,0
1772275744.082797,1772275744.0427055,-1000.0,-144.04296875,-56.640625,-541.50390625,0.0,0,0
1772275744.082848,1772275744.046599,-942.87109375,-89.84375,-62.01171875,-849.12109375,0.0,0,0
1772275744.082898,1772275744.0504925,197.265625,102.05078125,-22.94921875,-123.046875,0.0,0,0
1772275744.0829482,1772275744.054386,-825.68359375,189.94140625,-6.34765625,714.35546875,0.0,0,0
1772275744.082999,1772275744.0582795,304.6875,50.78125,-24.4140625,466.796875,0.0,0,0
1772275744.1267798,1772275744.0622947,-972.65625,-149.90234375,-56.15234375,-489.2578125,0.0,0,0
1772275744.1268952,1772275744.066188,-1000.0,-137.6953125,-70.3125,-866.2109375,0.0,0,0
1772275744.126942,1772275744.0700817,42.96875,62.98828125,-48.33984375,-192.3828125,0.0,0,0
1772275744.12698,1772275744.073975,-848.14453125,147.4609375,-32.71484375,678.7109375,0.0,0,0
1772275744.127018,1772275744.0778687,466.30859375,25.87890625,-36.62109375,579.58984375,0.0,0,0
1772275744.1270552,1772275744.0817623,-817.87109375,-163.0859375,-66.40625,-338.37890625,0.0,0,0
1772275744.127092,1772275744.0856557,-1000.0,-194.3359375,-91.796875,-869.140625,0.0,0,0
1772275744.1271281,1772275744.0895493,-86.9140625,-18.06640625,-75.68359375,-307.6171875,0.0,0,0
1772275744.127166,1772275744.093443,-876.46484375,106.4453125,-51.7578125,605.46875,0.0,0,0
1772275744.127203,1772275744.0973363,587.40234375,8.7890625,-45.8984375,655.76171875,0.0,0,0
1772275744.127239,1772275744.10123,-668.45703125,-200.1953125,-74.21875,-196.77734375,0.0,0,0
1772275744.127275,1772275744.1051233,-1000.0,-236.328125,-99.609375,-840.8203125,0.0,0,0
1772275744.1714501,1772275744.1091266,-203.61328125,-55.6640625,-71.2890625,-410.15625,0.0,0,0
1772275744.171525,1772275744.1130202,-926.7578125,105.46875,-25.87890625,515.13671875,0.0,0,0
1772275744.1715531,1772275744.1169138,719.23828125,59.08203125,-16.6015625,686.03515625,0.0,0,0
1772275744.1715782,1772275744.1208074,-501.46484375,-130.37109375,-59.5703125,-111.81640625,0.0,0,0
1772275744.171602,1772275744.1247008,-1000.0,-196.2890625,-87.40234375,-855.46875,0.0,0,0
1772275744.171628,1772275744.1285944,-337.40234375,-18.5546875,-60.546875,-545.41015625,0.0,0,0
1772275744.171652,1772275744.132488,994.62890625,126.46484375,-43.45703125,398.4375,0.0,0,0
1772275744.171731,1772275744.1363814,853.02734375,61.03515625,-40.0390625,689.453125,0.0,0,0
1772275744.1717792,1772275744.140275,-345.703125,-121.58203125,-61.03515625,-10.25390625,0.0,0,0
1772275744.171807,1772275744.1441686,-1000.0,-180.17578125,-88.8671875,-812.5,0.0,0,0
1772275744.171832,1772275744.148062,-477.05078125,-21.97265625,-75.1953125,-647.4609375,0.0,0,0
1772275744.1718569,1772275744.1519556,857.421875,156.73828125,-44.921875,303.7109375,0.0,0,0
1772275744.216647,1772275744.155948,989.2578125,92.28515625,-39.55078125,728.02734375,0.0,0,0
1772275744.216737,1772275744.1598415,-170.41015625,-121.58203125,-48.33984375,127.44140625,0.0,0,0
1772275744.216773,1772275744.1637352,-1000.0,-204.1015625,-63.96484375,-704.1015625,0.0,0,0
1772275744.216803,1772275744.1676288,-633.7890625,-106.93359375,-73.73046875,-684.08203125,0.0,0,0
1772275744.216832,1772275744.1715221,659.1796875,99.12109375,-48.33984375,239.74609375,0.0,0,0
1772275744.216862,1772275744.1754158,-901.85546875,143.5546875,-37.59765625,808.59375,0.0,0,0
1772275744.217006,1772275744.1793094,-35.64453125,-73.73046875,-75.1953125,244.62890625,0.0,0,0
1772275744.217039,1772275744.183203,-1000.0,-254.39453125,-101.5625,-663.57421875,0.0,0,0
1772275744.217068,1772275744.1870966,-782.2265625,-182.12890625,-87.40234375,-772.94921875,0.0,0,0
1772275744.217098,1772275744.19099,449.70703125,56.15234375,-52.734375,84.47265625,0.0,0,0
1772275744.217126,1772275744.1948836,-836.9140625,135.25390625,-32.2265625,814.453125,0.0,0,0
1772275744.2171562,1772275744.1987772,65.91796875,-71.77734375,-52.24609375,375.48828125,0.0,0,0
1772275744.2818959,1772275744.2027547,-1000.0,-241.69921875,-82.03125,-559.5703125,0.0,0,0
1772275744.28244,1772275744.206648,-941.40625,-165.0390625,-90.8203125,-767.08984375,0.0,0,0
1772275744.2824829,1772275744.2105417,165.52734375,42.96875,-56.15234375,10.7421875,0.0,0,0
1772275744.2830532,1772275744.2144353,-818.84765625,138.671875,-13.18359375,822.75390625,0.0,0,0
1772275744.283094,1772275744.218329,208.0078125,-21.97265625,-27.34375,525.87890625,0.0,0,0
1772275744.2831302,1772275744.2222226,-1000.0,-154.296875,-71.77734375,-411.62109375,0.0,0,0
1772275744.283374,1772275744.2261162,-1000.0,-113.76953125,-83.984375,-761.23046875,0.0,0,0
1772275744.2836921,1772275744.2300096,-3.41796875,30.76171875,-60.546875,-136.71875,0.0,0,0
1772275744.283884,1772275744.2339032,-833.49609375,156.73828125,-41.015625,730.95703125,0.0,0,0
1772275744.283935,1772275744.2377968,371.09375,29.78515625,-47.8515625,616.69921875,0.0,0,0
1772275744.2839801,1772275744.2416904,-915.0390625,-152.83203125,-69.3359375,-308.59375,0.0,0,0
1772275744.2840698,1772275744.245584,-1000.0,-134.765625,-74.21875,-750.0,0.0,0,0
1772275744.335828,1772275744.249744,-75.1953125,42.96875,-61.03515625,-185.05859375,0.0,0,0
1772275744.335886,1772275744.2536376,-865.234375,161.1328125,-43.45703125,677.734375,0.0,0,0
1772275744.3358989,1772275744.2575312,527.34375,47.36328125,-51.7578125,688.4765625,0.0,0,0
1772275744.3359091,1772275744.2614248,-744.140625,-147.94921875,-93.26171875,-177.24609375,0.0,0,0
1772275744.3359191,1772275744.2653184,-1000.0,-166.9921875,-113.76953125,-778.80859375,0.0,0,0
1772275744.335928,1772275744.269212,-150.390625,38.0859375,-69.82421875,-281.25,0.0,0,0
1772275744.335938,1772275744.2731056,-912.59765625,143.06640625,-31.73828125,625.0,0.0,0,0
1772275744.335948,1772275744.2769992,697.75390625,76.66015625,-36.62109375,768.5546875,0.0,0,0
1772275744.335957,1772275744.2808928,-516.11328125,-67.87109375,-54.6875,-2.9296875,0.0,0,0
1772275744.335967,1772275744.2847865,-1000.0,-136.71875,-81.54296875,-756.34765625,0.0,0,0
1772275744.335976,1772275744.28868,-287.59765625,13.18359375,-78.125,-425.78125,0.0,0,0
1772275744.335985,1772275744.2925737,-982.91015625,153.3203125,-42.96875,523.4375,0.0,0,0
1772275744.366115,1772275744.296624,846.6796875,62.98828125,-24.90234375,773.92578125,0.0,0,0
1772275744.366153,1772275744.3005178,-330.078125,-133.7890625,-49.31640625,61.5234375,0.0,0,0
1772275744.366166,1772275744.3044114,-1000.0,-191.40625,-67.87109375,-725.09765625,0.0,0,0
1772275744.366177,1772275744.308305,-432.6171875,-43.9453125,-53.7109375,-537.109375,0.0,0,0
1772275744.366188,1772275744.3121986,901.85546875,142.578125,-26.85546875,407.2265625,0.0,0,0
1772275744.366199,1772275744.3160923,962.40234375,124.0234375,-17.578125,817.3828125,0.0,0,0
1772275744.36621,1772275744.3199859,-202.63671875,-68.84765625,-54.6875,168.45703125,0.0,0,0
1772275744.366221,1772275744.3238797,-1000.0,-197.265625,-78.61328125,-674.31640625,0.0,0,0
1772275744.366231,1772275744.3277733,-571.2890625,-100.09765625,-56.15234375,-608.88671875,0.0,0,0
1772275744.366242,1772275744.331667,722.65625,112.79296875,-14.16015625,318.359375,0.0,0,0
1772275744.366252,1772275744.3355606,-911.62109375,153.3203125,13.18359375,851.07421875,0.0,0,0
1772275744.3662632,1772275744.3394542,-39.55078125,-32.71484375,-13.671875,284.66796875,0.0,0,0
1772275744.410911,1772275744.343492,-1000.0,-183.59375,-57.6171875,-599.609375,0.0,0,0
1772275744.410937,1772275744.3473856,-749.0234375,-113.76953125,-62.98828125,-700.68359375,0.0,0,0
1772275744.41095,1772275744.3512793,488.76953125,106.93359375,-37.109375,168.45703125,0.0,0,0
1772275744.4109619,1772275744.355173,-838.37890625,143.5546875,-27.34375,848.6328125,0.0,0,0
1772275744.4109728,1772275744.3590667,112.3046875,-45.8984375,-60.546875,381.34765625,0.0,0,0
1772275744.410985,1772275744.3629603,-1000.0,-137.6953125,-91.796875,-553.22265625,0.0,0,0
1772275744.410996,1772275744.3668542,-856.93359375,-93.26171875,-83.984375,-753.41796875,0.0,0,0
1772275744.411008,1772275744.3707478,328.125,47.36328125,-57.6171875,33.69140625,0.0,0,0
1772275744.411019,1772275744.3746414,-824.70703125,115.72265625,-34.1796875,797.8515625,0.0,0,0
1772275744.411031,1772275744.378535,227.5390625,-44.43359375,-47.36328125,487.3046875,0.0,0,0
1772275744.411042,1772275744.382429,-1000.0,-208.49609375,-82.51953125,-442.87109375,0.0,0,0
1772275744.411053,1772275744.3863225,-981.93359375,-148.92578125,-81.0546875,-752.9296875,0.0,0,0
1772275744.455845,1772275744.3903477,127.44140625,53.7109375,-51.26953125,-47.36328125,0.0,0,0
1772275744.455883,1772275744.3942416,-836.42578125,141.6015625,-20.5078125,769.53125,0.0,0,0
1772275744.455901,1772275744.3981352,367.1875,-22.4609375,-18.5546875,574.21875,0.0,0,0
1772275744.455916,1772275744.4020288,-921.38671875,-226.5625,-64.453125,-356.4453125,0.0,0,0
1772275744.455931,1772275744.4059227,-1000.0,-211.9140625,-89.35546875,-790.52734375,0.0,0,0
1772275744.455945,1772275744.4098163,3.41796875,36.62109375,-44.921875,-172.8515625,0.0,0,0
1772275744.45596,1772275744.4137099,-860.3515625,205.56640625,-16.11328125,695.80078125,0.0,0,0
1772275744.4559739,1772275744.4176037,521.97265625,73.73046875,-18.5546875,672.8515625,0.0,0,0
1772275744.455989,1772275744.4214973,-739.74609375,-169.43359375,-46.875,-231.93359375,0.0,0,0
1772275744.4560041,1772275744.4253912,-1000.0,-213.8671875,-86.9140625,-838.37890625,0.0,0,0
1772275744.456018,1772275744.4292848,-122.0703125,11.23046875,-60.546875,-305.17578125,0.0,0,0
1772275744.456033,1772275744.4331784,-892.08984375,167.96875,-21.97265625,605.95703125,0.0,0,0
1772275744.501143,1772275744.4371917,648.4375,73.2421875,-39.0625,684.5703125,0.0,0,0
1772275744.501188,1772275744.4410853,-589.84375,-115.72265625,-71.2890625,-135.25390625,0.0,0,0
1772275744.501212,1772275744.4449792,-1000.0,-162.109375,-84.47265625,-836.9140625,0.0,0,0
1772275744.5012329,1772275744.4488728,-250.9765625,-16.11328125,-62.98828125,-445.80078125,0.0,0,0
1772275744.5012531,1772275744.4527667,-974.12109375,98.6328125,-33.203125,499.0234375,0.0,0,0
1772275744.501274,1772275744.4566603,846.6796875,69.82421875,-29.296875,718.75,0.0,0,0
1772275744.5012941,1772275744.4605541,-316.40625,-101.5625,-43.45703125,-13.671875,0.0,0,0
1772275744.5013142,1772275744.4644477,-1000.0,-196.77734375,-63.96484375,-813.96484375,0.0,0,0
1772275744.50134,1772275744.4683416,-397.4609375,-7.8125,-56.15234375,-583.0078125,0.0,0,0
1772275744.501361,1772275744.4722352,944.3359375,184.08203125,-28.80859375,400.390625,0.0,0,0
1772275744.5013812,1772275744.476129,929.6875,110.3515625,-27.34375,750.48828125,0.0,0,0
1772275744.5014021,1772275744.4800227,-247.0703125,-123.53515625,-53.7109375,86.9140625,0.0,0,0
1772275744.545867,1772275744.4840233,-1000.0,-229.4921875,-71.2890625,-739.74609375,0.0,0,0
1772275744.5459042,1772275744.4879172,-515.13671875,-105.46875,-63.4765625,-654.78515625,0.0,0,0
1772275744.545922,1772275744.4918108,781.25,75.68359375,-23.4375,270.01953125,0.0,0,0
1772275744.5459359,1772275744.4957047,-936.03515625,79.58984375,-5.37109375,776.85546875,0.0,0,0
1772275744.545951,1772275744.4995985,-61.03515625,-110.83984375,-34.1796875,213.8671875,0.0,0,0
1772275744.5459661,1772275744.503492,-1000.0,-222.65625,-66.89453125,-666.9921875,0.0,0,0
1772275744.54598,1772275744.507386,-705.078125,-124.51171875,-61.03515625,-725.09765625,0.0,0,0
1772275744.545995,1772275744.5112796,550.29296875,70.80078125,-32.2265625,142.578125,0.0,0,0
1772275744.54601,1772275744.5151734,-859.86328125,114.2578125,-24.90234375,772.4609375,0.0,0,0
1772275744.546081,1772275744.519067,53.7109375,-53.22265625,-37.109375,303.22265625,0.0,0,0
1772275744.546098,1772275744.522961,-1000.0,-157.71484375,-66.40625,-587.890625,0.0,0,0
1772275744.546113,1772275744.5268545,-862.79296875,-68.84765625,-81.54296875,-766.11328125,0.0,0,0
1772275744.5909498,1772275744.5308442,317.87109375,121.09375,-47.36328125,7.32421875,0.0,0,0
1772275744.5909781,1772275744.534738,-820.3125,185.05859375,-13.18359375,746.09375,0.0,0,0
1772275744.590989,1772275744.538632,205.56640625,7.32421875,-28.3203125,406.25,0.0,0,0
1772275744.591001,1772275744.5425255,-1000.0,-174.8046875,-64.453125,-527.34375,0.0,0,0
1772275744.591012,1772275744.5464194,-986.81640625,-123.046875,-84.9609375,-833.0078125,0.0,0,0
1772275744.5910258,1772275744.550313,133.30078125,105.46875,-58.10546875,-103.02734375,0.0,0,0
1772275744.591037,1772275744.5542068,-825.68359375,201.171875,-21.97265625,728.02734375,0.0,0,0
1772275744.591048,1772275744.5581007,323.73046875,50.78125,-30.2734375,519.53125,0.0,0,0
1772275744.59106,1772275744.5619943,-950.1953125,-96.19140625,-62.98828125,-403.80859375,0.0,0,0
1772275744.591071,1772275744.5658882,-1000.0,-89.35546875,-80.078125,-829.58984375,0.0,0,0
1772275744.591083,1772275744.569782,-5.859375,78.61328125,-56.15234375,-199.21875,0.0,0,0
1772275744.591094,1772275744.5736756,-856.4453125,185.05859375,-29.296875,672.36328125,0.0,0,0
1772275744.651038,1772275744.5776517,494.140625,40.52734375,-24.90234375,622.55859375,0.0,0,0
1772275744.651073,1772275744.5815456,-781.73828125,-170.8984375,-52.734375,-264.6484375,0.0,0,0
1772275744.6510909,1772275744.5854392,-1000.0,-156.73828125,-86.42578125,-829.58984375,0.0,0,0
1772275744.651106,1772275744.589333,-107.91015625,52.24609375,-59.08203125,-322.75390625,0.0,0,0
1772275744.651121,1772275744.593227,-888.671875,139.6484375,-24.4140625,571.77734375,0.0,0,0
1772275744.651148,1772275744.5971208,627.9296875,23.92578125,-44.921875,668.45703125,0.0,0,0
1772275744.651165,1772275744.6010144,-615.72265625,-180.6640625,-85.9375,-161.1328125,0.0,0,0
1772275744.651201,1772275744.6049082,-1000.0,-236.81640625,-101.5625,-838.37890625,0.0,0,0
1772275744.651238,1772275744.608802,-235.83984375,-28.3203125,-78.125,-407.71484375,0.0,0,0
1772275744.651256,1772275744.6126957,-944.82421875,167.96875,-39.0625,522.94921875,0.0,0,0
1772275744.6512718,1772275744.6165895,759.27734375,100.5859375,-28.3203125,714.35546875,0.0,0,0
1772275744.651287,1772275744.6204834,-444.3359375,-127.9296875,-54.6875,-24.90234375,0.0,0,0
1772275744.6959932,1772275744.6245453,-1000.0,-237.3046875,-88.37890625,-778.3203125,0.0,0,0
1772275744.696023,1772275744.6284392,-348.6328125,-67.3828125,-74.21875,-537.59765625,0.0,0,0
1772275744.696043,1772275744.632333,970.21484375,172.8515625,-22.94921875,406.73828125,0.0,0,0
1772275744.696063,1772275744.6362267,915.0390625,143.06640625,-14.16015625,757.8125,0.0,0,0
1772275744.6960828,1772275744.6401205,-249.51171875,-75.1953125,-42.96875,68.84765625,0.0,0,0
1772275744.6961029,1772275744.6440144,-1000.0,-165.52734375,-73.2421875,-755.859375,0.0,0,0
1772275744.69615,1772275744.6479082,-511.71875,-73.73046875,-75.68359375,-598.6328125,0.0,0,0
1772275744.696196,1772275744.651802,802.24609375,84.9609375,-34.1796875,332.51953125,0.0,0,0
1772275744.6962209,1772275744.655696,-947.265625,90.33203125,-3.41796875,786.1328125,0.0,0,0
1772275744.6962419,1772275744.6595895,-73.73046875,-85.9375,-25.87890625,211.9140625,0.0,0,0
1772275744.696262,1772275744.6634834,-1000.0,-209.47265625,-62.5,-613.28125,0.0,0,0
1772275744.6962812,1772275744.6673772,-666.50390625,-127.44140625,-68.84765625,-637.6953125,0.0,0,0
1772275744.741539,1772275744.6714265,607.421875,83.984375,-43.9453125,200.1953125,0.0,0,0
1772275744.741589,1772275744.6753204,-870.60546875,119.62890625,-34.1796875,795.8984375,0.0,0,0
1772275744.74161,1772275744.6792142,37.59765625,-54.19921875,-50.78125,329.58984375,0.0,0,0
1772275744.741628,1772275744.683108,-1000.0,-170.41015625,-75.68359375,-541.50390625,0.0,0,0
1772275744.741646,1772275744.687002,-799.8046875,-116.2109375,-90.33203125,-686.5234375,0.0,0,0
1772275744.741663,1772275744.6908958,417.48046875,67.87109375,-59.08203125,115.234375,0.0,0,0
1772275744.7416801,1772275744.6947896,-830.56640625,120.1171875,-28.80859375,836.42578125,0.0,0,0
1772275744.741736,1772275744.6986835,158.69140625,-64.453125,-47.36328125,439.94140625,0.0,0,0
1772275744.741772,1772275744.7025774,-1000.0,-222.65625,-78.61328125,-522.94921875,0.0,0,0
1772275744.741792,1772275744.7064712,-903.80859375,-162.109375,-80.078125,-776.3671875,0.0,0,0
1772275744.7418098,1772275744.710365,238.76953125,60.546875,-46.875,-36.62109375,0.0,0,0
1772275744.741827,1772275744.7142587,-833.0078125,186.03515625,-31.73828125,759.765625,0.0,0,0
1772275744.785988,1772275744.7182949,312.5,53.22265625,-61.5234375,543.9453125,0.0,0,0
1772275744.786023,1772275744.7221887,-973.6328125,-139.16015625,-85.9375,-382.32421875,0.0,0,0
1772275744.786035,1772275744.7260826,-1000.0,-158.69140625,-92.7734375,-798.33984375,0.0,0,0
1772275744.7860448,1772275744.7299764,75.68359375,8.30078125,-62.98828125,-176.7578125,0.0,0,0
1772275744.7860548,1772275744.7338703,-851.07421875,129.39453125,-9.765625,704.1015625,0.0,0,0
1772275744.7860658,1772275744.7377641,465.33203125,62.98828125,-11.71875,625.0,0.0,0,0
1772275744.7860749,1772275744.741658,-824.21875,-138.18359375,-48.828125,-317.87109375,0.0,0,0
1772275744.7860851,1772275744.7455518,-1000.0,-159.1796875,-66.40625,-879.8828125,0.0,0,0
1772275744.7861109,1772275744.7494457,-67.3828125,46.38671875,-59.5703125,-364.2578125,0.0,0,0
1772275744.786135,1772275744.7533395,-876.953125,171.875,-34.66796875,518.06640625,0.0,0,0
1772275744.786148,1772275744.7572334,580.078125,99.609375,-15.625,586.42578125,0.0,0,0
1772275744.786165,1772275744.7611272,-666.015625,-108.88671875,-40.52734375,-230.95703125,0.0,0,0
1772275744.830652,1772275744.7651513,-1000.0,-174.31640625,-62.98828125,-888.18359375,0.0,0,0
1772275744.830682,1772275744.769045,-197.75390625,29.78515625,-40.0390625,-450.68359375,0.0,0,0
1772275744.8307478,1772275744.772939,-923.33984375,188.96484375,-19.53125,466.30859375,0.0,0,0
1772275744.8307588,1772275744.7768328,708.0078125,88.37890625,-41.9921875,630.37109375,0.0,0,0
1772275744.830791,1772275744.780727,-511.23046875,-111.81640625,-84.9609375,-148.4375,0.0,0,0
1772275744.830821,1772275744.7846208,-1000.0,-146.484375,-118.1640625,-855.95703125,0.0,0,0
1772275744.830868,1772275744.7885146,-321.2890625,25.87890625,-114.2578125,-502.9296875,0.0,0,0
1772275744.830878,1772275744.7924085,-995.60546875,161.1328125,-90.33203125,438.96484375,0.0,0,0
1772275744.830921,1772275744.7963023,827.63671875,85.44921875,-75.1953125,747.0703125,0.0,0,0
1772275744.8309429,1772275744.8001962,-374.0234375,-105.46875,-86.9140625,55.6640625,0.0,0,0
1772275744.830991,1772275744.8040903,-1000.0,-180.6640625,-97.16796875,-746.09375,0.0,0,0
1772275744.831001,1772275744.807984,-489.2578125,-61.5234375,-82.51953125,-573.2421875,0.0,0,0
1772275744.8758159,1772275744.8119962,834.47265625,85.9375,-67.3828125,383.7890625,0.0,0,0
1772275744.875853,1772275744.8158903,-994.140625,89.35546875,-44.43359375,818.84765625,0.0,0,0
1772275744.875864,1772275744.8197842,-149.90234375,-71.77734375,-46.875,189.94140625,0.0,0,0
1772275744.875874,1772275744.823678,-1000.0,-213.8671875,-68.84765625,-675.78125,0.0,0,0
1772275744.875882,1772275744.8275719,-620.1171875,-88.37890625,-65.4296875,-664.55078125,0.0,0,0
1772275744.875891,1772275744.831466,675.29296875,131.34765625,-24.4140625,273.92578125,0.0,0,0
1772275744.8758998,1772275744.8353598,-902.83203125,131.34765625,-4.8828125,875.9765625,0.0,0,0
1772275744.8759081,1772275744.8392537,-34.66796875,-80.078125,-41.50390625,318.359375,0.0,0,0
1772275744.8759308,1772275744.8431475,-1000.0,-202.63671875,-88.37890625,-604.00390625,0.0,0,0
1772275744.875951,1772275744.8470416,-748.046875,-90.8203125,-98.14453125,-704.58984375,0.0,0,0
1772275744.875962,1772275744.8509355,475.09765625,90.33203125,-58.59375,159.66796875,0.0,0,0
1772275744.875971,1772275744.8548293,-839.35546875,118.65234375,-33.69140625,882.8125,0.0,0,0
1772275744.936018,1772275744.8589263,130.37109375,-58.59375,-54.6875,513.671875,0.0,0,0
1772275744.936057,1772275744.8628201,-1000.0,-176.7578125,-78.61328125,-426.7578125,0.0,0,0
1772275744.93607,1772275744.8667142,-897.94921875,-105.46875,-83.49609375,-704.1015625,0.0,0,0
1772275744.936081,1772275744.870608,228.515625,54.19921875,-54.6875,46.875,0.0,0,0
1772275744.936092,1772275744.874502,-834.47265625,114.74609375,-21.484375,847.16796875,0.0,0,0
1772275744.9361029,1772275744.878396,302.24609375,-20.99609375,-38.57421875,584.47265625,0.0,0,0
1772275744.9361129,1772275744.88229,-988.76953125,-212.890625,-87.40234375,-408.69140625,0.0,0,0
1772275744.936126,1772275744.886184,-1000.0,-217.7734375,-104.00390625,-798.33984375,0.0,0,0
1772275744.936136,1772275744.8900778,107.421875,-2.44140625,-79.1015625,-93.75,0.0,0,0
1772275744.936147,1772275744.8939717,-848.14453125,130.859375,-53.7109375,812.98828125,0.0,0,0
1772275744.936165,1772275744.8978658,432.6171875,10.7421875,-45.41015625,693.359375,0.0,0,0
1772275744.936191,1772275744.9017596,-864.74609375,-183.59375,-54.6875,-270.01953125,0.0,0,0
1772275744.979406,1772275744.9057474,-1000.0,-168.9453125,-59.5703125,-768.5546875,0.0,0,0
1772275744.979427,1772275744.9096413,7.8125,34.1796875,-35.64453125,-166.50390625,0.0,0,0
1772275744.979441,1772275744.9135354,-872.55859375,155.76171875,-2.9296875,766.11328125,0.0,0,0
1772275744.979454,1772275744.9174292,570.80078125,39.55078125,1.953125,767.578125,0.0,0,0
1772275744.979467,1772275744.9213233,-675.78125,-149.4140625,-41.50390625,-141.6015625,0.0,0,0
1772275744.97948,1772275744.9252172,-1000.0,-167.48046875,-77.1484375,-764.16015625,0.0,0,0
1772275744.9794931,1772275744.929111,-149.4140625,-13.18359375,-43.9453125,-270.5078125,0.0,0,0
1772275744.979506,1772275744.933005,-912.59765625,102.05078125,-13.671875,680.6640625,0.0,0,0
1772275744.97952,1772275744.936899,694.82421875,41.015625,-31.25,800.78125,0.0,0,0
1772275744.979533,1772275744.940793,-518.06640625,-107.91015625,-56.640625,-70.3125,0.0,0,0
1772275744.979545,1772275744.944687,-1000.0,-172.36328125,-72.75390625,-829.1015625,0.0,0,0
1772275744.979558,1772275744.948581,-273.92578125,-60.546875,-51.7578125,-471.6796875,0.0,0,0
1772275745.024974,1772275744.9525564,-973.6328125,92.28515625,-7.8125,540.0390625,0.0,0,0
1772275745.025014,1772275744.9564502,823.73046875,72.265625,-13.18359375,816.89453125,0.0,0,0
1772275745.025028,1772275744.9603443,-350.5859375,-98.14453125,-54.6875,38.0859375,0.0,0,0
1772275745.02504,1772275744.9642384,-1000.0,-155.2734375,-83.984375,-802.24609375,0.0,0,0
1772275745.0250518,1772275744.9681323,-419.921875,-20.5078125,-73.73046875,-599.609375,0.0,0,0
1772275745.025064,1772275744.9720263,900.390625,135.25390625,-38.0859375,396.97265625,0.0,0,0
1772275745.025076,1772275744.9759202,981.4453125,77.63671875,-30.76171875,826.171875,0.0,0,0
1772275745.0250869,1772275744.9798143,-157.71484375,-171.38671875,-46.875,146.97265625,0.0,0,0
1772275745.025099,1772275744.9837081,-1000.0,-272.94921875,-76.171875,-753.41796875,0.0,0,0
1772275745.025111,1772275744.9876022,-526.3671875,-103.02734375,-66.89453125,-673.828125,0.0,0,0
1772275745.0251222,1772275744.991496,761.71875,103.515625,-15.625,303.22265625,0.0,0,0
1772275745.025134,1772275744.9953902,-917.96875,103.02734375,-7.32421875,857.91015625,0.0,0,0
1772275745.071079,1772275744.99945,-7.32421875,-92.28515625,-43.9453125,263.671875,0.0,0,0
1772275745.071129,1772275745.0033438,-1000.0,-223.6328125,-84.47265625,-697.265625,0.0,0,0
1772275745.071146,1772275745.007238,-668.45703125,-143.5546875,-89.84375,-740.72265625,0.0,0,0
1772275745.0711622,1772275745.011132,587.40234375,67.87109375,-46.38671875,202.63671875,0.0,0,0
1772275745.071179,1772275745.0150259,-852.05078125,169.921875,-25.87890625,860.3515625,0.0,0,0
1772275745.0711942,1772275745.01892,148.92578125,31.25,-55.6640625,390.625,0.0,0,0
1772275745.071209,1772275745.022814,-1000.0,-157.71484375,-81.54296875,-581.54296875,0.0,0,0
1772275745.071223,1772275745.026708,-841.796875,-130.37109375,-70.80078125,-812.01171875,0.0,0,0
1772275745.071239,1772275745.030602,356.93359375,109.86328125,-15.13671875,13.18359375,0.0,0,0
1772275745.071253,1772275745.034496,-832.51953125,178.7109375,17.578125,817.87109375,0.0,0,0
1772275745.071268,1772275745.03839,272.4609375,32.71484375,-9.765625,472.16796875,0.0,0,0
1772275745.071282,1772275745.042284,-1000.0,-129.39453125,-35.64453125,-516.11328125,0.0,0,0
1772275745.1159098,1772275745.0463307,-966.796875,-122.55859375,-27.83203125,-853.515625,0.0,0,0
1772275745.11594,1772275745.0502248,172.8515625,65.4296875,-2.9296875,-113.28125,0.0,0,0
1772275745.115959,1772275745.0541189,-848.14453125,180.6640625,11.23046875,783.69140625,0.0,0,0
1772275745.115977,1772275745.0580127,418.9453125,67.87109375,-8.7890625,601.5625,0.0,0,0
1772275745.115993,1772275745.0619068,-899.90234375,-134.27734375,-51.7578125,-413.57421875,0.0,0,0
1772275745.116011,1772275745.065801,-1000.0,-118.65234375,-54.19921875,-855.95703125,0.0,0,0
1772275745.1160278,1772275745.069695,124.0234375,82.03125,-6.34765625,-173.828125,0.0,0,0
1772275745.116045,1772275745.0735888,-880.37109375,198.2421875,37.109375,742.67578125,0.0,0,0
1772275745.116083,1772275745.077483,554.19921875,62.01171875,43.45703125,738.76953125,0.0,0,0
1772275745.116122,1772275745.081377,-693.84765625,-124.51171875,20.5078125,-154.78515625,0.0,0,0
1772275745.116143,1772275745.0852711,-1000.0,-105.46875,3.90625,-785.15625,0.0,0,0
1772275745.116161,1772275745.0891652,-121.58203125,86.9140625,9.27734375,-294.921875,0.0,0,0
1772275745.1610692,1772275745.0931995,-911.1328125,237.79296875,21.97265625,636.71875,0.0,0,0
1772275745.1611269,1772275745.0970933,693.359375,163.57421875,30.2734375,742.1875,0.0,0,0
1772275745.1611562,1772275745.1009874,-517.08984375,-23.4375,-9.765625,-138.18359375,0.0,0,0
1772275745.1611829,1772275745.1048815,-1000.0,-82.03125,-38.0859375,-909.66796875,0.0,0,0
1772275745.16121,1772275745.1087756,-258.30078125,112.79296875,-34.1796875,-521.97265625,0.0,0,0
1772275745.1612349,1772275745.1126697,-939.453125,341.796875,-6.8359375,538.0859375,0.0,0,0
1772275745.161269,1772275745.1165638,708.984375,264.6484375,19.04296875,817.87109375,0.0,0,0
1772275745.161294,1772275745.120458,-520.5078125,22.4609375,-6.8359375,-13.671875,0.0,0,0
1772275745.161321,1772275745.124352,-1000.0,-72.75390625,-30.76171875,-855.46875,0.0,0,0
1772275745.161349,1772275745.1282458,-397.94921875,65.91796875,4.39453125,-556.640625,0.0,0,0
1772275745.161377,1772275745.13214,950.68359375,226.5625,23.92578125,507.32421875,0.0,0,0
1772275745.161404,1772275745.136034,872.55859375,123.53515625,-20.99609375,864.2578125,0.0,0,0
1772275745.236871,1772275745.140247,-361.81640625,-33.69140625,-52.734375,105.46875,0.0,0,0
1772275745.236972,1772275745.1441412,-1000.0,-109.375,-50.78125,-778.3203125,0.0,0,0
1772275745.237014,1772275745.1480353,-626.46484375,29.296875,-21.97265625,-648.92578125,0.0,0,0
1772275745.237041,1772275745.1519294,678.7109375,203.125,0.48828125,356.4453125,0.0,0,0
1772275745.2370691,1772275745.1558237,-976.07421875,119.62890625,1.46484375,855.95703125,0.0,0,0
1772275745.2371001,1772275745.1597178,-199.70703125,-31.73828125,-33.203125,217.7734375,0.0,0,0
1772275745.2371259,1772275745.163612,-1000.0,-98.6328125,-83.0078125,-704.58984375,0.0,0,0
1772275745.237149,1772275745.167506,-766.6015625,-13.671875,-89.84375,-757.32421875,0.0,0,0
1772275745.237194,1772275745.1714,448.2421875,173.828125,-62.5,284.1796875,0.0,0,0
1772275745.23724,1772275745.1752942,-870.1171875,185.05859375,-70.3125,-971.19140625,0.0,0,0
1772275745.237272,1772275745.1791883,-22.94921875,-40.0390625,-109.375,574.21875,0.0,0,0
1772275745.2372968,1772275745.1830823,-1000.0,-182.12890625,-136.23046875,-256.8359375,0.0,0,0
1772275745.2512681,1772275745.187101,-907.2265625,-95.21484375,-137.20703125,-474.12109375,0.0,0,0
1772275745.2513402,1772275745.190995,177.24609375,93.75,-111.328125,179.6875,0.0,0,0
1772275745.251369,1772275745.194889,-833.49609375,130.859375,-71.2890625,937.98828125,0.0,0,0
1772275745.2514088,1772275745.1987832,189.453125,-52.734375,-76.171875,630.37109375,0.0,0,0
1772275745.25156,1772275745.2026775,-1000.0,-205.56640625,-124.51171875,-417.96875,0.0,0,0
1772275745.251591,1772275745.2065716,-907.71484375,-145.5078125,-155.2734375,-740.234375,0.0,0,0
1772275745.251617,1772275745.2104657,216.796875,18.06640625,-143.06640625,140.625,0.0,0,0
1772275745.251643,1772275745.2143598,-850.5859375,54.19921875,-122.0703125,986.81640625,0.0,0,0
1772275745.251668,1772275745.2182539,386.23046875,-49.8046875,-133.7890625,804.19921875,0.0,0,0
1772275745.251691,1772275745.2221482,-940.91796875,-211.9140625,-171.38671875,-243.65234375,0.0,0,0
1772275745.2517152,1772275745.2260423,-952.1484375,-235.83984375,-184.5703125,-312.98828125,0.0,0,0
1772275745.2517388,1772275745.2299364,176.7578125,-117.1875,-157.71484375,750.9765625,0.0,0,0
1772275745.296612,1772275745.2339377,-960.9375,-36.1328125,-147.94921875,992.67578125,0.0,0,0
1772275745.2967181,1772275745.237832,710.44921875,-73.2421875,-164.55078125,964.35546875,0.0,0,0
1772275745.296761,1772275745.2417262,-463.37890625,-220.703125,-190.91796875,849.609375,0.0,0,0
1772275745.2968,1772275745.2456203,-1000.0,-241.2109375,-206.0546875,756.34765625,0.0,0,0
1772275745.2968378,1772275745.2495146,-158.69140625,-147.4609375,-178.22265625,959.9609375,0.0,0,0
1772275745.296876,1772275745.2534087,903.80859375,-62.98828125,-133.30078125,966.30859375,0.0,0,0
1772275745.296913,1772275745.2573028,871.58203125,-94.23828125,-117.67578125,980.46875,0.0,0,0
1772275745.29695,1772275745.2611969,-258.30078125,-307.12890625,-139.16015625,909.1796875,0.0,0,0
1772275745.296988,1772275745.2650912,-1000.0,-364.2578125,-141.6015625,732.91015625,0.0,0,0
1772275745.297025,1772275745.2689853,-270.01953125,-203.61328125,-121.58203125,889.16015625,0.0,0,0
1772275745.297062,1772275745.2728794,841.30859375,-104.00390625,-107.421875,965.33203125,0.0,0,0
1772275745.297098,1772275745.2767737,993.1640625,-113.76953125,-84.9609375,-999.51171875,0.0,0,0
1772275745.3417711,1772275745.280762,118.65234375,-223.14453125,-86.42578125,795.41015625,0.0,0,0
1772275745.341883,1772275745.284656,-1000.0,-281.25,-109.375,196.77734375,0.0,0,0
1772275745.341919,1772275745.2885504,-396.97265625,-149.4140625,-89.84375,488.76953125,0.0,0,0
1772275745.34195,1772275745.2924445,748.046875,-37.59765625,-53.22265625,972.65625,0.0,0,0
1772275745.3419788,1772275745.2963388,973.6328125,-84.47265625,-45.8984375,-997.55859375,0.0,0,0
1772275745.342009,1772275745.300233,269.53125,-193.359375,-57.12890625,770.5078125,0.0,0,0
1772275745.342038,1772275745.304127,-912.109375,-279.296875,-91.796875,47.36328125,0.0,0,0
1772275745.3420858,1772275745.3080213,-562.98828125,-220.703125,-122.0703125,185.546875,0.0,0,0
1772275745.3421152,1772275745.3119154,557.6171875,-86.9140625,-78.61328125,849.609375,0.0,0,0
1772275745.342144,1772275745.3158095,966.30859375,-58.59375,-60.546875,-968.26171875,0.0,0,0
1772275745.342172,1772275745.3197038,373.53515625,-169.921875,-91.30859375,691.40625,0.0,0,0
1772275745.342201,1772275745.323598,-806.640625,-280.76171875,-106.93359375,-145.99609375,0.0,0,0
1772275745.4028952,1772275745.3275766,-370.1171875,-170.8984375,-105.46875,-133.30078125,0.0,0,0
1772275745.403025,1772275745.3314707,853.515625,2.44140625,-62.5,657.71484375,0.0,0,0
1772275745.403083,1772275745.335365,-989.74609375,23.92578125,-40.0390625,-955.078125,0.0,0,0
1772275745.403136,1772275745.3392591,716.796875,-89.35546875,-79.1015625,687.98828125,0.0,0,0
1772275745.403188,1772275745.3431535,-316.40625,-212.40234375,-113.76953125,-214.35546875,0.0,0,0
1772275745.403239,1772275745.3470476,-444.82421875,-139.16015625,-110.3515625,-263.671875,0.0,0,0
1772275745.403291,1772275745.3509417,542.48046875,-17.578125,-82.51953125,600.5859375,0.0,0,0
1772275745.403341,1772275745.354836,872.55859375,37.59765625,-57.12890625,-974.609375,0.0,0,0
1772275745.403393,1772275745.35873,729.98046875,-29.296875,-70.3125,830.56640625,0.0,0,0
1772275745.403444,1772275745.3626244,-254.39453125,-144.53125,-121.58203125,53.22265625,0.0,0,0
1772275745.403494,1772275745.3665185,-601.07421875,-134.27734375,-122.0703125,-243.65234375,0.0,0,0
1772275745.4035451,1772275745.3704128,183.10546875,-30.76171875,-65.4296875,505.859375,0.0,0,0
1772275745.447258,1772275745.3744779,760.7421875,48.33984375,-4.39453125,-973.6328125,0.0,0,0
1772275745.447385,1772275745.3783722,654.78515625,-22.94921875,-18.06640625,813.4765625,0.0,0,0
1772275745.447444,1772275745.3822663,-235.83984375,-176.7578125,-90.8203125,-106.93359375,0.0,0,0
1772275745.447499,1772275745.3861606,-649.4140625,-187.01171875,-103.02734375,-626.953125,0.0,0,0
1772275745.447551,1772275745.3900547,49.8046875,-24.90234375,-72.75390625,73.73046875,0.0,0,0
1772275745.4476008,1772275745.393949,854.4921875,112.3046875,-31.25,910.64453125,0.0,0,0
1772275745.4476511,1772275745.3978434,661.1328125,19.53125,-30.76171875,799.8046875,0.0,0,0
1772275745.447704,1772275745.4017375,-24.4140625,-87.40234375,-41.015625,-139.16015625,0.0,0,0
1772275745.447754,1772275745.4056318,-504.8828125,-31.25,-45.41015625,-664.0625,0.0,0,0
1772275745.447806,1772275745.4095259,-88.37890625,55.6640625,-60.05859375,-6.34765625,0.0,0,0
1772275745.4478562,1772275745.4134202,777.34375,97.16796875,-32.71484375,866.69921875,0.0,0,0
1772275745.447905,1772275745.4173143,740.72265625,50.29296875,-26.85546875,917.96875,0.0,0,0
1772275745.492138,1772275745.4213638,170.41015625,-60.05859375,-49.8046875,167.96875,0.0,0,0
1772275745.4922519,1772275745.4252582,-507.8125,-104.4921875,-63.4765625,-441.89453125,0.0,0,0
1772275745.4922931,1772275745.4291523,-340.8203125,-18.06640625,-52.24609375,47.36328125,0.0,0,0
1772275745.492331,1772275745.4330466,601.5625,67.3828125,-36.62109375,832.03125,0.0,0,0
1772275745.4923708,1772275745.436941,812.01171875,24.4140625,-46.875,962.890625,0.0,0,0
1772275745.492408,1772275745.440835,252.44140625,-72.75390625,-61.5234375,255.859375,0.0,0,0
1772275745.4924438,1772275745.4447293,-580.56640625,-125.9765625,-71.77734375,-509.27734375,0.0,0,0
1772275745.492482,1772275745.4486237,-456.0546875,-34.1796875,-43.45703125,-178.7109375,0.0,0,0
1772275745.4925199,1772275745.4525177,490.234375,67.87109375,-1.953125,687.98828125,0.0,0,0
1772275745.4925609,1772275745.456412,837.890625,60.05859375,-7.8125,975.09765625,0.0,0,0
1772275745.492597,1772275745.4603064,601.07421875,-14.16015625,-35.15625,304.6875,0.0,0,0
1772275745.492641,1772275745.4642005,-359.375,-103.515625,-55.6640625,-487.3046875,0.0,0,0
1772275745.536692,1772275745.468236,-409.66796875,-47.36328125,-63.96484375,-278.3203125,0.0,0,0
1772275745.536819,1772275745.4721303,609.375,118.1640625,-46.875,603.515625,0.0,0,0
1772275745.536878,1772275745.4760246,852.5390625,111.81640625,-19.04296875,-996.09375,0.0,0,0
1772275745.5369349,1772275745.479919,580.078125,25.87890625,-18.5546875,374.0234375,0.0,0,0
1772275745.536986,1772275745.4838133,-408.203125,-87.40234375,-49.31640625,-504.8828125,0.0,0,0
1772275745.5370371,1772275745.4877074,-494.62890625,-58.10546875,-59.5703125,-401.3671875,0.0,0,0
1772275745.537089,1772275745.4916017,416.50390625,86.9140625,-36.62109375,519.04296875,0.0,0,0
1772275745.53714,1772275745.495496,786.1328125,94.7265625,-8.30078125,-971.19140625,0.0,0,0
1772275745.537191,1772275745.4993904,632.32421875,-16.6015625,4.39453125,523.92578125,0.0,0,0
1772275745.5372438,1772275745.5032845,-341.30859375,-109.375,-16.6015625,-353.02734375,0.0,0,0
1772275745.537295,1772275745.5071788,-572.265625,-55.6640625,-40.52734375,-461.9140625,0.0,0,0
1772275745.537345,1772275745.511073,267.08984375,97.65625,-21.97265625,374.0234375,0.0,0,0
1772275745.581459,1772275745.5150957,780.2734375,179.19921875,8.30078125,991.2109375,0.0,0,0
1772275745.5815659,1772275745.51899,622.0703125,72.265625,-11.71875,510.25390625,0.0,0,0
1772275745.5816069,1772275745.5228844,-270.5078125,-80.078125,-72.265625,-395.5078125,0.0,0,0
1772275745.581645,1772275745.5267787,-574.70703125,-58.59375,-99.12109375,-617.67578125,0.0,0,0
1772275745.581685,1772275745.530673,116.69921875,51.26953125,-74.21875,142.578125,0.0,0,0
1772275745.581732,1772275745.5345674,736.328125,89.84375,-44.921875,846.6796875,0.0,0,0
1772275745.581772,1772275745.5384617,645.5078125,11.71875,-37.59765625,511.71875,0.0,0,0
1772275745.581892,1772275745.542356,-158.203125,-129.8828125,-54.19921875,-386.23046875,0.0,0,0
1772275745.5819242,1772275745.54625,-578.125,-156.73828125,-60.546875,-708.984375,0.0,0,0
1772275745.581953,1772275745.5501444,-36.62109375,-62.5,-47.8515625,-9.27734375,0.0,0,0
1772275745.581981,1772275745.5540388,733.88671875,30.2734375,-33.203125,770.99609375,0.0,0,0
1772275745.582009,1772275745.557933,673.33984375,10.7421875,-41.9921875,577.1484375,0.0,0,0
1772275745.6268,1772275745.5619454,-46.875,-64.453125,-56.15234375,-332.51953125,0.0,0,0
1772275745.6269062,1772275745.5658398,-584.47265625,-48.828125,-58.10546875,-794.921875,0.0,0,0
1772275745.626941,1772275745.569734,-164.0625,41.9921875,-41.015625,-184.08203125,0.0,0,0
1772275745.6269708,1772275745.5736282,746.09375,124.0234375,-4.39453125,672.8515625,0.0,0,0
1772275745.627,1772275745.5775225,699.21875,88.8671875,5.37109375,634.27734375,0.0,0,0
1772275745.627029,1772275745.5814168,-14.16015625,-24.90234375,-20.5078125,-226.07421875,0.0,0,0
1772275745.627058,1772275745.5853112,-628.90625,-85.44921875,-33.203125,-755.37109375,0.0,0,0
1772275745.627087,1772275745.5892055,-339.35546875,2.9296875,-9.27734375,-260.25390625,0.0,0,0
1772275745.627116,1772275745.5930998,640.13671875,104.98046875,23.4375,561.03515625,0.0,0,0
1772275745.6271439,1772275745.5969942,716.30859375,74.21875,28.3203125,636.71875,0.0,0,0
1772275745.627172,1772275745.6008885,-31.73828125,-23.4375,-5.37109375,-291.9921875,0.0,0,0
1772275745.6272,1772275745.6047828,-683.59375,-46.875,-45.41015625,-653.80859375,0.0,0,0
1772275745.6715221,1772275745.6087825,-372.55859375,39.0625,-32.71484375,365.72265625,0.0,0,0
1772275745.671613,1772275745.6126769,485.3515625,94.7265625,15.625,973.6328125,0.0,0,0
1772275745.6716459,1772275745.6165712,792.48046875,104.4921875,25.87890625,961.42578125,0.0,0,0
1772275745.671676,1772275745.6204655,365.234375,2.9296875,-7.32421875,928.22265625,0.0,0,0
1772275745.671705,1772275745.6243598,-572.75390625,-100.5859375,-35.15625,770.01953125,0.0,0,0
1772275745.671734,1772275745.6282542,-626.953125,-10.7421875,-22.94921875,884.27734375,0.0,0,0
1772275745.67182,1772275745.6321485,194.3359375,107.91015625,3.90625,991.69921875,0.0,0,0
1772275745.671886,1772275745.6360428,741.69921875,64.94140625,2.9296875,954.58984375,0.0,0,0
1772275745.6719239,1772275745.6399374,491.2109375,-28.3203125,-38.57421875,980.95703125,0.0,0,0
1772275745.6719549,1772275745.6438317,-500.0,-91.796875,-72.75390625,899.90234375,0.0,0,0
1772275745.671987,1772275745.647726,-720.21484375,-94.23828125,-49.31640625,893.5546875,0.0,0,0
1772275745.672016,1772275745.6516204,137.6953125,23.92578125,0.9765625,975.09765625,0.0,0,0
1772275745.716445,1772275745.6556094,840.8203125,160.64453125,30.2734375,962.890625,0.0,0,0
1772275745.7165508,1772275745.6595037,600.5859375,76.66015625,12.20703125,984.86328125,0.0,0,0
1772275745.716608,1772275745.663398,-500.48828125,-90.33203125,-7.32421875,809.08203125,0.0,0,0
1772275745.716647,1772275745.6672924,-702.63671875,-79.1015625,-2.9296875,799.31640625,0.0,0,0
1772275745.716686,1772275745.6711867,72.75390625,13.18359375,10.25390625,971.6796875,0.0,0,0
1772275745.716723,1772275745.675081,767.08984375,74.70703125,31.25,978.515625,0.0,0,0
1772275745.7167602,1772275745.6789753,646.484375,-21.484375,31.73828125,946.77734375,0.0,0,0
1772275745.716796,1772275745.68287,-482.91015625,-153.80859375,6.34765625,612.79296875,0.0,0,0
1772275745.716885,1772275745.6867642,-770.01953125,-127.9296875,-16.11328125,724.12109375,0.0,0,0
1772275745.716932,1772275745.6906586,-28.80859375,4.39453125,2.44140625,-993.1640625,0.0,0,0
1772275745.716971,1772275745.694553,715.8203125,83.984375,47.8515625,946.2890625,0.0,0,0
1772275745.717011,1772275745.6984472,727.5390625,25.390625,53.7109375,993.65234375,0.0,0,0
1772275745.777164,1772275745.702426,-282.2265625,-108.3984375,44.43359375,831.0546875,0.0,0,0
1772275745.777317,1772275745.7063205,-806.640625,-137.6953125,45.8984375,687.98828125,0.0,0,0
1772275745.777379,1772275745.7102149,-174.31640625,-15.13671875,61.03515625,901.3671875,0.0,0,0
1772275745.777437,1772275745.7141092,654.296875,82.51953125,104.98046875,968.26171875,0.0,0,0
1772275745.7774909,1772275745.7180035,740.234375,33.203125,127.44140625,996.09375,0.0,0,0
1772275745.777546,1772275745.7218978,-228.515625,-92.28515625,106.93359375,646.97265625,0.0,0,0
1772275745.777597,1772275745.7257922,-832.51953125,-110.83984375,87.40234375,250.9765625,0.0,0,0
1772275745.777646,1772275745.7296867,-163.0859375,-13.18359375,88.37890625,640.625,0.0,0,0
1772275745.777683,1772275745.733581,760.25390625,43.45703125,83.984375,982.91015625,0.0,0,0
1772275745.77772,1772275745.7374754,768.06640625,-15.625,62.01171875,979.00390625,0.0,0,0
1772275745.777757,1772275745.7413697,-165.0390625,-117.67578125,22.4609375,573.73046875,0.0,0,0
1772275745.7777941,1772275745.745264,-874.0234375,-144.04296875,-12.6953125,120.60546875,0.0,0,0
1772275745.837446,1772275745.7494137,-252.9296875,-41.015625,2.9296875,479.4921875,0.0,0,0
1772275745.837611,1772275745.753308,777.34375,52.734375,21.484375,953.61328125,0.0,0,0
1772275745.837675,1772275745.7572026,798.828125,7.32421875,7.32421875,941.40625,0.0,0,0
1772275745.837729,1772275745.761097,-76.66015625,-110.83984375,-34.1796875,460.44921875,0.0,0,0
1772275745.837782,1772275745.7649915,-876.46484375,-133.30078125,-75.1953125,2.9296875,0.0,0,0
1772275745.837833,1772275745.7688859,-450.1953125,9.765625,-57.12890625,309.08203125,0.0,0,0
1772275745.837884,1772275745.7727802,639.16015625,132.8125,-27.83203125,865.72265625,0.0,0,0
1772275745.8379352,1772275745.7766747,789.0625,72.75390625,-32.71484375,965.33203125,0.0,0,0
1772275745.837985,1772275745.780569,-84.9609375,-82.03125,-62.01171875,472.65625,0.0,0,0
1772275745.838034,1772275745.7844634,-890.13671875,-127.44140625,-83.0078125,-15.13671875,0.0,0,0
1772275745.838084,1772275745.788358,-586.42578125,-24.4140625,-81.54296875,178.7109375,0.0,0,0
1772275745.838134,1772275745.7922523,557.12890625,111.328125,-50.78125,750.0,0.0,0,0
1772275745.867153,1772275745.7963037,883.30078125,105.95703125,-32.2265625,939.94140625,0.0,0,0
1772275745.8672829,1772275745.8001983,17.578125,-53.22265625,-67.3828125,415.0390625,0.0,0,0
1772275745.867332,1772275745.8040926,-917.96875,-161.1328125,-103.515625,-147.94921875,0.0,0,0
1772275745.86742,1772275745.8079872,-662.59765625,-74.21875,-112.79296875,-89.84375,0.0,0,0
1772275745.86746,1772275745.8118815,516.11328125,96.19140625,-97.16796875,546.38671875,0.0,0,0
1772275745.867567,1772275745.815776,992.1875,115.234375,-75.1953125,962.40234375,0.0,0,0
1772275745.8676102,1772275745.8196704,209.47265625,-18.5546875,-94.7265625,541.50390625,0.0,0,0
1772275745.8676522,1772275745.823565,-843.75,-129.39453125,-127.44140625,-86.9140625,0.0,0,0
1772275745.86769,1772275745.8274593,-694.82421875,-115.234375,-117.67578125,-109.375,0.0,0,0
1772275745.867729,1772275745.831354,456.0546875,15.13671875,-84.47265625,536.62109375,0.0,0,0
1772275745.86786,1772275745.8352482,-971.19140625,41.9921875,-89.35546875,941.89453125,0.0,0,0
1772275745.8679192,1772275745.8391426,377.9296875,-72.75390625,-107.91015625,554.19921875,0.0,0,0
1772275745.925622,1772275745.8431778,-754.39453125,-131.8359375,-128.41796875,-85.9375,0.0,0,0
1772275745.925759,1772275745.8470721,-798.33984375,-30.76171875,-136.23046875,-241.69921875,0.0,0,0
1772275745.9258182,1772275745.8509667,232.91015625,88.8671875,-89.35546875,320.80078125,0.0,0,0
1772275745.9258728,1772275745.854861,992.1875,52.24609375,-54.6875,828.61328125,0.0,0,0
1772275745.925923,1772275745.8587556,526.3671875,-59.08203125,-77.1484375,568.359375,0.0,0,0
1772275745.9259741,1772275745.8626502,-599.12109375,-119.140625,-100.5859375,-62.98828125,0.0,0,0
1772275745.926024,1772275745.8665445,-891.11328125,-108.3984375,-109.375,-291.9921875,0.0,0,0
1772275745.92608,1772275745.870439,83.49609375,5.859375,-83.49609375,219.7265625,0.0,0,0
1772275745.9261298,1772275745.8743334,977.5390625,65.4296875,-39.0625,767.578125,0.0,0,0
1772275745.9261801,1772275745.878228,671.875,-13.671875,-40.52734375,676.7578125,0.0,0,0
1772275745.92623,1772275745.8821223,-407.71484375,-91.30859375,-77.1484375,241.69921875,0.0,0,0
1772275745.926434,1772275745.8860168,-910.64453125,-92.28515625,-87.890625,42.48046875,0.0,0,0
1772275745.956439,1772275745.8900383,-37.59765625,31.73828125,-48.33984375,479.4921875,0.0,0,0
1772275745.956536,1772275745.8939328,919.43359375,113.76953125,-11.23046875,963.37890625,0.0,0,0
1772275745.956626,1772275745.8978271,700.68359375,42.48046875,-20.01953125,882.32421875,0.0,0,0
1772275745.9566982,1772275745.9017217,-356.4453125,-85.44921875,-51.7578125,269.53125,0.0,0,0
1772275745.956778,1772275745.9056163,-984.375,-149.4140625,-59.5703125,-136.23046875,0.0,0,0
1772275745.956823,1772275745.9095106,-131.8359375,-25.87890625,-36.62109375,280.76171875,0.0,0,0
1772275745.956862,1772275745.9134052,938.4765625,67.3828125,-20.99609375,872.0703125,0.0,0,0
1772275745.9569569,1772275745.9172997,737.79296875,-23.92578125,-29.78515625,844.23828125,0.0,0,0
1772275745.957025,1772275745.921194,-235.83984375,-86.9140625,-66.40625,227.5390625,0.0,0,0
1772275745.9570692,1772275745.9250886,-985.83984375,-97.16796875,-102.5390625,-241.2109375,0.0,0,0
1772275745.957108,1772275745.9289832,-389.16015625,-2.44140625,-81.0546875,60.546875,0.0,0,0
1772275745.9571462,1772275745.9328775,772.94921875,119.140625,-42.48046875,662.59765625,0.0,0,0
1772275746.001166,1772275745.9368865,810.05859375,69.3359375,-34.1796875,764.16015625,0.0,0,0
1772275746.001274,1772275745.940781,-145.5078125,-63.4765625,-74.70703125,218.75,0.0,0,0
1772275746.001309,1772275745.9446754,-969.23828125,-119.62890625,-103.02734375,-305.17578125,0.0,0,0
1772275746.0013351,1772275745.94857,-530.2734375,-33.203125,-67.3828125,-77.63671875,0.0,0,0
1772275746.00136,1772275745.9524646,654.296875,78.61328125,-31.73828125,593.75,0.0,0,0
1772275746.001384,1772275745.956359,868.65234375,82.03125,-35.15625,781.73828125,0.0,0,0
1772275746.001408,1772275745.9602535,-97.16796875,-62.98828125,-72.265625,252.9296875,0.0,0,0
1772275746.0014322,1772275745.964148,-978.515625,-138.671875,-97.65625,-315.4296875,0.0,0,0
1772275746.001456,1772275745.9680426,-631.8359375,-69.82421875,-106.4453125,-181.15234375,0.0,0,0
1772275746.001484,1772275745.971937,536.62109375,8.7890625,-97.16796875,477.5390625,0.0,0,0
1772275746.001508,1772275745.9758315,985.83984375,19.53125,-80.56640625,756.8359375,0.0,0,0
1772275746.0015318,1772275745.979726,106.4453125,-79.58984375,-100.09765625,299.8046875,0.0,0,0
1772275746.047206,1772275745.9837267,-933.59375,-177.734375,-123.046875,-283.203125,0.0,0,0
1772275746.047358,1772275745.9876213,-726.5625,-128.90625,-116.69921875,-232.421875,0.0,0,0
1772275746.047416,1772275745.9915159,403.80859375,12.20703125,-78.61328125,431.15234375,0.0,0,0
1772275746.047471,1772275745.9954104,-980.46875,42.48046875,-63.96484375,798.33984375,0.0,0,0
1772275746.047523,1772275745.9993048,288.0859375,-63.96484375,-88.37890625,392.08984375,0.0,0,0
1772275746.047574,1772275746.0031993,-801.26953125,-129.8828125,-105.95703125,-168.45703125,0.0,0,0
1772275746.047626,1772275746.007094,-748.046875,-78.61328125,-101.07421875,-204.1015625,0.0,0,0
1772275746.0476758,1772275746.0109885,304.6875,49.8046875,-65.91796875,376.46484375,0.0,0,0
1772275746.047733,1772275746.014883,989.74609375,90.33203125,-45.41015625,793.45703125,0.0,0,0
1772275746.0477839,1772275746.0187774,418.45703125,-16.11328125,-71.77734375,449.70703125,0.0,0,0
1772275746.047843,1772275746.022672,-736.81640625,-143.5546875,-93.75,-140.625,0.0,0,0
1772275746.047895,1772275746.0265665,-882.32421875,-177.24609375,-99.609375,-266.6015625,0.0,0,0
1772275746.0926561,1772275746.0305562,85.9375,-59.08203125,-74.70703125,266.6015625,0.0,0,0
1772275746.092812,1772275746.0344508,958.984375,65.91796875,-43.45703125,764.16015625,0.0,0,0
1772275746.092874,1772275746.038345,541.015625,44.921875,-59.08203125,572.265625,0.0,0,0
1772275746.092926,1772275746.0422397,-662.109375,-71.2890625,-82.03125,-43.45703125,0.0,0,0
1772275746.09298,1772275746.0461342,-951.171875,-84.9609375,-69.3359375,-283.69140625,0.0,0,0
1772275746.093032,1772275746.0500288,12.6953125,49.8046875,-28.3203125,213.8671875,0.0,0,0
1772275746.0930839,1772275746.0539234,951.66015625,104.4921875,-14.16015625,744.62890625,0.0,0,0
1772275746.093138,1772275746.057818,615.72265625,7.8125,-50.78125,583.49609375,0.0,0,0
1772275746.093197,1772275746.0617125,-527.34375,-123.046875,-110.3515625,-60.05859375,0.0,0,0
1772275746.093248,1772275746.065607,-997.0703125,-130.37109375,-117.67578125,-384.27734375,0.0,0,0
1772275746.093319,1772275746.0695014,-207.03125,-21.97265625,-82.51953125,59.08203125,0.0,0,0
1772275746.093369,1772275746.073396,842.7734375,34.66796875,-67.87109375,650.390625,0.0,0,0
1772275746.151946,1772275746.0773716,706.0546875,-39.0625,-66.89453125,624.51171875,0.0,0,0
1772275746.1520681,1772275746.0812662,-371.58203125,-168.9453125,-91.30859375,34.1796875,0.0,0,0
1772275746.1521149,1772275746.0851607,-1000.0,-163.57421875,-102.05078125,-342.28515625,0.0,0,0
1772275746.152155,1772275746.089055,-369.140625,-40.52734375,-69.3359375,-3.41796875,0.0,0,0
1772275746.1521962,1772275746.0929496,790.52734375,29.78515625,-42.96875,600.5859375,0.0,0,0
1772275746.152234,1772275746.0968442,832.03125,-6.8359375,-38.0859375,723.14453125,0.0,0,0
1772275746.152271,1772275746.1007388,-211.42578125,-130.859375,-69.3359375,162.109375,0.0,0,0
1772275746.152308,1772275746.1046333,-1000.0,-193.84765625,-105.95703125,-351.5625,0.0,0,0
1772275746.1523452,1772275746.108528,-529.78515625,-90.33203125,-103.515625,-104.98046875,0.0,0,0
1772275746.152382,1772275746.1124225,680.6640625,42.48046875,-74.21875,528.3203125,0.0,0,0
1772275746.1524181,1772275746.116317,882.32421875,35.15625,-41.50390625,688.96484375,0.0,0,0
1772275746.1524549,1772275746.1202116,-71.2890625,-68.359375,-44.921875,177.734375,0.0,0,0
1772275746.2271008,1772275746.1243598,-959.9609375,-108.88671875,-55.17578125,-322.75390625,0.0,0,0
1772275746.227262,1772275746.1282547,-638.671875,-58.10546875,-40.52734375,-177.24609375,0.0,0,0
1772275746.227325,1772275746.1321492,573.2421875,41.50390625,-10.7421875,451.171875,0.0,0,0
1772275746.227378,1772275746.1360438,953.61328125,59.5703125,8.7890625,715.33203125,0.0,0,0
1772275746.227432,1772275746.1399384,-8.7890625,-61.03515625,-20.5078125,257.32421875,0.0,0,0
1772275746.2274828,1772275746.143833,-956.54296875,-149.4140625,-51.7578125,-293.9453125,0.0,0,0
1772275746.227541,1772275746.1477275,-722.16796875,-127.44140625,-45.8984375,-259.27734375,0.0,0,0
1772275746.227593,1772275746.151622,436.5234375,-26.3671875,-25.87890625,363.28125,0.0,0,0
1772275746.2276428,1772275746.1555166,-962.40234375,9.27734375,-11.23046875,724.609375,0.0,0,0
1772275746.227707,1772275746.1594114,223.14453125,-76.171875,-29.296875,329.1015625,0.0,0,0
1772275746.227765,1772275746.163306,-872.0703125,-148.92578125,-60.546875,-226.07421875,0.0,0,0
1772275746.2278159,1772275746.1672006,-781.73828125,-89.35546875,-69.82421875,-289.0625,0.0,0,0
1772275746.242529,1772275746.171252,320.3125,53.7109375,-50.78125,269.04296875,0.0,0,0
1772275746.24265,1772275746.1751466,-902.83203125,83.984375,-31.25,705.078125,0.0,0,0
1772275746.24271,1772275746.1790411,494.62890625,-4.39453125,-58.10546875,371.58203125,0.0,0,0
1772275746.242763,1772275746.182936,-827.63671875,-99.609375,-104.00390625,-237.79296875,0.0,0,0
1772275746.242819,1772275746.1868305,-925.78125,-93.75,-97.16796875,-373.53515625,0.0,0,0
1772275746.242945,1772275746.190725,253.41796875,38.57421875,-63.96484375,183.10546875,0.0,0,0
1772275746.243008,1772275746.1946197,-870.60546875,120.1171875,-44.921875,718.75,0.0,0,0
1772275746.243063,1772275746.1985145,405.2734375,3.90625,-61.5234375,484.375,0.0,0,0
1772275746.243115,1772275746.202409,-882.32421875,-147.4609375,-99.609375,-122.0703125,0.0,0,0
1772275746.243167,1772275746.2063036,-1000.0,-127.9296875,-100.09765625,-324.70703125,0.0,0,0
1772275746.243219,1772275746.2101982,120.60546875,74.21875,-57.12890625,155.2734375,0.0,0,0
1772275746.24327,1772275746.214093,-882.32421875,175.29296875,-21.484375,693.359375,0.0,0,0
1772275746.287007,1772275746.218125,516.6015625,-23.92578125,-35.64453125,541.015625,0.0,0,0
1772275746.287143,1772275746.2220197,-741.69921875,-189.453125,-69.3359375,-48.828125,0.0,0,0
1772275746.287446,1772275746.2259145,-1000.0,-121.58203125,-93.75,-315.4296875,0.0,0,0
1772275746.287504,1772275746.229809,-13.18359375,64.94140625,-77.1484375,111.81640625,0.0,0,0
1772275746.287555,1772275746.2337036,-905.2734375,200.1953125,-33.203125,677.734375,0.0,0,0
1772275746.287605,1772275746.2375984,651.3671875,131.8359375,-13.671875,636.71875,0.0,0,0
1772275746.2876558,1772275746.241493,-565.4296875,-82.51953125,-41.50390625,66.40625,0.0,0,0
1772275746.2877061,1772275746.2453876,-1000.0,-176.26953125,-81.0546875,-302.24609375,0.0,0,0
1772275746.287755,1772275746.2492824,-164.0625,-15.13671875,-69.3359375,28.3203125,0.0,0,0
1772275746.2878048,1772275746.253177,-944.82421875,178.22265625,-17.08984375,641.6015625,0.0,0,0
1772275746.2878542,1772275746.2570715,716.796875,143.06640625,-4.8828125,657.2265625,0.0,0,0
1772275746.287905,1772275746.2609663,-443.84765625,-45.41015625,-40.52734375,39.55078125,0.0,0,0
1772275746.332188,1772275746.2649872,-1000.0,-77.63671875,-54.19921875,-400.390625,0.0,0,0
1772275746.332324,1772275746.2688818,-304.6875,86.9140625,-16.11328125,-110.3515625,0.0,0,0
1772275746.332384,1772275746.2727766,979.98046875,175.29296875,20.01953125,531.73828125,0.0,0,0
1772275746.332441,1772275746.2766712,866.2109375,98.14453125,19.53125,665.0390625,0.0,0,0
1772275746.3324952,1772275746.280566,-258.7890625,-30.76171875,-1.46484375,106.93359375,0.0,0,0
1772275746.3325481,1772275746.2844605,-1000.0,-96.6796875,-26.85546875,-440.4296875,0.0,0,0
1772275746.332598,1772275746.2883554,-536.62109375,32.71484375,-7.8125,-267.08984375,0.0,0,0
1772275746.332662,1772275746.29225,801.26953125,161.62109375,49.31640625,410.64453125,0.0,0,0
1772275746.332712,1772275746.2961445,958.984375,128.41796875,83.984375,668.45703125,0.0,0,0
1772275746.332763,1772275746.3000393,-215.8203125,5.859375,26.3671875,178.22265625,0.0,0,0
1772275746.332813,1772275746.3039339,-1000.0,-96.19140625,-7.8125,-389.6484375,0.0,0,0
1772275746.332862,1772275746.3078287,-689.94140625,-59.5703125,21.484375,-312.01171875,0.0,0,0
1772275746.3767061,1772275746.3118389,594.23828125,108.88671875,55.17578125,354.00390625,0.0,0,0
1772275746.376828,1772275746.3157337,-962.890625,147.94921875,33.203125,676.7578125,0.0,0,0
1772275746.3768718,1772275746.3196282,-139.16015625,-53.7109375,-38.57421875,235.83984375,0.0,0,0
1772275746.3769119,1772275746.323523,-1000.0,-201.171875,-97.16796875,-325.1953125,0.0,0,0
1772275746.3769522,1772275746.3274176,-798.33984375,-105.95703125,-124.0234375,-339.84375,0.0,0,0
1772275746.376989,1772275746.3313124,323.2421875,101.07421875,-101.07421875,256.8359375,0.0,0,0
1772275746.377026,1772275746.335207,-892.578125,148.92578125,-60.05859375,684.08203125,0.0,0,0
1772275746.3770628,1772275746.3391018,269.04296875,-8.30078125,-60.546875,349.12109375,0.0,0,0
1772275746.377099,1772275746.3429966,-928.22265625,-172.8515625,-91.796875,-255.37109375,0.0,0,0
1772275746.377144,1772275746.3468912,-915.0390625,-178.22265625,-109.86328125,-339.35546875,0.0,0,0
1772275746.3772008,1772275746.350786,190.91796875,-20.01953125,-75.1953125,249.51171875,0.0,0,0
1772275746.377265,1772275746.3546805,-893.5546875,108.3984375,-60.05859375,725.09765625,0.0,0,0
1772275746.4212632,1772275746.3586786,407.2265625,6.8359375,-98.6328125,476.07421875,0.0,0,0
1772275746.421351,1772275746.3625734,-813.4765625,-187.98828125,-122.55859375,-128.41796875,0.0,0,0
1772275746.421396,1772275746.366468,-1000.0,-204.58984375,-117.67578125,-337.890625,0.0,0,0
1772275746.421437,1772275746.3703628,-45.8984375,-40.0390625,-75.1953125,191.40625,0.0,0,0
1772275746.4214761,1772275746.3742573,-929.6875,76.66015625,-36.62109375,749.51171875,0.0,0,0
1772275746.421515,1772275746.3781521,559.5703125,-2.44140625,-59.08203125,561.5234375,0.0,0,0
1772275746.421553,1772275746.382047,-662.59765625,-144.53125,-108.88671875,-59.08203125,0.0,0,0
1772275746.421601,1772275746.3859415,-1000.0,-193.84765625,-124.51171875,-335.44921875,0.0,0,0
1772275746.4216378,1772275746.3898363,-205.56640625,-76.66015625,-88.37890625,144.53125,0.0,0,0
1772275746.421675,1772275746.3937309,-996.09375,62.98828125,-38.0859375,732.91015625,0.0,0,0
1772275746.421716,1772275746.3976257,629.8828125,1.953125,-31.25,651.3671875,0.0,0,0
1772275746.4217532,1772275746.4015203,-587.890625,-149.90234375,-61.03515625,30.2734375,0.0,0,0
1772275746.467367,1772275746.405509,-1000.0,-206.54296875,-77.1484375,-310.546875,0.0,0,0
1772275746.467526,1772275746.4094036,-377.9296875,-73.73046875,-57.6171875,75.68359375,0.0,0,0
1772275746.467584,1772275746.4132984,890.13671875,39.55078125,-37.109375,675.29296875,0.0,0,0
1772275746.467641,1772275746.4171932,801.26953125,-17.578125,-39.55078125,692.87109375,0.0,0,0
1772275746.467694,1772275746.4210877,-383.7890625,-146.97265625,-53.22265625,107.421875,0.0,0,0
1772275746.467749,1772275746.4249825,-1000.0,-186.5234375,-78.125,-312.01171875,0.0,0,0
1772275746.4678001,1772275746.4288774,-548.828125,-111.81640625,-75.68359375,4.8828125,0.0,0,0
1772275746.467853,1772275746.432772,710.9375,-11.23046875,-42.96875,604.4921875,0.0,0,0
1772275746.467904,1772275746.4366667,944.3359375,-2.9296875,-29.296875,701.171875,0.0,0,0
1772275746.467954,1772275746.4405615,-170.8984375,-117.1875,-49.31640625,217.28515625,0.0,0,0
1772275746.468006,1772275746.444456,-1000.0,-178.22265625,-73.73046875,-252.44140625,0.0,0,0
1772275746.468056,1772275746.448351,-587.40234375,-85.9375,-59.5703125,-36.1328125,0.0,0,0
1772275746.526884,1772275746.4523287,678.22265625,30.2734375,-8.30078125,592.7734375,0.0,0,0
1772275746.52704,1772275746.4562232,-991.2109375,31.73828125,3.41796875,766.6015625,0.0,0,0
1772275746.527084,1772275746.460118,-78.125,-73.73046875,-22.94921875,253.90625,0.0,0,0
1772275746.527124,1772275746.4640129,-1000.0,-194.82421875,-52.24609375,-300.29296875,0.0,0,0
1772275746.527164,1772275746.4679074,-713.37890625,-113.76953125,-51.7578125,-199.70703125,0.0,0,0
1772275746.527203,1772275746.4718022,517.08984375,92.7734375,0.9765625,471.6796875,0.0,0,0
1772275746.527243,1772275746.475697,-923.33984375,65.91796875,8.7890625,751.46484375,0.0,0,0
1772275746.527282,1772275746.4795918,16.11328125,-139.16015625,-33.69140625,278.80859375,0.0,0,0
1772275746.527321,1772275746.4834864,-1000.0,-210.44921875,-62.98828125,-243.1640625,0.0,0,0
1772275746.5273569,1772275746.4873812,-853.02734375,-97.65625,-61.03515625,-199.21875,0.0,0,0
1772275746.527393,1772275746.491276,275.390625,92.28515625,-24.4140625,411.1328125,0.0,0,0
1772275746.527429,1772275746.4951706,-873.53515625,124.0234375,5.37109375,807.12890625,0.0,0,0
1772275746.57196,1772275746.499226,205.078125,-71.2890625,-16.11328125,416.015625,0.0,0,0
1772275746.5720901,1772275746.5031207,-1000.0,-187.98828125,-65.91796875,-234.86328125,0.0,0,0
1772275746.5721369,1772275746.5070155,-893.5546875,-92.28515625,-91.30859375,-321.2890625,0.0,0,0
1772275746.572177,1772275746.5109103,222.65625,88.8671875,-60.546875,292.96875,0.0,0,0
1772275746.5722141,1772275746.514805,-874.51171875,118.1640625,-22.4609375,766.11328125,0.0,0,0
1772275746.5722518,1772275746.5187,407.71484375,14.6484375,-34.1796875,460.9375,0.0,0,0
1772275746.572288,1772275746.5225945,-864.2578125,-125.0,-64.94140625,-151.3671875,0.0,0,0
1772275746.5723321,1772275746.5264893,-1000.0,-142.578125,-81.54296875,-339.84375,0.0,0,0
1772275746.572368,1772275746.530384,95.703125,56.640625,-61.5234375,172.8515625,0.0,0,0
1772275746.572404,1772275746.5342789,-889.16015625,122.55859375,-33.203125,706.54296875,0.0,0,0
1772275746.572441,1772275746.5381737,522.94921875,-48.828125,-49.8046875,512.20703125,0.0,0,0
1772275746.5724769,1772275746.5420685,-727.5390625,-181.15234375,-80.078125,-88.37890625,0.0,0,0
1772275746.616813,1772275746.546111,-1000.0,-171.38671875,-76.171875,-314.453125,0.0,0,0
1772275746.6169379,1772275746.550006,-24.4140625,-41.9921875,-41.015625,194.3359375,0.0,0,0
1772275746.616981,1772275746.5539007,-918.9453125,34.1796875,-16.6015625,761.23046875,0.0,0,0
1772275746.617019,1772275746.5577955,653.80859375,-66.40625,-27.83203125,653.3203125,0.0,0,0
1772275746.617057,1772275746.5616903,-547.36328125,-180.6640625,-57.6171875,43.9453125,0.0,0,0
1772275746.6172779,1772275746.5655851,-1000.0,-178.22265625,-63.4765625,-296.38671875,0.0,0,0
1772275746.6173189,1772275746.56948,-175.29296875,-15.625,-35.64453125,108.88671875,0.0,0,0
1772275746.617357,1772275746.5733747,-956.54296875,74.21875,-13.18359375,680.6640625,0.0,0,0
1772275746.6173928,1772275746.5772693,755.859375,-41.9921875,-14.6484375,634.765625,0.0,0,0
1772275746.61743,1772275746.5811641,-382.32421875,-163.0859375,-48.33984375,36.1328125,0.0,0,0
1772275746.6174662,1772275746.585059,-1000.0,-175.78125,-87.40234375,-348.14453125,0.0,0,0
1772275746.617502,1772275746.5889537,-338.37890625,-62.5,-68.84765625,-9.27734375,0.0,0,0
1772275746.661607,1772275746.5929863,967.7734375,32.71484375,-31.25,613.76953125,0.0,0,0
1772275746.6617239,1772275746.5968812,828.61328125,-4.39453125,-47.8515625,698.73046875,0.0,0,0
1772275746.661769,1772275746.600776,-325.68359375,-128.41796875,-96.19140625,120.60546875,0.0,0,0
1772275746.661809,1772275746.6046708,-1000.0,-178.7109375,-126.46484375,-336.42578125,0.0,0,0
1772275746.661847,1772275746.6085656,-504.39453125,-75.1953125,-81.0546875,-47.36328125,0.0,0,0
1772275746.661886,1772275746.6124604,824.21875,32.2265625,-18.5546875,536.1328125,0.0,0,0
1772275746.6619542,1772275746.6163552,937.98828125,5.37109375,-14.6484375,645.99609375,0.0,0,0
1772275746.662057,1772275746.62025,-229.4921875,-125.9765625,-44.43359375,141.6015625,0.0,0,0
1772275746.662102,1772275746.6241448,-1000.0,-179.6875,-76.171875,-362.3046875,0.0,0,0
1772275746.6621408,1772275746.6280396,-610.83984375,-92.7734375,-67.3828125,-198.2421875,0.0,0,0
1772275746.662192,1772275746.6319344,658.203125,50.78125,-28.3203125,430.6640625,0.0,0,0
1772275746.662229,1772275746.6358292,-926.26953125,30.2734375,-13.18359375,660.64453125,0.0,0,0
1772275746.706761,1772275746.6398466,2.9296875,-148.4375,-29.296875,197.265625,0.0,0,0
1772275746.70691,1772275746.6437414,-1000.0,-197.265625,-65.91796875,-350.09765625,0.0,0,0
1772275746.707006,1772275746.6476362,-759.765625,-128.90625,-93.26171875,-303.7109375,0.0,0,0
1772275746.707198,1772275746.651531,444.82421875,-20.5078125,-46.38671875,362.3046875,0.0,0,0
1772275746.7072918,1772275746.6554258,-856.4453125,60.546875,-8.7890625,735.83984375,0.0,0,0
1772275746.7073522,1772275746.6593208,191.89453125,-28.80859375,-57.12890625,297.36328125,0.0,0,0
1772275746.707447,1772275746.6632156,-1000.0,-150.390625,-86.9140625,-318.359375,0.0,0,0
1772275746.707486,1772275746.6671104,-854.4921875,-112.3046875,-53.7109375,-354.98046875,0.0,0,0
1772275746.707524,1772275746.6710052,310.05859375,42.96875,-3.90625,263.671875,0.0,0,0
1772275746.707561,1772275746.6749,-856.93359375,101.5625,2.9296875,675.78125,0.0,0,0
1772275746.707598,1772275746.6787949,277.83203125,-18.06640625,-30.2734375,325.1953125,0.0,0,0
1772275746.7076359,1772275746.6826897,-979.00390625,-137.20703125,-55.17578125,-261.23046875,0.0,0,0
1772275746.75177,1772275746.6866965,-959.9609375,-93.75,-48.33984375,-372.0703125,0.0,0,0
1772275746.7518568,1772275746.6905913,148.92578125,93.26171875,-19.53125,174.8046875,0.0,0,0
1772275746.751887,1772275746.6944861,-871.09375,195.80078125,-17.578125,660.15625,0.0,0,0
1772275746.751913,1772275746.698381,471.19140625,59.08203125,-31.25,438.4765625,0.0,0,0
1772275746.751937,1772275746.702276,-809.08203125,-135.7421875,-46.875,-181.640625,0.0,0,0
1772275746.75196,1772275746.7061708,-1000.0,-120.1171875,-75.68359375,-383.30078125,0.0,0,0
1772275746.7519848,1772275746.7100656,-0.48828125,45.41015625,-71.2890625,181.640625,0.0,0,0
1772275746.752011,1772275746.7139604,-884.765625,122.0703125,-32.71484375,714.84375,0.0,0,0
1772275746.752034,1772275746.7178552,552.734375,13.671875,-42.96875,517.578125,0.0,0,0
1772275746.752058,1772275746.7217503,-713.37890625,-117.1875,-82.51953125,-140.625,0.0,0,0
1772275746.7520819,1772275746.725645,-1000.0,-110.3515625,-86.42578125,-449.70703125,0.0,0,0
1772275746.752105,1772275746.7295399,-41.50390625,1.953125,-60.546875,-14.16015625,0.0,0,0
1772275746.8260942,1772275746.733627,-941.40625,104.00390625,-27.34375,583.984375,0.0,0,0
1772275746.826206,1772275746.737522,753.41796875,32.2265625,-41.015625,583.49609375,0.0,0,0
1772275746.826234,1772275746.741417,-391.6015625,-137.20703125,-66.89453125,-20.01953125,0.0,0,0
1772275746.826259,1772275746.7453117,-1000.0,-137.20703125,-95.703125,-411.1328125,0.0,0,0
1772275746.826283,1772275746.7492065,-231.4453125,0.48828125,-105.95703125,-18.06640625,0.0,0,0
1772275746.8263109,1772275746.7531016,-984.375,122.0703125,-47.36328125,612.3046875,0.0,0,0
1772275746.826335,1772275746.7569964,829.1015625,80.56640625,-21.484375,657.71484375,0.0,0,0
1772275746.826358,1772275746.7608912,-288.0859375,-135.25390625,-34.1796875,82.51953125,0.0,0,0
1772275746.826383,1772275746.7647862,-1000.0,-237.3046875,-65.4296875,-378.90625,0.0,0,0
1772275746.826406,1772275746.768681,-404.78515625,-115.234375,-67.87109375,-98.14453125,0.0,0,0
1772275746.826431,1772275746.7725759,882.8125,-2.44140625,-23.4375,534.66796875,0.0,0,0
1772275746.826455,1772275746.7764707,953.125,-38.57421875,-28.3203125,673.828125,0.0,0,0
1772275746.855233,1772275746.780463,-145.5078125,-151.3671875,-70.3125,120.60546875,0.0,0,0
1772275746.855329,1772275746.784358,-1000.0,-209.9609375,-99.609375,-398.4375,0.0,0,0
1772275746.855359,1772275746.7882528,-535.15625,-89.35546875,-82.51953125,-192.87109375,0.0,0,0
1772275746.855385,1772275746.7921479,737.3046875,58.59375,-18.5546875,467.28515625,0.0,0,0
1772275746.855409,1772275746.7960427,-945.3125,38.0859375,11.71875,699.21875,0.0,0,0
1772275746.855433,1772275746.7999375,12.20703125,-113.28125,-15.13671875,203.125,0.0,0,0
1772275746.855457,1772275746.8038325,-1000.0,-229.98046875,-62.5,-334.9609375,0.0,0,0
1772275746.85548,1772275746.8077273,-680.17578125,-141.11328125,-75.1953125,-256.34765625,0.0,0,0
1772275746.8555038,1772275746.8116224,551.7578125,50.29296875,-40.52734375,358.88671875,0.0,0,0
1772275746.8555279,1772275746.8155172,-881.8359375,56.15234375,-18.5546875,691.40625,0.0,0,0
1772275746.855553,1772275746.819412,164.0625,-104.98046875,-45.8984375,291.50390625,0.0,0,0
1772275746.855577,1772275746.823307,-1000.0,-208.984375,-83.0078125,-300.78125,0.0,0,0
1772275746.901251,1772275746.8272803,-778.80859375,-139.6484375,-80.56640625,-335.44921875,0.0,0,0
1772275746.901345,1772275746.831175,395.99609375,37.59765625,-30.2734375,266.11328125,0.0,0,0
1772275746.901373,1772275746.8350701,-874.0234375,95.703125,-3.41796875,671.38671875,0.0,0,0
1772275746.901398,1772275746.838965,357.421875,-53.22265625,-39.55078125,350.09765625,0.0,0,0
1772275746.901422,1772275746.8428597,-933.59375,-189.453125,-67.3828125,-215.33203125,0.0,0,0
1772275746.9014459,1772275746.8467548,-874.51171875,-134.27734375,-69.3359375,-317.3828125,0.0,0,0
1772275746.90147,1772275746.8506496,282.2265625,13.671875,-44.921875,254.39453125,0.0,0,0
1772275746.901495,1772275746.8545446,-888.671875,64.94140625,-30.2734375,724.609375,0.0,0,0
1772275746.901518,1772275746.8584394,485.83984375,-51.26953125,-40.52734375,439.94140625,0.0,0,0
1772275746.901542,1772275746.8623345,-799.8046875,-169.43359375,-48.33984375,-156.25,0.0,0,0
1772275746.9015691,1772275746.8662293,-1000.0,-156.25,-49.31640625,-332.03125,0.0,0,0
1772275746.901619,1772275746.8701243,121.58203125,-12.20703125,-13.18359375,169.43359375,0.0,0,0
1772275746.947274,1772275746.874176,-900.87890625,69.3359375,18.5546875,675.29296875,0.0,0,0
1772275746.947385,1772275746.8780708,637.20703125,-36.62109375,4.39453125,497.0703125,0.0,0,0
1772275746.947438,1772275746.8819659,-613.28125,-189.453125,-34.66796875,-131.8359375,0.0,0,0
1772275746.947475,1772275746.8858607,-1000.0,-223.14453125,-64.453125,-407.71484375,0.0,0,0
1772275746.947501,1772275746.8897557,-17.578125,-59.08203125,-50.78125,73.2421875,0.0,0,0
1772275746.947529,1772275746.8936508,-937.01171875,112.3046875,-9.27734375,657.71484375,0.0,0,0
1772275746.947553,1772275746.8975456,725.09765625,28.3203125,-8.30078125,597.65625,0.0,0,0
1772275746.947576,1772275746.9014406,-436.5234375,-138.671875,-43.9453125,-11.23046875,0.0,0,0
1772275746.9476,1772275746.9053354,-1000.0,-175.29296875,-55.6640625,-372.0703125,0.0,0,0
1772275746.9477062,1772275746.9092305,-204.1015625,-38.57421875,-37.109375,42.96875,0.0,0,0
1772275746.947732,1772275746.9131253,-978.02734375,79.1015625,0.0,679.19921875,0.0,0,0
1772275746.947756,1772275746.9170203,808.10546875,9.765625,6.8359375,712.40234375,0.0,0,0
1772275746.9910479,1772275746.9210625,-315.4296875,-156.25,-20.99609375,118.1640625,0.0,0,0
1772275746.9911501,1772275746.9249575,-1000.0,-205.56640625,-20.99609375,-293.45703125,0.0,0,0
1772275746.991185,1772275746.9288526,-392.08984375,-61.5234375,5.859375,42.96875,0.0,0,0
1772275746.9912379,1772275746.9327474,883.7890625,81.54296875,3.41796875,643.06640625,0.0,0,0
1772275746.9912891,1772275746.9366424,940.91796875,66.89453125,-16.11328125,727.5390625,0.0,0,0
1772275746.99134,1772275746.9405375,-165.52734375,-93.26171875,-28.80859375,170.8984375,0.0,0,0
1772275746.991392,1772275746.9444323,-1000.0,-206.0546875,-39.55078125,-316.40625,0.0,0,0
1772275746.991456,1772275746.9483273,-525.390625,-102.5390625,-28.3203125,-90.33203125,0.0,0,0
1772275746.991509,1772275746.952222,770.01953125,35.15625,13.671875,564.94140625,0.0,0,0
1772275746.9915578,1772275746.9561172,-984.375,37.109375,19.04296875,792.96875,0.0,0,0
1772275746.991607,1772275746.9600122,-68.359375,-95.21484375,-14.16015625,332.51953125,0.0,0,0
1772275746.991657,1772275746.963907,-1000.0,-178.7109375,-40.0390625,-212.40234375,0.0,0,0
1772275747.037112,1772275746.9679372,-680.6640625,-66.89453125,-30.76171875,-181.640625,0.0,0,0
1772275747.0372422,1772275746.9718323,563.96484375,100.09765625,6.8359375,407.71484375,0.0,0,0
1772275747.0372858,1772275746.975727,-905.76171875,145.99609375,20.99609375,673.33984375,0.0,0,0
1772275747.037324,1772275746.9796221,56.15234375,-5.37109375,-1.953125,213.8671875,0.0,0,0
1772275747.037364,1772275746.9835172,-1000.0,-144.04296875,-46.38671875,-299.31640625,0.0,0,0
1772275747.0374029,1772275746.9874122,-793.45703125,-64.453125,-40.52734375,-237.79296875,0.0,0,0
1772275747.03744,1772275746.991307,365.72265625,96.19140625,-5.859375,360.3515625,0.0,0,0
1772275747.037476,1772275746.995202,-867.67578125,131.34765625,7.8125,782.2265625,0.0,0,0
1772275747.037513,1772275746.999097,247.55859375,11.71875,0.48828125,445.3125,0.0,0,0
1772275747.0375512,1772275747.0029922,-1000.0,-137.6953125,-18.06640625,-116.69921875,0.0,0,0
1772275747.037588,1772275747.006887,-903.3203125,-97.65625,-26.3671875,-163.0859375,0.0,0,0
1772275747.037625,1772275747.010782,222.65625,102.5390625,2.9296875,393.06640625,0.0,0,0
1772275747.1556978,1772275747.0149777,-871.09375,164.0625,38.0859375,837.40234375,0.0,0,0
1772275747.155861,1772275747.0188727,434.08203125,7.32421875,25.390625,499.0234375,0.0,0,0
1772275747.1559198,1772275747.0227678,-867.1875,-132.32421875,-8.30078125,-162.59765625,0.0,0,0
1772275747.1559732,1772275747.0266628,-986.81640625,-105.46875,-1.46484375,-343.75,0.0,0,0
1772275747.1560252,1772275747.0305579,159.66796875,51.7578125,52.734375,173.828125,0.0,0,0
1772275747.156076,1772275747.034453,-942.87109375,163.57421875,64.453125,666.50390625,0.0,0,0
1772275747.1561642,1772275747.038348,799.8046875,36.62109375,7.8125,454.1015625,0.0,0,0
1772275747.15623,1772275747.042243,-428.22265625,-156.25,-8.30078125,-136.23046875,0.0,0,0
1772275747.1563148,1772275747.0461378,-1000.0,-163.0859375,23.92578125,-378.90625,0.0,0,0
1772275747.15636,1772275747.0500329,216.796875,55.6640625,50.29296875,20.99609375,0.0,0,0
1772275747.156398,1772275747.053928,-938.4765625,171.38671875,82.51953125,515.625,0.0,0,0
1772275747.1564338,1772275747.057823,795.41015625,34.1796875,77.1484375,452.1484375,0.0,0,0
1772275747.158071,1772275747.0620158,-336.9140625,-115.234375,12.20703125,-81.0546875,0.0,0,0
1772275747.158186,1772275747.0659108,-1000.0,-144.04296875,-37.59765625,-413.57421875,0.0,0,0
1772275747.1582332,1772275747.069806,-17.08984375,5.859375,-15.625,-72.75390625,0.0,0,0
1772275747.158273,1772275747.0737011,-957.51953125,143.06640625,26.85546875,488.28125,0.0,0,0
1772275747.1583118,1772275747.0775962,829.1015625,67.87109375,44.921875,523.4375,0.0,0,0
1772275747.15835,1772275747.0814912,-261.23046875,-94.7265625,12.6953125,28.80859375,0.0,0,0
1772275747.158388,1772275747.0853863,-1000.0,-119.62890625,-38.57421875,-395.99609375,0.0,0,0
1772275747.1584241,1772275747.0892813,-197.75390625,19.53125,-16.6015625,-172.36328125,0.0,0,0
1772275747.1584609,1772275747.0931766,-995.1171875,116.69921875,34.66796875,365.72265625,0.0,0,0
1772275747.158499,1772275747.0970716,808.59375,76.171875,30.76171875,464.84375,0.0,0,0
1772275747.158536,1772275747.1009667,-299.8046875,-88.8671875,-12.20703125,10.7421875,0.0,0,0
1772275747.158572,1772275747.1048617,-1000.0,-179.6875,-38.0859375,-407.71484375,0.0,0,0
1772275747.171933,1772275747.108861,-572.75390625,-51.7578125,-3.90625,-221.19140625,0.0,0,0
1772275747.172044,1772275747.112756,723.6328125,94.23828125,21.97265625,270.5078125,0.0,0,0
1772275747.172104,1772275747.116651,989.74609375,109.375,23.92578125,404.296875,0.0,0,0
1772275747.172158,1772275747.120546,-147.94921875,-53.22265625,6.8359375,-22.4609375,0.0,0,0
1772275747.17221,1772275747.1244414,-1000.0,-203.61328125,-51.26953125,-509.27734375,0.0,0,0
1772275747.1722612,1772275747.1283364,-667.48046875,-42.96875,-53.22265625,-389.16015625,0.0,0,0
1772275747.172313,1772275747.1322315,574.21875,163.0859375,8.30078125,183.10546875,0.0,0,0
1772275747.172364,1772275747.1361265,-952.63671875,118.65234375,39.0625,429.6875,0.0,0,0
1772275747.172415,1772275747.1400218,-35.64453125,-67.3828125,32.2265625,86.9140625,0.0,0,0
1772275747.1724648,1772275747.1439168,-1000.0,-168.45703125,8.30078125,-337.40234375,0.0,0,0
1772275747.172516,1772275747.147812,-822.265625,-78.61328125,-10.7421875,-288.57421875,0.0,0,0
1772275747.172566,1772275747.151707,356.4453125,89.35546875,20.01953125,213.8671875,0.0,0,0
1772275747.216634,1772275747.1556919,-918.9453125,90.33203125,68.359375,530.2734375,0.0,0,0
1772275747.216744,1772275747.159587,52.24609375,-53.7109375,53.7109375,223.6328125,0.0,0,0
1772275747.216788,1772275747.1634822,-1000.0,-160.15625,-5.37109375,-293.9453125,0.0,0,0
1772275747.2168288,1772275747.1673772,-802.24609375,-114.2578125,7.32421875,-367.1875,0.0,0,0
1772275747.2168682,1772275747.1712723,351.5625,59.08203125,87.40234375,118.65234375,0.0,0,0
1772275747.2169049,1772275747.1751676,-892.08984375,130.37109375,130.37109375,517.08984375,0.0,0,0
1772275747.216943,1772275747.1790626,237.3046875,-13.671875,95.703125,298.33984375,0.0,0,0
1772275747.21698,1772275747.1829576,-952.1484375,-155.76171875,35.64453125,-170.41015625,0.0,0,0
1772275747.2170172,1772275747.1868527,-954.58984375,-111.81640625,17.08984375,-298.828125,0.0,0,0
1772275747.217054,1772275747.190748,148.4375,39.55078125,40.52734375,91.796875,0.0,0,0
1772275747.217091,1772275747.194643,-914.0625,106.4453125,64.453125,515.625,0.0,0,0
1772275747.217129,1772275747.198538,563.96484375,0.48828125,52.24609375,366.2109375,0.0,0,0
1772275747.2760499,1772275747.2025113,-672.36328125,-141.11328125,25.390625,-145.01953125,0.0,0,0
1772275747.27615,1772275747.2064066,-938.96484375,-134.765625,21.97265625,-340.33203125,0.0,0,0
1772275747.276184,1772275747.2103016,254.39453125,47.36328125,43.9453125,32.2265625,0.0,0,0
1772275747.276243,1772275747.2141967,-922.36328125,157.71484375,62.98828125,491.69921875,0.0,0,0
1772275747.276286,1772275747.218092,665.0390625,40.52734375,20.5078125,407.2265625,0.0,0,0
1772275747.276315,1772275747.221987,-478.02734375,-43.45703125,-28.3203125,-111.81640625,0.0,0,0
1772275747.27634,1772275747.2258823,-1000.0,-43.9453125,-17.578125,-384.27734375,0.0,0,0
1772275747.276364,1772275747.2297773,-4.39453125,0.48828125,4.8828125,-75.68359375,0.0,0,0
1772275747.2763891,1772275747.2336724,-964.35546875,104.98046875,42.48046875,397.4609375,0.0,0,0
1772275747.276414,1772275747.2375677,757.32421875,94.7265625,47.36328125,427.24609375,0.0,0,0
1772275747.276438,1772275747.2414627,-362.3046875,-65.4296875,6.34765625,-32.71484375,0.0,0,0
1772275747.276462,1772275747.2453578,-1000.0,-84.9609375,-10.25390625,-394.53125,0.0,0,0
1772275747.321378,1772275747.2494035,-173.33984375,69.82421875,1.46484375,-139.6484375,0.0,0,0
1772275747.3215811,1772275747.2532985,954.1015625,146.97265625,26.85546875,406.73828125,0.0,0,0
1772275747.3216121,1772275747.2571938,869.62890625,93.75,43.9453125,531.25,0.0,0,0
1772275747.3216379,1772275747.2610888,-154.296875,-24.4140625,18.5546875,91.30859375,0.0,0,0
1772275747.321663,1772275747.2649841,-1000.0,-77.63671875,-4.39453125,-298.828125,0.0,0,0
1772275747.321687,1772275747.2688792,-409.66796875,45.41015625,10.25390625,-101.5625,0.0,0,0
1772275747.32171,1772275747.2727745,817.87109375,136.23046875,49.8046875,326.171875,0.0,0,0
1772275747.321734,1772275747.2766695,881.8359375,88.37890625,75.1953125,395.01953125,0.0,0,0
1772275747.3217568,1772275747.2805648,-209.9609375,-43.45703125,38.0859375,33.203125,0.0,0,0
1772275747.321781,1772275747.2844598,-1000.0,-96.19140625,-0.48828125,-380.37109375,0.0,0,0
1772275747.321805,1772275747.2883549,-600.09765625,18.06640625,9.27734375,-312.01171875,0.0,0,0
1772275747.3218281,1772275747.2922502,633.7890625,158.69140625,30.76171875,166.50390625,0.0,0,0
1772275747.3672938,1772275747.2962892,975.09765625,175.78125,54.6875,420.8984375,0.0,0,0
1772275747.367382,1772275747.3001842,-103.515625,-11.23046875,51.26953125,140.625,0.0,0,0
1772275747.36741,1772275747.3040795,-1000.0,-153.80859375,23.4375,-288.0859375,0.0,0,0
1772275747.367436,1772275747.3079746,-732.421875,-88.37890625,15.625,-276.3671875,0.0,0,0
1772275747.36746,1772275747.3118699,445.3125,88.37890625,42.48046875,157.71484375,0.0,0,0
1772275747.3674839,1772275747.315765,-954.1015625,131.34765625,22.4609375,424.8046875,0.0,0,0
1772275747.36751,1772275747.3196602,113.76953125,-21.97265625,-22.4609375,176.26953125,0.0,0,0
1772275747.3675342,1772275747.3235552,-983.88671875,-133.7890625,-44.43359375,-259.765625,0.0,0,0
1772275747.367559,1772275747.3274505,-804.19921875,-96.19140625,-65.4296875,-331.54296875,0.0,0,0
1772275747.3675818,1772275747.3313456,335.44921875,55.17578125,-37.109375,114.2578125,0.0,0,0
1772275747.367606,1772275747.3352408,-923.33984375,112.3046875,-6.8359375,527.34375,0.0,0,0
1772275747.36763,1772275747.3391361,303.7109375,-33.203125,-11.23046875,362.79296875,0.0,0,0
1772275747.426774,1772275747.3431668,-870.1171875,-152.34375,-23.4375,-79.1015625,0.0,0,0
1772275747.426908,1772275747.347062,-867.1875,-110.3515625,-30.76171875,-188.4765625,0.0,0,0
1772275747.426952,1772275747.3509572,217.7734375,33.69140625,-20.01953125,205.078125,0.0,0,0
1772275747.426991,1772275747.3548524,-942.87109375,81.54296875,-3.90625,607.421875,0.0,0,0
1772275747.42703,1772275747.3587475,493.1640625,-21.484375,7.32421875,486.81640625,0.0,0,0
1772275747.4270668,1772275747.3626428,-699.70703125,-93.75,-9.765625,54.19921875,0.0,0,0
1772275747.427105,1772275747.366538,-981.4453125,-94.23828125,-31.73828125,-117.67578125,0.0,0,0
1772275747.4271429,1772275747.370433,33.203125,20.5078125,-14.16015625,205.56640625,0.0,0,0
1772275747.42718,1772275747.3743284,-973.6328125,96.6796875,7.32421875,615.72265625,0.0,0,0
1772275747.427217,1772275747.3782237,599.609375,-4.8828125,7.8125,568.84765625,0.0,0,0
1772275747.427253,1772275747.3821187,-612.79296875,-133.30078125,-12.6953125,145.01953125,0.0,0,0
1772275747.4272902,1772275747.386014,-1000.0,-152.83203125,-32.71484375,-102.05078125,0.0,0,0
1772275747.45701,1772275747.3900292,-161.1328125,-14.6484375,-20.99609375,156.73828125,0.0,0,0
1772275747.45714,1772275747.3939245,927.734375,112.3046875,7.8125,595.703125,0.0,0,0
1772275747.457174,1772275747.3978198,657.71484375,48.33984375,19.53125,622.55859375,0.0,0,0
1772275747.457205,1772275747.401715,-543.45703125,-91.30859375,-4.39453125,205.56640625,0.0,0,0
1772275747.457234,1772275747.40561,-1000.0,-109.375,-23.92578125,-115.72265625,0.0,0,0
1772275747.457263,1772275747.4095054,-361.81640625,21.484375,-10.7421875,97.65625,0.0,0,0
1772275747.457293,1772275747.4134007,754.39453125,113.28125,8.30078125,530.2734375,0.0,0,0
1772275747.457321,1772275747.4172957,727.05078125,57.6171875,4.39453125,563.4765625,0.0,0,0
1772275747.4573498,1772275747.421191,-386.71875,-83.0078125,-42.48046875,152.83203125,0.0,0,0
1772275747.457379,1772275747.4250863,-1000.0,-113.76953125,-73.73046875,-190.91796875,0.0,0,0
1772275747.457407,1772275747.4289815,-453.61328125,2.9296875,-48.828125,-6.34765625,0.0,0,0
1772275747.457435,1772275747.4328766,713.37890625,110.83984375,-20.5078125,472.65625,0.0,0,0
1772275747.501448,1772275747.4368804,785.15625,94.23828125,-19.04296875,629.8828125,0.0,0,0
1772275747.5015318,1772275747.4407754,-245.60546875,-36.62109375,-36.1328125,318.359375,0.0,0,0
1772275747.5015612,1772275747.4446707,-1000.0,-111.81640625,-56.640625,-37.59765625,0.0,0,0
1772275747.501587,1772275747.448566,-600.09765625,-42.48046875,-44.43359375,90.33203125,0.0,0,0
1772275747.5016131,1772275747.4524612,488.76953125,42.48046875,0.0,559.5703125,0.0,0,0
1772275747.501638,1772275747.4563565,853.515625,48.33984375,0.48828125,760.25390625,0.0,0,0
1772275747.501663,1772275747.4602516,-20.01953125,-58.59375,-51.7578125,455.56640625,0.0,0,0
1772275747.501688,1772275747.4641469,-955.078125,-150.87890625,-97.16796875,16.11328125,0.0,0,0
1772275747.5017111,1772275747.4680421,-715.33203125,-89.35546875,-111.328125,20.01953125,0.0,0,0
1772275747.501736,1772275747.4719374,332.03125,37.109375,-54.6875,445.3125,0.0,0,0
1772275747.501763,1772275747.4758327,872.0703125,57.6171875,2.9296875,669.921875,0.0,0,0
1772275747.501787,1772275747.4797277,-21.484375,-54.19921875,-11.23046875,371.58203125,0.0,0,0
1772275747.561513,1772275747.4838066,-979.98046875,-130.859375,-27.83203125,-75.1953125,0.0,0,0
1772275747.561846,1772275747.487702,-907.71484375,-80.56640625,-21.484375,-175.78125,0.0,0,0
1772275747.561964,1772275747.4915972,-245.60546875,47.8515625,-18.06640625,146.97265625,0.0,0,0
1772275747.562021,1772275747.4954922,600.09765625,107.421875,-17.08984375,510.7421875,0.0,0,0
1772275747.5620742,1772275747.4993875,-116.69921875,-9.765625,-40.0390625,381.8359375,0.0,0,0
1772275747.562125,1772275747.5032828,-1000.0,-75.68359375,-62.98828125,-62.98828125,0.0,0,0
1772275747.562177,1772275747.507178,-961.42578125,-71.2890625,-53.22265625,-215.33203125,0.0,0,0
1772275747.562228,1772275747.5110734,-470.21484375,8.30078125,-36.62109375,136.71875,0.0,0,0
1772275747.5622778,1772275747.5149686,591.30859375,140.625,-45.41015625,498.53515625,0.0,0,0
1772275747.5623271,1772275747.518864,354.98046875,90.8203125,-53.7109375,322.265625,0.0,0,0
1772275747.562376,1772275747.5227592,-811.03515625,-51.7578125,-48.828125,-136.23046875,0.0,0,0
1772275747.5624268,1772275747.5266545,-911.62109375,-54.6875,-52.734375,-333.49609375,0.0,0,0
1772275747.5919309,1772275747.5306377,-207.51953125,71.77734375,-46.875,-79.58984375,0.0,0,0
1772275747.5920799,1772275747.534533,719.23828125,154.296875,-25.87890625,282.2265625,0.0,0,0
1772275747.592122,1772275747.5384283,544.43359375,60.546875,-44.43359375,206.0546875,0.0,0,0
1772275747.5921621,1772275747.5423236,-602.05078125,-75.1953125,-79.1015625,-242.1875,0.0,0,0
1772275747.5921988,1772275747.5462189,-981.4453125,-84.9609375,-94.23828125,-499.0234375,0.0,0,0
1772275747.59224,1772275747.5501142,-295.8984375,26.85546875,-111.81640625,-314.453125,0.0,0,0
1772275747.592294,1772275747.5540094,725.09765625,109.86328125,-112.79296875,84.47265625,0.0,0,0
1772275747.592333,1772275747.5579047,673.828125,49.8046875,-130.37109375,124.0234375,0.0,0,0
1772275747.592374,1772275747.5618,-302.734375,-73.2421875,-168.45703125,-249.0234375,0.0,0,0
1772275747.59242,1772275747.5656953,-842.7734375,-98.14453125,-195.3125,-475.09765625,0.0,0,0
1772275747.592458,1772275747.5695906,-253.41796875,70.3125,-177.24609375,-240.72265625,0.0,0,0
1772275747.5924962,1772275747.5734859,722.65625,174.8046875,-123.046875,168.9453125,0.0,0,0
1772275747.652243,1772275747.5774581,704.58984375,79.58984375,-94.7265625,196.77734375,0.0,0,0
1772275747.652441,1772275747.5813534,-57.12890625,-91.796875,-117.1875,-205.56640625,0.0,0,0
1772275747.6525,1772275747.5852487,-699.21875,-106.93359375,-129.8828125,-544.43359375,0.0,0,0
1772275747.652552,1772275747.589144,-323.2421875,44.921875,-114.74609375,-353.515625,0.0,0,0
1772275747.652599,1772275747.5930393,687.5,120.60546875,-121.09375,108.88671875,0.0,0,0
1772275747.6527948,1772275747.5969346,812.01171875,100.5859375,-128.41796875,226.07421875,0.0,0,0
1772275747.652836,1772275747.6008298,145.01953125,-26.3671875,-137.20703125,-86.9140625,0.0,0,0
1772275747.652874,1772275747.6047251,-699.70703125,-126.46484375,-160.64453125,-430.17578125,0.0,0,0
1772275747.6529121,1772275747.6086204,-486.81640625,-36.1328125,-159.1796875,-321.2890625,0.0,0,0
1772275747.652949,1772275747.6125157,568.359375,100.5859375,-129.8828125,118.1640625,0.0,0,0
1772275747.652986,1772275747.616411,819.3359375,74.70703125,-124.51171875,298.33984375,0.0,0,0
1772275747.653023,1772275747.6203063,329.58984375,-24.4140625,-134.765625,23.92578125,0.0,0,0
1772275747.725732,1772275747.624445,-570.80078125,-69.3359375,-142.578125,-377.44140625,0.0,0,0
1772275747.725872,1772275747.6283402,-552.734375,-20.99609375,-137.20703125,-375.9765625,0.0,0,0
1772275747.725945,1772275747.6322355,436.03515625,86.9140625,-90.8203125,41.015625,0.0,0,0
1772275747.726014,1772275747.6361308,799.8046875,107.91015625,-65.91796875,269.04296875,0.0,0,0
1772275747.726057,1772275747.640026,419.921875,6.8359375,-95.21484375,10.7421875,0.0,0,0
1772275747.7260978,1772275747.6439216,-499.51171875,-98.14453125,-116.2109375,-416.015625,0.0,0,0
1772275747.7261372,1772275747.647817,-586.42578125,-46.38671875,-104.4921875,-448.73046875,0.0,0,0
1772275747.726176,1772275747.6517122,249.0234375,53.7109375,-56.640625,-41.9921875,0.0,0,0
1772275747.726214,1772275747.6556075,731.93359375,49.8046875,-35.64453125,286.1328125,0.0,0,0
1772275747.72625,1772275747.6595027,532.71484375,-37.59765625,-91.796875,117.67578125,0.0,0,0
1772275747.7262888,1772275747.6633983,-304.6875,-150.87890625,-125.48828125,-325.68359375,0.0,0,0
1772275747.726325,1772275747.6672935,-488.76953125,-142.578125,-104.98046875,-464.35546875,0.0,0,0
1772275747.742551,1772275747.6713347,266.6015625,-7.8125,-69.3359375,-143.06640625,0.0,0,0
1772275747.742679,1772275747.67523,782.2265625,74.21875,-56.15234375,172.8515625,0.0,0,0
1772275747.7427258,1772275747.6791255,694.3359375,34.66796875,-64.94140625,73.2421875,0.0,0,0
1772275747.7427661,1772275747.6830208,-143.5546875,-108.88671875,-83.49609375,-293.9453125,0.0,0,0
1772275747.742804,1772275747.686916,-521.97265625,-112.3046875,-83.49609375,-471.19140625,0.0,0,0
1772275747.742841,1772275747.6908116,126.953125,48.828125,-60.546875,-141.6015625,0.0,0,0
1772275747.742879,1772275747.694707,740.72265625,98.14453125,-57.12890625,295.41015625,0.0,0,0
1772275747.742916,1772275747.6986022,662.59765625,-18.5546875,-67.3828125,229.00390625,0.0,0,0
1772275747.742953,1772275747.7024975,-38.0859375,-118.1640625,-85.44921875,-158.69140625,0.0,0,0
1772275747.74299,1772275747.706393,-556.640625,-95.21484375,-109.375,-363.76953125,0.0,0,0
1772275747.743026,1772275747.7102883,-269.04296875,-10.25390625,-110.3515625,-142.08984375,0.0,0,0
1772275747.743062,1772275747.7141836,570.3125,68.84765625,-53.22265625,273.92578125,0.0,0,0
1772275747.786402,1772275747.718207,642.578125,6.34765625,-20.99609375,289.55078125,0.0,0,0
1772275747.7865138,1772275747.7221022,-79.58984375,-106.93359375,-48.33984375,-137.6953125,0.0,0,0
1772275747.786544,1772275747.7259977,-576.66015625,-117.67578125,-58.10546875,-392.578125,0.0,0,0
1772275747.78657,1772275747.729893,-423.33984375,-42.96875,-36.1328125,-220.21484375,0.0,0,0
1772275747.786596,1772275747.7337883,414.0625,27.83203125,-12.20703125,43.45703125,0.0,0,0
1772275747.78662,1772275747.7376838,703.61328125,24.4140625,4.39453125,63.96484375,0.0,0,0
1772275747.7866461,1772275747.741579,118.65234375,-78.61328125,-20.5078125,-322.265625,0.0,0,0
1772275747.78667,1772275747.7454746,-547.36328125,-124.51171875,-44.921875,-666.015625,0.0,0,0
1772275747.7866938,1772275747.7493699,-461.9140625,-59.5703125,-10.25390625,-493.65234375,0.0,0,0
1772275747.786719,1772275747.7532651,474.609375,23.92578125,38.0859375,-34.66796875,0.0,0,0
1772275747.786744,1772275747.7571607,721.6796875,15.625,41.50390625,134.27734375,0.0,0,0
1772275747.786769,1772275747.761056,265.13671875,-91.796875,10.25390625,-157.71484375,0.0,0,0
1772275747.831813,1772275747.76507,-470.703125,-188.4765625,-23.92578125,-487.3046875,0.0,0,0
1772275747.8319502,1772275747.7689655,-460.9375,-156.25,-12.20703125,-355.95703125,0.0,0,0
1772275747.831994,1772275747.7728608,459.47265625,-13.671875,2.44140625,59.08203125,0.0,0,0
1772275747.832033,1772275747.7767563,742.67578125,19.53125,-22.94921875,212.40234375,0.0,0,0
1772275747.8320708,1772275747.7806516,387.20703125,-52.24609375,-55.6640625,-120.60546875,0.0,0,0
1772275747.832109,1772275747.784547,-473.6328125,-117.1875,-71.2890625,-623.046875,0.0,0,0
1772275747.832145,1772275747.7884424,-560.05859375,-80.56640625,-53.22265625,-621.09375,0.0,0,0
1772275747.8321831,1772275747.792338,261.23046875,-9.27734375,-41.50390625,-143.06640625,0.0,0,0
1772275747.8322198,1772275747.7962332,641.11328125,-61.03515625,-54.19921875,120.1171875,0.0,0,0
1772275747.832257,1772275747.8001287,426.26953125,-138.671875,-73.2421875,-104.00390625,0.0,0,0
1772275747.832296,1772275747.804024,-456.54296875,-189.94140625,-88.37890625,-513.671875,0.0,0,0
1772275747.8323321,1772275747.8079193,-648.4375,-141.6015625,-104.00390625,-580.078125,0.0,0,0
1772275747.876805,1772275747.8119226,92.28515625,-26.85546875,-106.93359375,-197.75390625,0.0,0,0
1772275747.8769438,1772275747.815818,606.93359375,-1.46484375,-84.47265625,84.9609375,0.0,0,0
1772275747.876989,1772275747.8197134,501.46484375,-55.6640625,-76.171875,-82.51953125,0.0,0,0
1772275747.877028,1772275747.8236089,-399.90234375,-169.43359375,-91.796875,-466.796875,0.0,0,0
1772275747.877067,1772275747.8275042,-672.36328125,-204.58984375,-81.54296875,-551.26953125,0.0,0,0
1772275747.877105,1772275747.8313997,58.59375,-26.85546875,-45.41015625,-214.84375,0.0,0,0
1772275747.8771431,1772275747.835295,679.6875,60.05859375,-39.0625,86.42578125,0.0,0,0
1772275747.8771808,1772275747.8391905,501.46484375,-56.15234375,-56.640625,-70.3125,0.0,0,0
1772275747.877217,1772275747.8430858,-427.734375,-153.3203125,-75.1953125,-504.8828125,0.0,0,0
1772275747.8772538,1772275747.8469813,-718.26171875,-105.46875,-85.44921875,-660.15625,0.0,0,0
1772275747.877294,1772275747.8508766,-161.62109375,20.5078125,-43.9453125,-299.8046875,0.0,0,0
1772275747.877331,1772275747.854772,605.46875,65.4296875,-2.44140625,152.83203125,0.0,0,0
1772275747.922664,1772275747.858766,515.13671875,-41.50390625,-13.671875,81.0546875,0.0,0,0
1772275747.922837,1772275747.8626614,-414.0625,-183.59375,-32.2265625,-327.1484375,0.0,0,0
1772275747.922896,1772275747.866557,-729.98046875,-146.484375,-38.57421875,-481.4453125,0.0,0,0
1772275747.922952,1772275747.8704524,-248.046875,-56.640625,-31.73828125,-157.71484375,0.0,0,0
1772275747.9230049,1772275747.8743477,602.5390625,-12.20703125,-20.99609375,262.20703125,0.0,0,0
1772275747.923058,1772275747.8782432,644.04296875,22.94921875,-30.76171875,237.3046875,0.0,0,0
1772275747.923109,1772275747.8821385,-255.859375,-62.5,-37.59765625,-158.203125,0.0,0,0
1772275747.92316,1772275747.886034,-751.953125,-139.6484375,-33.203125,-412.59765625,0.0,0,0
1772275747.92321,1772275747.8899295,-210.9375,-73.73046875,-31.73828125,-229.4921875,0.0,0,0
1772275747.923261,1772275747.8938248,706.54296875,23.4375,-25.87890625,158.203125,0.0,0,0
1772275747.923328,1772275747.8977203,754.8828125,-0.9765625,-33.203125,183.10546875,0.0,0,0
1772275747.92338,1772275747.9016156,22.94921875,-135.25390625,-65.91796875,-250.0,0.0,0,0
1772275747.9669602,1772275747.9055974,-696.2890625,-177.734375,-69.3359375,-572.75390625,0.0,0,0
1772275747.967076,1772275747.909493,-363.28125,-47.36328125,-46.875,-428.22265625,0.0,0,0
1772275747.967104,1772275747.9133885,671.875,42.48046875,-25.87890625,-6.34765625,0.0,0,0
1772275747.9671302,1772275747.9172838,774.4140625,-10.25390625,-11.71875,165.0390625,0.0,0,0
1772275747.967155,1772275747.9211793,54.19921875,-99.12109375,-27.83203125,-122.0703125,0.0,0,0
1772275747.96718,1772275747.9250748,-727.5390625,-118.65234375,-42.48046875,-453.61328125,0.0,0,0
1772275747.967204,1772275747.92897,-462.890625,-60.05859375,-27.34375,-323.73046875,0.0,0,0
1772275747.967294,1772275747.9328656,621.58203125,25.87890625,3.41796875,126.953125,0.0,0,0
1772275747.96732,1772275747.936761,833.0078125,54.6875,2.44140625,297.36328125,0.0,0,0
1772275747.967344,1772275747.9406564,72.75390625,-80.078125,-22.94921875,11.23046875,0.0,0,0
1772275747.9673688,1772275747.944552,-820.80078125,-202.1484375,-38.0859375,-399.90234375,0.0,0,0
1772275747.967392,1772275747.9484472,-648.4375,-114.2578125,-36.62109375,-406.25,0.0,0,0
1772275748.027169,1772275747.9524221,420.41015625,17.578125,-20.99609375,-10.7421875,0.0,0,0
1772275748.027315,1772275747.9563177,873.046875,20.01953125,-1.46484375,194.82421875,0.0,0,0
1772275748.027358,1772275747.960213,72.75390625,-92.7734375,-11.71875,-69.82421875,0.0,0,0
1772275748.0273972,1772275747.9641085,-910.64453125,-156.73828125,-45.41015625,-508.30078125,0.0,0,0
1772275748.027437,1772275747.968004,-710.44921875,-79.1015625,-41.50390625,-544.43359375,0.0,0,0
1772275748.0274749,1772275747.9718995,340.8203125,27.83203125,-21.97265625,-170.8984375,0.0,0,0
1772275748.027513,1772275747.9757948,894.53125,13.671875,-15.625,43.45703125,0.0,0,0
1772275748.02755,1772275747.9796903,173.828125,-93.26171875,-32.71484375,-164.55078125,0.0,0,0
1772275748.0275872,1772275747.9835858,-828.61328125,-144.04296875,-54.6875,-575.1953125,0.0,0,0
1772275748.027624,1772275747.987481,-796.38671875,-121.58203125,-53.22265625,-652.34375,0.0,0,0
1772275748.0276601,1772275747.9913766,238.28125,-41.015625,-23.92578125,-259.765625,0.0,0,0
1772275748.0276968,1772275747.9952722,-997.55859375,30.76171875,10.25390625,78.125,0.0,0,0
1772275748.071838,1772275747.9993184,353.515625,-51.26953125,17.08984375,-55.6640625,0.0,0,0
1772275748.071983,1772275748.0032136,-789.55078125,-164.0625,17.578125,-457.51953125,0.0,0,0
1772275748.072027,1772275748.0071092,-800.29296875,-134.765625,23.4375,-640.625,0.0,0,0
1772275748.072067,1772275748.0110047,136.71875,-30.2734375,39.0625,-743.65234375,0.0,0,0
1772275748.072104,1772275748.0149002,911.62109375,10.25390625,47.8515625,-879.8828125,0.0,0,0
1772275748.0721421,1772275748.0187957,604.00390625,-47.8515625,35.15625,-974.609375,0.0,0,0
1772275748.0721788,1772275748.0226912,-536.1328125,-139.6484375,16.6015625,-1000.0,0.0,0,0
1772275748.072216,1772275748.0265865,-958.49609375,-142.08984375,16.6015625,-997.0703125,0.0,0,0
1772275748.072255,1772275748.030482,2.9296875,-10.7421875,45.8984375,-1000.0,0.0,0,0
1772275748.0722911,1772275748.0343776,982.421875,62.98828125,82.51953125,-1000.0,0.0,0,0
1772275748.072327,1772275748.038273,707.51953125,-19.53125,91.796875,-1000.0,0.0,0,0
1772275748.072362,1772275748.0421686,-390.625,-102.05078125,63.96484375,-1000.0,0.0,0,0
1772275748.116734,1772275748.0462036,-986.328125,-108.88671875,41.9921875,-996.09375,0.0,0,0
1772275748.116873,1772275748.0500991,-152.83203125,-30.2734375,50.29296875,-1000.0,0.0,0,0
1772275748.116916,1772275748.0539944,921.875,78.61328125,82.03125,-944.82421875,0.0,0,0
1772275748.116957,1772275748.05789,742.1875,42.96875,90.33203125,-914.55078125,0.0,0,0
1772275748.116996,1772275748.0617855,-334.47265625,-70.3125,63.96484375,-1000.0,0.0,0,0
1772275748.117035,1772275748.065681,-1000.0,-74.21875,45.41015625,-993.65234375,0.0,0,0
1772275748.1170719,1772275748.0695765,-305.6640625,0.0,62.5,-1000.0,0.0,0,0
1772275748.1171079,1772275748.073472,833.0078125,19.53125,83.0078125,-860.83984375,0.0,0,0
1772275748.117145,1772275748.0773675,844.7265625,-20.5078125,72.265625,-729.00390625,0.0,0,0
1772275748.117182,1772275748.081263,-216.796875,-80.56640625,55.6640625,-943.84765625,0.0,0,0
1772275748.117219,1772275748.0851586,-1000.0,-95.21484375,40.52734375,-1000.0,0.0,0,0
1772275748.117256,1772275748.089054,-488.28125,9.765625,28.80859375,-1000.0,0.0,0,0
1772275748.161262,1772275748.093075,752.9296875,88.37890625,19.04296875,-836.9140625,0.0,0,0
1772275748.1613429,1772275748.0969706,874.51171875,42.96875,5.37109375,-667.48046875,0.0,0,0
1772275748.161372,1772275748.100866,-225.5859375,-79.58984375,-6.8359375,-901.3671875,0.0,0,0
1772275748.161397,1772275748.1047616,-1000.0,-136.71875,-21.97265625,-1000.0,0.0,0,0
1772275748.161421,1772275748.1086571,-622.0703125,-34.66796875,-13.671875,-1000.0,0.0,0,0
1772275748.1614451,1772275748.1125526,634.27734375,92.7734375,20.5078125,-893.5546875,0.0,0,0
1772275748.161469,1772275748.1164482,967.28515625,81.0546875,30.2734375,-714.35546875,0.0,0,0
1772275748.161493,1772275748.1203437,-103.02734375,-37.59765625,4.8828125,-888.18359375,0.0,0,0
1772275748.1615171,1772275748.1242392,-1000.0,-129.39453125,-34.1796875,-1000.0,0.0,0,0
1772275748.16154,1772275748.1281347,-708.0078125,-97.16796875,-62.5,-1000.0,0.0,0,0
1772275748.161563,1772275748.1320302,495.60546875,27.34375,-35.15625,-868.65234375,0.0,0,0
1772275748.161587,1772275748.1359258,-934.5703125,52.24609375,-5.37109375,-544.921875,0.0,0,0
1772275748.207417,1772275748.1399379,81.54296875,-76.66015625,-27.34375,-639.6484375,0.0,0,0
1772275748.207534,1772275748.1438334,-1000.0,-158.203125,-63.96484375,-944.3359375,0.0,0,0
1772275748.207568,1772275748.147729,-792.96875,-80.078125,-68.84765625,-1000.0,0.0,0,0
1772275748.207598,1772275748.1516244,386.71875,75.68359375,-36.1328125,-705.078125,0.0,0,0
1772275748.207627,1772275748.15552,-899.4140625,125.9765625,-12.6953125,-327.1484375,0.0,0,0
1772275748.207655,1772275748.1594155,228.515625,2.9296875,-21.97265625,-446.2890625,0.0,0,0
1772275748.2076852,1772275748.163311,-961.9140625,-110.3515625,-34.1796875,-843.75,0.0,0,0
1772275748.2077131,1772275748.1672065,-884.27734375,-109.375,-29.296875,-959.47265625,0.0,0,0
1772275748.207742,1772275748.171102,247.55859375,17.578125,-6.34765625,-636.71875,0.0,0,0
1772275748.2077708,1772275748.1749976,-882.8125,85.44921875,1.953125,-235.83984375,0.0,0,0
1772275748.2078001,1772275748.178893,361.81640625,-52.24609375,-23.92578125,-299.31640625,0.0,0,0
1772275748.207829,1772275748.1827886,-888.671875,-138.671875,-60.546875,-699.70703125,0.0,0,0
1772275748.251401,1772275748.1867883,-957.51953125,-97.65625,-79.1015625,-883.7890625,0.0,0,0
1772275748.251457,1772275748.1906838,167.96875,20.99609375,-41.9921875,-604.98046875,0.0,0,0
1772275748.251476,1772275748.1945794,-895.01953125,89.35546875,-9.27734375,-182.6171875,0.0,0,0
1772275748.251492,1772275748.198475,510.7421875,-0.48828125,-27.83203125,-195.80078125,0.0,0,0
1772275748.251509,1772275748.2023704,-716.796875,-89.84375,-51.26953125,-582.51953125,0.0,0,0
1772275748.251523,1772275748.206266,-1000.0,-67.3828125,-45.8984375,-808.10546875,0.0,0,0
1772275748.251539,1772275748.2101614,-31.25,-6.34765625,-19.04296875,-587.890625,0.0,0,0
1772275748.251554,1772275748.214057,-932.12890625,23.4375,-9.27734375,-121.09375,0.0,0,0
1772275748.2515688,1772275748.2179527,661.1328125,-13.18359375,-22.94921875,-17.578125,0.0,0,0
1772275748.2515829,1772275748.2218482,-547.36328125,-79.58984375,-46.38671875,-412.59765625,0.0,0,0
1772275748.2515981,1772275748.2257438,-1000.0,-91.796875,-63.4765625,-734.86328125,0.0,0,0
1772275748.251612,1772275748.2296393,-103.02734375,-4.39453125,-51.7578125,-552.734375,0.0,0,0
1772275748.327117,1772275748.2337964,-964.35546875,66.89453125,-35.64453125,-100.5859375,0.0,0,0
1772275748.3272882,1772275748.237692,747.0703125,26.85546875,-38.57421875,33.69140625,0.0,0,0
1772275748.327372,1772275748.2415876,-392.08984375,-83.984375,-61.5234375,-307.6171875,0.0,0,0
1772275748.3274298,1772275748.2454832,-1000.0,-125.48828125,-68.359375,-643.5546875,0.0,0,0
1772275748.327484,1772275748.249379,-286.62109375,-34.66796875,-45.8984375,-488.28125,0.0,0,0
1772275748.3275352,1772275748.2532744,956.54296875,69.3359375,-37.109375,-31.25,0.0,0,0
1772275748.327586,1772275748.25717,841.30859375,60.546875,-52.734375,109.375,0.0,0,0
1772275748.327638,1772275748.2610657,-285.15625,-77.63671875,-73.2421875,-213.8671875,0.0,0,0
1772275748.32769,1772275748.2649612,-1000.0,-133.30078125,-86.42578125,-603.02734375,0.0,0,0
1772275748.3277388,1772275748.2688568,-473.6328125,-36.1328125,-79.1015625,-548.33984375,0.0,0,0
1772275748.327789,1772275748.2727523,803.7109375,49.8046875,-65.4296875,-133.7890625,0.0,0,0
1772275748.327838,1772275748.276648,943.84765625,38.57421875,-62.5,79.58984375,0.0,0,0
1772275748.342037,1772275748.2806346,-174.8046875,-46.38671875,-78.125,-184.08203125,0.0,0,0
1772275748.342141,1772275748.2845302,-1000.0,-123.53515625,-102.5390625,-609.86328125,0.0,0,0
1772275748.342185,1772275748.2884257,-613.28125,-54.19921875,-106.4453125,-578.61328125,0.0,0,0
1772275748.342226,1772275748.2923214,641.11328125,59.5703125,-78.61328125,-144.04296875,0.0,0,0
1772275748.3422642,1772275748.296217,-959.47265625,28.3203125,-75.1953125,117.67578125,0.0,0,0
1772275748.3423018,1772275748.3001127,-20.5078125,-66.89453125,-102.5390625,-86.42578125,0.0,0,0
1772275748.34234,1772275748.3040082,-1000.0,-132.8125,-128.41796875,-496.58203125,0.0,0,0
1772275748.342376,1772275748.3079038,-717.7734375,-76.66015625,-152.34375,-543.45703125,0.0,0,0
1772275748.3424141,1772275748.3117995,475.09765625,66.89453125,-124.0234375,-139.6484375,0.0,0,0
1772275748.3424509,1772275748.315695,-903.3203125,90.8203125,-91.30859375,209.47265625,0.0,0,0
1772275748.342488,1772275748.3195906,189.453125,-15.625,-109.86328125,52.734375,0.0,0,0
1772275748.3425229,1772275748.3234863,-1000.0,-97.16796875,-113.76953125,-373.53515625,0.0,0,0
1772275748.402088,1772275748.3274562,-765.625,-43.9453125,-102.05078125,-456.54296875,0.0,0,0
1772275748.402241,1772275748.331352,436.03515625,83.984375,-78.61328125,-101.5625,0.0,0,0
1772275748.4023,1772275748.3352475,-897.4609375,114.74609375,-55.17578125,279.296875,0.0,0,0
1772275748.4023528,1772275748.3391433,479.98046875,-13.671875,-73.73046875,113.28125,0.0,0,0
1772275748.402405,1772275748.3430388,-827.1484375,-125.9765625,-109.375,-402.83203125,0.0,0,0
1772275748.4024608,1772275748.3469343,-786.62109375,-107.421875,-110.83984375,-552.24609375,0.0,0,0
1772275748.402516,1772275748.35083,446.2890625,-14.16015625,-72.75390625,-231.93359375,0.0,0,0
1772275748.40257,1772275748.3547256,-951.66015625,45.41015625,-58.59375,197.265625,0.0,0,0
1772275748.4026198,1772275748.3586214,748.53515625,-29.78515625,-77.1484375,214.35546875,0.0,0,0
1772275748.402671,1772275748.3625169,-490.234375,-133.30078125,-91.796875,-169.43359375,0.0,0,0
1772275748.402723,1772275748.3664124,-916.015625,-138.671875,-99.609375,-427.24609375,0.0,0,0
1772275748.402772,1772275748.3703082,337.890625,-49.31640625,-72.265625,-226.5625,0.0,0,0
1772275748.4464488,1772275748.3743484,-953.125,28.80859375,-49.8046875,216.796875,0.0,0,0
1772275748.4465652,1772275748.3782442,823.2421875,16.11328125,-68.84765625,266.11328125,0.0,0,0
1772275748.4466,1772275748.3821397,-321.2890625,-88.37890625,-104.00390625,-157.2265625,0.0,0,0
1772275748.446631,1772275748.3860354,-1000.0,-124.51171875,-116.69921875,-455.56640625,0.0,0,0
1772275748.44666,1772275748.389931,144.04296875,-26.3671875,-97.16796875,-262.6953125,0.0,0,0
1772275748.44669,1772275748.3938267,-958.984375,47.36328125,-65.91796875,153.80859375,0.0,0,0
1772275748.44672,1772275748.3977222,869.140625,-1.46484375,-53.7109375,238.76953125,0.0,0,0
1772275748.446749,1772275748.401618,-195.3125,-105.46875,-63.4765625,-132.8125,0.0,0,0
1772275748.446777,1772275748.4055135,-1000.0,-128.41796875,-73.73046875,-504.39453125,0.0,0,0
1772275748.4468071,1772275748.4094093,-52.734375,-53.22265625,-62.01171875,-394.53125,0.0,0,0
1772275748.446836,1772275748.4133048,-993.1640625,39.55078125,-38.57421875,17.578125,0.0,0,0
1772275748.4468648,1772275748.4172006,871.58203125,62.5,-46.38671875,148.92578125,0.0,0,0
1772275748.492359,1772275748.4212317,-159.66796875,-55.17578125,-88.8671875,-180.17578125,0.0,0,0
1772275748.492471,1772275748.4251275,-1000.0,-122.55859375,-123.53515625,-547.8515625,0.0,0,0
1772275748.492507,1772275748.429023,-350.5859375,-21.484375,-100.09765625,-451.66015625,0.0,0,0
1772275748.492539,1772275748.4329188,874.0234375,43.9453125,-52.734375,-16.6015625,0.0,0,0
1772275748.492569,1772275748.4368143,946.77734375,7.32421875,-30.2734375,190.4296875,0.0,0,0
1772275748.4926012,1772275748.44071,-85.9375,-99.12109375,-54.6875,-112.79296875,0.0,0,0
1772275748.49263,1772275748.4446058,-1000.0,-182.12890625,-80.078125,-551.7578125,0.0,0,0
1772275748.4926589,1772275748.4485013,-546.875,-118.65234375,-67.3828125,-554.6875,0.0,0,0
1772275748.492688,1772275748.452397,709.9609375,-10.7421875,-42.96875,-158.69140625,0.0,0,0
1772275748.492718,1772275748.4562926,-975.09765625,2.9296875,-26.3671875,70.3125,0.0,0,0
1772275748.492747,1772275748.4601884,55.17578125,-88.37890625,-51.26953125,-196.2890625,0.0,0,0
1772275748.492776,1772275748.4640841,-1000.0,-127.9296875,-76.66015625,-621.09375,0.0,0,0
1772275748.536632,1772275748.4681058,-641.11328125,-100.09765625,-86.9140625,-676.7578125,0.0,0,0
1772275748.536754,1772275748.4720016,583.0078125,-18.06640625,-83.984375,-307.6171875,0.0,0,0
1772275748.536798,1772275748.4758973,-907.2265625,4.8828125,-72.75390625,11.23046875,0.0,0,0
