timestamp,lsl_timestamp,TP9,AF7,AF8,TP10,Right AUX,keypress_A,keypress_B
1765391484.122383,1765391484.0513585,18.06640625,-31.73828125,25.390625,261.71875,0.0,0,0
1765391484.122498,1765391484.0552528,-58.59375,-54.6875,-79.1015625,-158.203125,0.0,0,0
1765391484.122535,1765391484.0591471,-106.93359375,-48.33984375,-91.30859375,-408.69140625,0.0,0,0
1765391484.122561,1765391484.0630414,-58.59375,-22.4609375,9.765625,-135.7421875,0.0,0,0
1765391484.122584,1765391484.066936,21.484375,-12.20703125,67.3828125,228.02734375,0.0,0,0
1765391484.122606,1765391484.0708303,41.50390625,-18.06640625,40.52734375,292.96875,0.0,0,0
1765391484.1226282,1765391484.0747247,-30.76171875,-39.55078125,-70.3125,-112.3046875,0.0,0,0
1765391484.1226501,1765391484.078619,-82.03125,-43.9453125,-100.09765625,-400.87890625,0.0,0,0
1765391484.1226711,1765391484.0825133,-55.17578125,-28.3203125,-13.671875,-188.96484375,0.0,0,0
1765391484.122692,1765391484.086408,3.90625,-14.6484375,56.640625,202.1484375,0.0,0,0
1765391484.1227179,1765391484.0903022,36.1328125,-11.71875,43.45703125,323.73046875,0.0,0,0
1765391484.122738,1765391484.0941966,-22.94921875,-32.71484375,-69.3359375,-55.6640625,0.0,0,0
1765391484.198227,1765391484.0984244,-85.9375,-43.9453125,-117.1875,-370.1171875,0.0,0,0
1765391484.198299,1765391484.102319,-68.359375,-26.85546875,-50.29296875,-243.1640625,0.0,0,0
1765391484.198335,1765391484.1062133,3.41796875,-11.23046875,42.96875,157.2265625,0.0,0,0
1765391484.198357,1765391484.110108,29.78515625,-13.18359375,47.8515625,337.40234375,0.0,0,0
1765391484.19838,1765391484.1140022,-30.76171875,-32.2265625,-72.75390625,-6.8359375,0.0,0,0
1765391484.198401,1765391484.1178966,-86.9140625,-40.52734375,-125.48828125,-352.05078125,0.0,0,0
1765391484.198422,1765391484.1217911,-89.84375,-33.69140625,-61.03515625,-301.7578125,0.0,0,0
1765391484.198443,1765391484.1256855,-34.1796875,-23.4375,30.2734375,108.88671875,0.0,0,0
1765391484.198514,1765391484.12958,18.5546875,2.44140625,43.9453125,336.9140625,0.0,0,0
1765391484.198554,1765391484.1334743,-26.85546875,-10.7421875,-57.12890625,39.0625,0.0,0,0
1765391484.1985762,1765391484.137369,-83.984375,-45.8984375,-104.00390625,-324.21875,0.0,0,0
1765391484.198598,1765391484.1412632,-87.40234375,-33.203125,-40.52734375,-338.37890625,0.0,0,0
1765391484.212277,1765391484.1452966,-21.484375,-5.859375,72.265625,78.125,0.0,0,0
1765391484.2123468,1765391484.1491911,34.1796875,-1.953125,103.515625,339.84375,0.0,0,0
1765391484.212376,1765391484.1530855,-6.34765625,-24.4140625,-4.39453125,97.16796875,0.0,0,0
1765391484.212399,1765391484.15698,-77.63671875,-39.0625,-82.03125,-282.71484375,0.0,0,0
1765391484.21242,1765391484.1608744,-97.65625,-32.2265625,-43.45703125,-355.46875,0.0,0,0
1765391484.2124412,1765391484.164769,-31.25,-10.25390625,67.3828125,38.57421875,0.0,0,0
1765391484.2124622,1765391484.1686635,20.99609375,-5.859375,103.02734375,330.078125,0.0,0,0
1765391484.2124832,1765391484.1725578,-6.8359375,-22.4609375,18.06640625,166.9921875,0.0,0,0
1765391484.212505,1765391484.1764524,-78.61328125,-42.48046875,-71.2890625,-241.69921875,0.0,0,0
1765391484.212526,1765391484.1803467,-109.375,-51.26953125,-65.91796875,-380.859375,0.0,0,0
1765391484.212548,1765391484.1842413,-44.921875,-23.92578125,43.45703125,0.0,0.0,0,0
1765391484.212586,1765391484.1881356,18.06640625,-13.18359375,73.2421875,314.453125,0.0,0,0
1765391484.2574148,1765391484.1921482,7.8125,-33.69140625,-0.48828125,219.7265625,0.0,0,0
1765391484.257479,1765391484.1960428,-60.546875,-56.640625,-110.83984375,-209.9609375,0.0,0,0
1765391484.2575092,1765391484.1999373,-90.8203125,-59.08203125,-132.32421875,-406.73828125,0.0,0,0
1765391484.257539,1765391484.2038317,-35.64453125,-22.4609375,-20.5078125,-57.6171875,0.0,0,0
1765391484.257581,1765391484.2077262,21.484375,-0.9765625,23.92578125,269.53125,0.0,0,0
1765391484.257638,1765391484.2116206,18.06640625,-24.4140625,-20.5078125,252.9296875,0.0,0,0
1765391484.257687,1765391484.2155151,-53.22265625,-53.22265625,-121.09375,-166.015625,0.0,0,0
1765391484.2577212,1765391484.2194097,-96.19140625,-44.921875,-149.90234375,-419.43359375,0.0,0,0
1765391484.257749,1765391484.223304,-45.41015625,-19.53125,-31.73828125,-128.41796875,0.0,0,0
1765391484.257774,1765391484.2271986,22.94921875,-18.06640625,55.17578125,226.07421875,0.0,0,0
1765391484.257799,1765391484.231093,41.015625,-19.04296875,37.109375,276.85546875,0.0,0,0
1765391484.25783,1765391484.2349875,-23.92578125,-41.015625,-76.66015625,-126.953125,0.0,0,0
1765391484.3021948,1765391484.2389889,-86.42578125,-51.26953125,-126.953125,-422.36328125,0.0,0,0
1765391484.302277,1765391484.2428834,-56.15234375,-24.90234375,-42.48046875,-199.21875,0.0,0,0
1765391484.3023071,1765391484.246778,28.80859375,-5.37109375,26.3671875,193.84765625,0.0,0,0
1765391484.302334,1765391484.2506723,53.22265625,-12.6953125,7.8125,298.828125,0.0,0,0
1765391484.302363,1765391484.254567,-23.4375,-39.55078125,-97.65625,-89.35546875,0.0,0,0
1765391484.302389,1765391484.2584615,-78.61328125,-43.45703125,-136.71875,-396.484375,0.0,0,0
1765391484.3024151,1765391484.2623558,-62.5,-26.3671875,-62.01171875,-256.8359375,0.0,0,0
1765391484.302439,1765391484.2662504,-3.41796875,-2.9296875,30.2734375,152.83203125,0.0,0,0
1765391484.302465,1765391484.270145,19.04296875,-4.39453125,33.69140625,323.73046875,0.0,0,0
1765391484.30249,1765391484.2740393,-49.8046875,-25.87890625,-62.98828125,-41.50390625,0.0,0,0
1765391484.302516,1765391484.2779338,-95.21484375,-36.62109375,-93.75,-358.3984375,0.0,0,0
1765391484.302541,1765391484.2818284,-80.078125,-27.34375,-32.71484375,-289.0625,0.0,0,0
1765391484.3473291,1765391484.285819,-7.32421875,-10.7421875,60.546875,120.60546875,0.0,0,0
1765391484.347431,1765391484.2897136,32.2265625,-10.7421875,74.70703125,342.28515625,0.0,0,0
1765391484.34747,1765391484.293608,-23.4375,-23.92578125,-35.64453125,18.5546875,0.0,0,0
1765391484.3475032,1765391484.2975025,-86.9140625,-43.45703125,-91.30859375,-333.0078125,0.0,0,0
1765391484.347539,1765391484.301397,-84.9609375,-37.109375,-62.5,-316.89453125,0.0,0,0
1765391484.347571,1765391484.3052917,-0.48828125,-16.11328125,24.4140625,96.6796875,0.0,0,0
1765391484.347609,1765391484.309186,44.43359375,-11.23046875,64.453125,341.30859375,0.0,0,0
1765391484.347646,1765391484.3130805,-2.44140625,-27.34375,-24.4140625,87.40234375,0.0,0,0
1765391484.347687,1765391484.316975,-75.68359375,-34.1796875,-101.07421875,-286.62109375,0.0,0,0
1765391484.3477278,1765391484.3208697,-89.35546875,-36.1328125,-100.09765625,-348.6328125,0.0,0,0
1765391484.347775,1765391484.324764,-16.6015625,-33.69140625,3.41796875,50.78125,0.0,0,0
1765391484.347807,1765391484.3286586,25.87890625,-15.625,69.82421875,332.03125,0.0,0,0
1765391484.405616,1765391484.3326378,-2.9296875,-38.57421875,-19.04296875,144.04296875,0.0,0,0
1765391484.40574,1765391484.3365324,-69.82421875,-63.96484375,-106.93359375,-268.5546875,0.0,0,0
1765391484.405782,1765391484.340427,-103.02734375,-55.6640625,-68.84765625,-384.765625,0.0,0,0
1765391484.405816,1765391484.3443215,-56.640625,-34.66796875,28.80859375,3.90625,0.0,0,0
1765391484.4058518,1765391484.3482158,11.71875,-28.3203125,58.10546875,314.453125,0.0,0,0
1765391484.405925,1765391484.3521104,12.20703125,-43.9453125,-4.8828125,210.9375,0.0,0,0
1765391484.405997,1765391484.356005,-68.84765625,-68.84765625,-91.30859375,-217.7734375,0.0,0,0
1765391484.406037,1765391484.3598995,-119.62890625,-61.03515625,-103.515625,-402.83203125,0.0,0,0
1765391484.406074,1765391484.363794,-57.6171875,-31.25,-6.34765625,-43.45703125,0.0,0,0
1765391484.4061089,1765391484.3676887,2.9296875,-22.94921875,60.05859375,281.25,0.0,0,0
1765391484.406157,1765391484.371583,-16.11328125,-32.71484375,18.5546875,242.67578125,0.0,0,0
1765391484.406192,1765391484.3754776,-99.12109375,-50.78125,-109.86328125,-166.9921875,0.0,0,0
1765391484.4526222,1765391484.3794446,-133.7890625,-48.33984375,-142.578125,-394.53125,0.0,0,0
1765391484.452749,1765391484.3833392,-75.1953125,-27.83203125,-10.25390625,-97.65625,0.0,0,0
1765391484.4528499,1765391484.3872337,-13.671875,-17.578125,61.03515625,250.48828125,0.0,0,0
1765391484.452898,1765391484.3911283,-21.484375,-39.0625,26.3671875,283.69140625,0.0,0,0
1765391484.4532979,1765391484.3950229,-93.75,-68.84765625,-83.984375,-131.34765625,0.0,0,0
1765391484.453344,1765391484.3989174,-129.39453125,-47.8515625,-125.48828125,-404.296875,0.0,0,0
1765391484.453386,1765391484.402812,-70.80078125,-13.18359375,-33.203125,-160.64453125,0.0,0,0
1765391484.4534268,1765391484.4067066,10.25390625,-8.7890625,46.38671875,217.7734375,0.0,0,0
1765391484.453467,1765391484.410601,18.5546875,-10.7421875,32.71484375,310.546875,0.0,0,0
1765391484.4535072,1765391484.4144955,-47.8515625,-36.1328125,-72.75390625,-77.1484375,0.0,0,0
1765391484.453546,1765391484.41839,-112.3046875,-42.96875,-102.5390625,-379.8828125,0.0,0,0
1765391484.4535859,1765391484.4222846,-96.6796875,-25.390625,-17.08984375,-214.35546875,0.0,0,0
1765391484.499042,1765391484.4263422,-17.578125,-16.11328125,62.5,192.3828125,0.0,0,0
1765391484.4991832,1765391484.4302368,20.99609375,-16.6015625,50.29296875,333.0078125,0.0,0,0
1765391484.499233,1765391484.4341314,-37.59765625,-35.15625,-63.96484375,-40.0390625,0.0,0,0
1765391484.499275,1765391484.438026,-94.23828125,-39.0625,-111.328125,-356.4453125,0.0,0,0
1765391484.499317,1765391484.4419205,-81.0546875,-24.4140625,-51.7578125,-265.13671875,0.0,0,0
1765391484.4993632,1765391484.445815,-7.8125,-4.8828125,54.6875,154.78515625,0.0,0,0
1765391484.4994218,1765391484.4497097,29.296875,-3.41796875,74.70703125,360.83984375,0.0,0,0
1765391484.4994628,1765391484.453604,-32.71484375,-31.73828125,-43.9453125,27.83203125,0.0,0,0
1765391484.499535,1765391484.4574986,-103.515625,-41.50390625,-101.5625,-318.359375,0.0,0,0
1765391484.499609,1765391484.461393,-93.75,-27.83203125,-50.78125,-305.6640625,0.0,0,0
1765391484.499684,1765391484.4652877,-8.7890625,-5.859375,53.7109375,104.00390625,0.0,0,0
1765391484.499735,1765391484.4691823,43.9453125,0.48828125,82.51953125,357.421875,0.0,0,0
1765391484.543484,1765391484.473221,-19.04296875,-29.78515625,-25.87890625,78.125,0.0,0,0
1765391484.543552,1765391484.4771156,-105.95703125,-50.29296875,-104.98046875,-303.22265625,0.0,0,0
1765391484.5435882,1765391484.4810102,-101.5625,-41.50390625,-74.70703125,-335.44921875,0.0,0,0
1765391484.543621,1765391484.4849048,-18.5546875,-15.13671875,27.83203125,67.87109375,0.0,0,0
1765391484.543657,1765391484.4887993,41.50390625,-11.23046875,46.38671875,329.58984375,0.0,0,0
1765391484.54369,1765391484.492694,10.7421875,-38.0859375,-53.22265625,120.60546875,0.0,0,0
1765391484.543721,1765391484.4965885,-66.40625,-49.31640625,-129.39453125,-263.18359375,0.0,0,0
1765391484.543754,1765391484.500483,-80.078125,-40.0390625,-109.86328125,-361.328125,0.0,0,0
1765391484.543787,1765391484.5043778,-16.11328125,-19.53125,14.16015625,9.27734375,0.0,0,0
1765391484.5438201,1765391484.5082724,27.83203125,-9.27734375,74.70703125,310.05859375,0.0,0,0
1765391484.543852,1765391484.512167,30.76171875,-19.53125,9.765625,192.3828125,0.0,0,0
1765391484.543884,1765391484.5160615,-37.109375,-38.57421875,-75.68359375,-224.609375,0.0,0,0
1765391484.5893629,1765391484.5200918,-68.359375,-39.0625,-83.49609375,-379.8828125,0.0,0,0
1765391484.589519,1765391484.5239863,-5.859375,-16.6015625,4.39453125,-23.4375,0.0,0,0
1765391484.58959,1765391484.527881,33.69140625,-9.765625,59.08203125,280.76171875,0.0,0,0
1765391484.589654,1765391484.5317757,25.390625,-26.3671875,17.578125,228.02734375,0.0,0,0
1765391484.5897138,1765391484.5356703,-35.64453125,-43.45703125,-79.58984375,-178.22265625,0.0,0,0
1765391484.589771,1765391484.5395648,-69.82421875,-40.52734375,-96.6796875,-397.94921875,0.0,0,0
1765391484.58983,1765391484.5434594,-11.23046875,-19.04296875,1.953125,-91.30859375,0.0,0,0
1765391484.589885,1765391484.547354,46.875,-7.8125,54.6875,256.8359375,0.0,0,0
1765391484.58994,1765391484.5512486,49.8046875,-11.71875,8.30078125,267.578125,0.0,0,0
1765391484.589995,1765391484.5551434,-27.83203125,-34.1796875,-92.7734375,-141.6015625,0.0,0,0
1765391484.59005,1765391484.559038,-80.56640625,-44.43359375,-114.74609375,-408.203125,0.0,0,0
1765391484.590105,1765391484.5629325,-34.1796875,-20.5078125,-20.01953125,-156.25,0.0,0,0
1765391484.633367,1765391484.5669465,33.69140625,-7.8125,55.6640625,223.6328125,0.0,0,0
1765391484.633535,1765391484.570841,37.59765625,-19.04296875,30.2734375,292.96875,0.0,0,0
1765391484.633599,1765391484.5747356,-29.296875,-45.8984375,-87.40234375,-97.65625,0.0,0,0
1765391484.633657,1765391484.5786304,-75.68359375,-52.24609375,-113.28125,-383.7890625,0.0,0,0
1765391484.6337368,1765391484.582525,-56.15234375,-28.3203125,-16.6015625,-203.125,0.0,0,0
1765391484.633795,1765391484.5864196,14.16015625,-11.71875,56.640625,184.5703125,0.0,0,0
1765391484.633873,1765391484.5903141,40.0390625,-20.5078125,40.52734375,317.3828125,0.0,0,0
1765391484.6339579,1765391484.594209,-25.390625,-37.59765625,-88.37890625,-57.12890625,0.0,0,0
1765391484.634015,1765391484.5981035,-77.1484375,-38.57421875,-149.90234375,-375.48828125,0.0,0,0
1765391484.634099,1765391484.601998,-57.12890625,-33.69140625,-59.08203125,-261.23046875,0.0,0,0
1765391484.634157,1765391484.6058927,9.765625,-16.11328125,47.36328125,147.94921875,0.0,0,0
1765391484.634212,1765391484.6097875,43.9453125,-14.16015625,52.734375,333.984375,0.0,0,0
1765391484.678117,1765391484.6137948,-10.7421875,-37.109375,-51.26953125,4.8828125,0.0,0,0
1765391484.67824,1765391484.6176896,-74.21875,-48.33984375,-112.79296875,-341.30859375,0.0,0,0
1765391484.678289,1765391484.6215842,-68.359375,-27.83203125,-69.3359375,-308.59375,0.0,0,0
1765391484.6783319,1765391484.6254787,-5.859375,-1.953125,32.2265625,101.5625,0.0,0,0
1765391484.6783738,1765391484.6293736,34.66796875,-4.8828125,45.8984375,328.61328125,0.0,0,0
1765391484.678422,1765391484.633268,-10.7421875,-31.25,-69.3359375,43.45703125,0.0,0,0
1765391484.6784608,1765391484.6371627,-80.56640625,-39.55078125,-146.484375,-325.1953125,0.0,0,0
1765391484.678528,1765391484.6410575,-83.49609375,-21.97265625,-105.46875,-349.12109375,0.0,0,0
1765391484.6785889,1765391484.644952,-13.18359375,-9.765625,5.859375,53.22265625,0.0,0,0
1765391484.678636,1765391484.6488469,36.1328125,-14.16015625,32.2265625,320.3125,0.0,0,0
1765391484.678676,1765391484.6527414,6.8359375,-25.390625,-47.8515625,107.91015625,0.0,0,0
1765391484.678715,1765391484.656636,-59.5703125,-37.59765625,-101.5625,-283.69140625,0.0,0,0
1765391484.7242591,1765391484.660632,-67.3828125,-35.64453125,-65.91796875,-370.60546875,0.0,0,0
1765391484.7244108,1765391484.6645265,1.46484375,-10.7421875,39.0625,17.08984375,0.0,0,0
1765391484.724478,1765391484.6684213,47.36328125,-8.30078125,74.21875,307.12890625,0.0,0,0
1765391484.724538,1765391484.6723158,24.4140625,-26.85546875,-13.18359375,166.50390625,0.0,0,0
1765391484.724596,1765391484.6762106,-50.78125,-44.921875,-122.0703125,-242.1875,0.0,0,0
1765391484.724658,1765391484.6801052,-80.078125,-47.8515625,-118.1640625,-388.671875,0.0,0,0
1765391484.724715,1765391484.6839998,-23.4375,-13.671875,-7.8125,-24.90234375,0.0,0,0
1765391484.724781,1765391484.6878946,33.203125,-7.8125,47.8515625,281.73828125,0.0,0,0
1765391484.724858,1765391484.6917892,20.01953125,-34.1796875,12.20703125,211.42578125,0.0,0,0
1765391484.7249448,1765391484.695684,-60.546875,-38.0859375,-73.73046875,-201.66015625,0.0,0,0
1765391484.725037,1765391484.6995785,-99.12109375,-33.203125,-72.265625,-406.25,0.0,0,0
1765391484.7251022,1765391484.7034733,-49.8046875,-16.11328125,27.83203125,-86.42578125,0.0,0,0
1765391484.7989419,1765391484.7076344,19.53125,-7.8125,65.4296875,247.0703125,0.0,0,0
1765391484.7991412,1765391484.711529,21.97265625,-21.484375,17.08984375,252.44140625,0.0,0,0
1765391484.799231,1765391484.7154238,-55.17578125,-47.8515625,-94.23828125,-158.69140625,0.0,0,0
1765391484.799295,1765391484.7193184,-89.35546875,-53.22265625,-131.34765625,-407.71484375,0.0,0,0
1765391484.799382,1765391484.7232132,-45.41015625,-27.83203125,-30.76171875,-135.7421875,0.0,0,0
1765391484.7994392,1765391484.727108,7.8125,-10.25390625,44.921875,226.07421875,0.0,0,0
1765391484.799495,1765391484.7310026,21.484375,-15.625,10.7421875,289.0625,0.0,0,0
1765391484.79955,1765391484.7348974,-35.64453125,-47.36328125,-99.609375,-108.88671875,0.0,0,0
1765391484.799603,1765391484.738792,-95.703125,-54.6875,-127.9296875,-400.390625,0.0,0,0
1765391484.799928,1765391484.7426867,-72.75390625,-23.4375,-41.9921875,-199.21875,0.0,0,0
1765391484.79999,1765391484.7465816,1.46484375,-10.25390625,40.0390625,196.77734375,0.0,0,0
1765391484.800045,1765391484.7504761,21.97265625,-33.69140625,34.66796875,308.59375,0.0,0,0
1765391484.8283808,1765391484.7544634,-34.1796875,-46.38671875,-83.984375,-74.21875,0.0,0,0
1765391484.828514,1765391484.7583582,-92.28515625,-41.9921875,-132.8125,-375.9765625,0.0,0,0
1765391484.828575,1765391484.7622528,-72.75390625,-33.69140625,-55.17578125,-246.58203125,0.0,0,0
1765391484.828632,1765391484.7661476,-4.8828125,-16.6015625,46.38671875,163.57421875,0.0,0,0
1765391484.8286889,1765391484.7700424,1.46484375,-26.3671875,55.6640625,339.84375,0.0,0,0
1765391484.828747,1765391484.773937,-62.98828125,-32.71484375,-54.19921875,-7.8125,0.0,0,0
1765391484.828806,1765391484.7778318,-126.46484375,-49.31640625,-96.6796875,-339.84375,0.0,0,0
1765391484.828861,1765391484.7817266,-109.86328125,-50.78125,-53.7109375,-298.33984375,0.0,0,0
1765391484.828917,1765391484.7856212,-12.6953125,-19.04296875,36.1328125,112.3046875,0.0,0,0
1765391484.8289778,1765391484.789516,44.43359375,-22.94921875,51.7578125,351.5625,0.0,0,0
1765391484.829045,1765391484.7934108,-11.23046875,-47.36328125,-56.15234375,50.29296875,0.0,0,0
1765391484.829123,1765391484.7973053,-101.07421875,-55.17578125,-111.328125,-305.17578125,0.0,0,0
1765391484.886743,1765391484.8013537,-124.0234375,-56.15234375,-95.703125,-325.1953125,0.0,0,0
1765391484.8867998,1765391484.8052483,-53.22265625,-12.6953125,18.5546875,72.75390625,0.0,0,0
1765391484.886828,1765391484.809143,3.41796875,-3.90625,74.21875,348.14453125,0.0,0,0
1765391484.886855,1765391484.8130379,-29.78515625,-31.25,-52.24609375,115.72265625,0.0,0,0
1765391484.88688,1765391484.8169327,-95.703125,-45.41015625,-129.8828125,-274.90234375,0.0,0,0
1765391484.8869061,1765391484.8208275,-122.0703125,-38.57421875,-79.1015625,-342.28515625,0.0,0,0
1765391484.886931,1765391484.824722,-61.5234375,-17.08984375,6.8359375,41.50390625,0.0,0,0
1765391484.886956,1765391484.8286169,-1.953125,-21.484375,24.90234375,328.125,0.0,0,0
1765391484.886981,1765391484.8325117,-19.04296875,-29.296875,-31.25,179.19921875,0.0,0,0
1765391484.8870049,1765391484.8364065,-98.14453125,-37.109375,-109.375,-232.91015625,0.0,0,0
1765391484.887031,1765391484.840301,-131.8359375,-40.52734375,-117.67578125,-375.48828125,0.0,0,0
1765391484.8870559,1765391484.8441958,-66.40625,-20.5078125,-3.41796875,-8.7890625,0.0,0,0
1765391484.917419,1765391484.848233,7.32421875,-20.01953125,54.6875,302.24609375,0.0,0,0
1765391484.9174871,1765391484.8521278,-4.39453125,-39.55078125,6.8359375,223.6328125,0.0,0,0
1765391484.9175282,1765391484.8560224,-86.42578125,-52.734375,-99.609375,-195.80078125,0.0,0,0
1765391484.917562,1765391484.8599172,-114.2578125,-45.41015625,-141.6015625,-392.08984375,0.0,0,0
1765391484.9175942,1765391484.863812,-54.6875,-22.4609375,-34.66796875,-53.7109375,0.0,0,0
1765391484.9176252,1765391484.8677068,-1.46484375,-11.23046875,31.25,276.3671875,0.0,0,0
1765391484.917658,1765391484.8716016,4.39453125,-21.97265625,-1.46484375,271.97265625,0.0,0,0
1765391484.91769,1765391484.8754964,-62.01171875,-47.36328125,-104.00390625,-147.4609375,0.0,0,0
1765391484.917768,1765391484.8793912,-107.91015625,-42.48046875,-123.046875,-403.80859375,0.0,0,0
1765391484.917809,1765391484.883286,-61.5234375,-16.6015625,-4.8828125,-118.65234375,0.0,0,0
1765391484.917841,1765391484.8871808,-0.48828125,-23.4375,50.29296875,242.1875,0.0,0,0
1765391484.9178739,1765391484.8910754,3.41796875,-27.34375,19.04296875,288.0859375,0.0,0,0
1765391484.963153,1765391484.8950982,-61.5234375,-40.52734375,-100.5859375,-117.1875,0.0,0,0
1765391484.963287,1765391484.8989928,-110.83984375,-42.96875,-158.69140625,-400.87890625,0.0,0,0
1765391484.963337,1765391484.9028876,-82.03125,-26.3671875,-59.08203125,-193.359375,0.0,0,0
1765391484.963379,1765391484.9067824,-8.7890625,-17.08984375,28.80859375,194.82421875,0.0,0,0
1765391484.963426,1765391484.9106772,15.625,-17.08984375,5.859375,305.6640625,0.0,0,0
1765391484.9634712,1765391484.914572,-46.875,-37.59765625,-116.2109375,-79.1015625,0.0,0,0
1765391484.963514,1765391484.9184668,-94.7265625,-41.015625,-167.96875,-383.7890625,0.0,0,0
1765391484.9635682,1765391484.9223616,-72.265625,-21.97265625,-81.54296875,-240.72265625,0.0,0,0
1765391484.963619,1765391484.9262564,2.44140625,-3.90625,27.34375,167.96875,0.0,0,0
1765391484.963694,1765391484.9301512,53.22265625,-8.7890625,23.92578125,342.7734375,0.0,0,0
1765391484.963736,1765391484.934046,10.7421875,-40.52734375,-105.95703125,-13.18359375,0.0,0,0
1765391484.963775,1765391484.9379408,-55.6640625,-48.33984375,-147.4609375,-347.16796875,0.0,0,0
1765391485.007473,1765391484.9419525,-47.8515625,-31.25,-86.9140625,-281.73828125,0.0,0,0
1765391485.007615,1765391484.9458473,31.73828125,-18.5546875,-0.48828125,135.25390625,0.0,0,0
1765391485.007668,1765391484.949742,74.70703125,-18.06640625,22.94921875,356.93359375,0.0,0,0
1765391485.00771,1765391484.953637,24.4140625,-44.921875,-87.890625,46.875,0.0,0,0
1765391485.007751,1765391484.9575317,-51.26953125,-61.5234375,-133.7890625,-316.89453125,0.0,0,0
1765391485.007794,1765391484.9614265,-67.87109375,-40.0390625,-50.78125,-322.75390625,0.0,0,0
1765391485.0078442,1765391484.9653215,7.32421875,-16.6015625,64.94140625,89.35546875,0.0,0,0
1765391485.007904,1765391484.9692163,62.5,-17.08984375,85.44921875,344.7265625,0.0,0,0
1765391485.007964,1765391484.9731112,11.71875,-37.109375,-28.80859375,91.30859375,0.0,0,0
1765391485.008024,1765391484.977006,-68.84765625,-59.5703125,-111.81640625,-294.921875,0.0,0,0
1765391485.0080671,1765391484.9809008,-81.54296875,-46.875,-90.33203125,-358.88671875,0.0,0,0
1765391485.008118,1765391484.9847956,-15.13671875,-22.4609375,5.37109375,34.1796875,0.0,0,0
1765391485.052779,1765391484.988795,36.62109375,-18.06640625,46.38671875,310.05859375,0.0,0,0
1765391485.052892,1765391484.9926898,1.953125,-30.76171875,-3.41796875,131.34765625,0.0,0,0
1765391485.052924,1765391484.9965847,-78.125,-44.43359375,-87.890625,-265.13671875,0.0,0,0
1765391485.052952,1765391485.0004797,-105.95703125,-37.59765625,-119.62890625,-389.6484375,0.0,0,0
1765391485.052982,1765391485.0043745,-40.52734375,-25.390625,-17.578125,-20.99609375,0.0,0,0
1765391485.053013,1765391485.0082693,17.578125,-20.5078125,49.31640625,286.1328125,0.0,0,0
1765391485.053052,1765391485.012164,8.7890625,-26.3671875,8.30078125,199.21875,0.0,0,0
1765391485.0530791,1765391485.016059,-68.84765625,-50.29296875,-65.4296875,-211.9140625,0.0,0,0
1765391485.0531268,1765391485.0199537,-100.5859375,-46.38671875,-76.66015625,-398.4375,0.0,0,0
1765391485.053167,1765391485.0238485,-34.1796875,-15.625,3.90625,-53.7109375,0.0,0,0
1765391485.053202,1765391485.0277433,30.76171875,-5.859375,42.96875,276.85546875,0.0,0,0
1765391485.053229,1765391485.0316381,33.69140625,-19.04296875,24.4140625,241.2109375,0.0,0,0
1765391485.097743,1765391485.0356336,-32.71484375,-45.8984375,-48.828125,-173.33984375,0.0,0,0
1765391485.097857,1765391485.0395284,-79.58984375,-45.8984375,-78.61328125,-404.78515625,0.0,0,0
1765391485.0979,1765391485.0434234,-38.57421875,-22.4609375,20.99609375,-104.98046875,0.0,0,0
1765391485.097934,1765391485.0473182,31.73828125,-7.8125,81.54296875,246.09375,0.0,0,0
1765391485.0979671,1765391485.051213,51.7578125,-6.34765625,23.92578125,268.06640625,0.0,0,0
1765391485.097999,1765391485.0551078,-17.578125,-26.85546875,-99.12109375,-126.46484375,0.0,0,0
1765391485.0980322,1765391485.0590026,-71.2890625,-33.203125,-131.34765625,-385.7421875,0.0,0,0
1765391485.098109,1765391485.0628977,-40.0390625,-23.92578125,-28.3203125,-163.0859375,0.0,0,0
1765391485.0981472,1765391485.0667925,36.62109375,-15.13671875,77.1484375,219.23828125,0.0,0,0
1765391485.0982342,1765391485.0706873,76.66015625,-13.671875,66.40625,314.453125,0.0,0,0
1765391485.098271,1765391485.074582,3.90625,-33.69140625,-56.15234375,-82.51953125,0.0,0,0
1765391485.098303,1765391485.078477,-58.59375,-44.43359375,-108.3984375,-380.37109375,0.0,0,0
1765391485.1559339,1765391485.0824556,-34.1796875,-31.73828125,-51.7578125,-222.16796875,0.0,0,0
1765391485.1560478,1765391485.0863504,18.06640625,-8.30078125,23.4375,175.78125,0.0,0,0
1765391485.156066,1765391485.0902452,32.71484375,-12.6953125,8.30078125,322.265625,0.0,0,0
1765391485.156079,1765391485.09414,-24.90234375,-41.50390625,-77.1484375,-38.57421875,0.0,0,0
1765391485.156092,1765391485.098035,-85.44921875,-47.36328125,-88.37890625,-360.3515625,0.0,0,0
1765391485.1561038,1765391485.10193,-76.66015625,-25.87890625,-12.20703125,-267.578125,0.0,0,0
1765391485.156117,1765391485.1058247,-5.859375,-1.46484375,80.56640625,141.6015625,0.0,0,0
1765391485.1561291,1765391485.1097195,27.83203125,-8.7890625,74.21875,342.7734375,0.0,0,0
1765391485.156141,1765391485.1136146,-12.6953125,-37.59765625,-57.12890625,38.0859375,0.0,0,0
1765391485.1561532,1765391485.1175094,-72.265625,-43.9453125,-137.6953125,-302.24609375,0.0,0,0
1765391485.1561651,1765391485.1214042,-85.44921875,-30.76171875,-93.26171875,-303.7109375,0.0,0,0
1765391485.156178,1765391485.125299,-18.06640625,-11.23046875,18.06640625,97.65625,0.0,0,0
1765391485.201471,1765391485.1293564,37.109375,-7.8125,52.24609375,345.21484375,0.0,0,0
1765391485.201514,1765391485.1332512,10.25390625,-30.76171875,-40.52734375,72.265625,0.0,0,0
1765391485.201529,1765391485.137146,-54.19921875,-38.0859375,-80.56640625,-298.828125,0.0,0,0
1765391485.201542,1765391485.141041,-75.1953125,-31.25,-35.15625,-351.5625,0.0,0,0
1765391485.201555,1765391485.1449358,16.6015625,-12.6953125,65.91796875,49.31640625,0.0,0,0
1765391485.201567,1765391485.148831,85.44921875,8.30078125,99.12109375,340.8203125,0.0,0,0
1765391485.20158,1765391485.1527257,45.41015625,-11.23046875,9.27734375,137.6953125,0.0,0,0
1765391485.201592,1765391485.1566205,-26.85546875,-43.45703125,-82.51953125,-269.53125,0.0,0,0
1765391485.2016041,1765391485.1605155,-44.921875,-45.8984375,-69.3359375,-380.37109375,0.0,0,0
1765391485.2016158,1765391485.1644104,19.04296875,-8.7890625,37.109375,4.39453125,0.0,0,0
1765391485.201629,1765391485.1683052,73.73046875,-4.8828125,62.5,305.6640625,0.0,0,0
1765391485.2016408,1765391485.1722002,56.15234375,-28.3203125,-4.8828125,190.4296875,0.0,0,0
1765391485.246709,1765391485.1762457,-32.2265625,-39.0625,-90.33203125,-217.28515625,0.0,0,0
1765391485.246753,1765391485.1801407,-86.9140625,-40.52734375,-92.28515625,-386.23046875,0.0,0,0
1765391485.246774,1765391485.1840355,-28.80859375,-9.765625,31.73828125,-25.87890625,0.0,0,0
1765391485.246791,1765391485.1879306,40.0390625,-6.8359375,74.70703125,290.0390625,0.0,0,0
1765391485.246807,1765391485.1918254,22.4609375,-23.4375,7.32421875,234.375,0.0,0,0
1765391485.2468219,1765391485.1957204,-55.6640625,-42.48046875,-102.05078125,-176.26953125,0.0,0,0
1765391485.246838,1765391485.1996152,-86.9140625,-47.8515625,-129.8828125,-402.34375,0.0,0,0
1765391485.2468538,1765391485.20351,-42.96875,-24.4140625,-6.34765625,-98.6328125,0.0,0,0
1765391485.246869,1765391485.207405,24.90234375,-12.6953125,65.91796875,248.53515625,0.0,0,0
1765391485.246884,1765391485.2113,15.13671875,-7.8125,43.45703125,270.99609375,0.0,0,0
1765391485.2469,1765391485.215195,-77.1484375,-40.0390625,-74.21875,-139.6484375,0.0,0,0
1765391485.246915,1765391485.2190897,-99.12109375,-58.59375,-145.01953125,-399.90234375,0.0,0,0
1765391485.294654,1765391485.2231288,-49.31640625,-25.390625,-52.24609375,-143.5546875,0.0,0,0
1765391485.2947059,1765391485.2270238,8.7890625,-8.7890625,39.0625,232.421875,0.0,0,0
1765391485.294736,1765391485.230919,26.3671875,-11.23046875,53.7109375,300.78125,0.0,0,0
1765391485.294755,1765391485.2348137,-60.05859375,-35.15625,-70.80078125,-99.12109375,0.0,0,0
1765391485.294773,1765391485.2387087,-108.3984375,-46.38671875,-155.2734375,-385.7421875,0.0,0,0
1765391485.294791,1765391485.2426035,-44.921875,-24.90234375,-62.01171875,-213.8671875,0.0,0,0
1765391485.294809,1765391485.2464986,3.90625,-5.859375,42.96875,189.94140625,0.0,0,0
1765391485.294828,1765391485.2503934,20.99609375,-11.71875,54.19921875,337.890625,0.0,0,0
1765391485.294846,1765391485.2542884,-33.203125,-36.62109375,-89.35546875,-43.45703125,0.0,0,0
1765391485.294863,1765391485.2581835,-101.07421875,-49.8046875,-158.69140625,-369.140625,0.0,0,0
1765391485.294881,1765391485.2620783,-98.6328125,-29.78515625,-56.15234375,-268.5546875,0.0,0,0
1765391485.294899,1765391485.2659733,-21.484375,-15.625,46.875,140.13671875,0.0,0,0
1765391485.338431,1765391485.2700007,17.578125,-19.04296875,17.08984375,338.8671875,0.0,0,0
1765391485.338509,1765391485.2738955,-47.8515625,-42.48046875,-116.2109375,8.7890625,0.0,0,0
1765391485.3385348,1765391485.2777905,-117.1875,-48.828125,-150.87890625,-343.26171875,0.0,0,0
1765391485.338558,1765391485.2816856,-110.3515625,-34.66796875,-74.21875,-317.3828125,0.0,0,0
1765391485.338589,1765391485.2855804,-34.66796875,-13.18359375,22.94921875,95.703125,0.0,0,0
1765391485.33861,1765391485.2894754,7.8125,-4.39453125,29.296875,346.6796875,0.0,0,0
1765391485.338631,1765391485.2933705,-36.1328125,-40.52734375,-77.1484375,62.98828125,0.0,0,0
1765391485.338652,1765391485.2972653,-106.93359375,-52.24609375,-116.69921875,-314.453125,0.0,0,0
1765391485.3386729,1765391485.3011603,-120.1171875,-25.390625,-98.14453125,-348.14453125,0.0,0,0
1765391485.3386939,1765391485.3050554,-50.29296875,-12.6953125,-23.4375,47.36328125,0.0,0,0
1765391485.3387141,1765391485.3089502,-0.48828125,-11.71875,21.484375,317.87109375,0.0,0,0
1765391485.338735,1765391485.3128452,-38.0859375,-27.83203125,-54.19921875,102.5390625,0.0,0,0
1765391485.397867,1765391485.3169472,-106.4453125,-50.78125,-110.83984375,-291.9921875,0.0,0,0
1765391485.397942,1765391485.3208423,-118.65234375,-47.8515625,-90.8203125,-378.41796875,0.0,0,0
1765391485.3979762,1765391485.3247373,-53.22265625,-29.296875,-9.27734375,5.37109375,0.0,0,0
1765391485.398008,1765391485.3286324,0.0,-24.90234375,7.32421875,295.41015625,0.0,0,0
1765391485.39804,1765391485.3325272,-10.7421875,-34.1796875,-78.125,161.1328125,0.0,0,0
1765391485.398072,1765391485.3364222,-82.03125,-41.015625,-160.15625,-249.51171875,0.0,0,0
1765391485.3981051,1765391485.3403172,-119.140625,-36.1328125,-137.6953125,-392.08984375,0.0,0,0
1765391485.3981388,1765391485.3442123,-50.78125,-11.71875,-15.625,-22.4609375,0.0,0,0
1765391485.398171,1765391485.3481073,8.7890625,-2.44140625,32.71484375,282.2265625,0.0,0,0
1765391485.3982038,1765391485.3520021,-1.953125,-18.5546875,7.8125,227.05078125,0.0,0,0
1765391485.398251,1765391485.3558972,-68.359375,-35.64453125,-62.98828125,-177.734375,0.0,0,0
1765391485.398286,1765391485.3597922,-104.98046875,-38.57421875,-75.68359375,-393.06640625,0.0,0,0
1765391485.428394,1765391485.3637917,-41.50390625,-24.90234375,0.0,-79.1015625,0.0,0,0
1765391485.428504,1765391485.3676867,32.2265625,-5.859375,48.828125,258.7890625,0.0,0,0
1765391485.428545,1765391485.3715818,36.62109375,-19.53125,30.76171875,265.625,0.0,0,0
1765391485.428579,1765391485.3754766,-27.34375,-49.31640625,-103.02734375,-154.296875,0.0,0,0
1765391485.428612,1765391485.3793716,-72.75390625,-45.8984375,-163.0859375,-421.38671875,0.0,0,0
1765391485.4286442,1765391485.3832667,-37.59765625,-19.04296875,-55.17578125,-147.4609375,0.0,0,0
1765391485.428679,1765391485.3871617,26.85546875,-1.953125,53.22265625,227.5390625,0.0,0,0
1765391485.428711,1765391485.3910568,35.15625,-14.6484375,28.3203125,290.0390625,0.0,0,0
1765391485.428742,1765391485.3949518,-44.921875,-36.62109375,-108.88671875,-108.88671875,0.0,0,0
1765391485.4287739,1765391485.3988469,-96.19140625,-33.69140625,-108.3984375,-395.01953125,0.0,0,0
1765391485.4288058,1765391485.4027417,-61.03515625,-10.25390625,2.44140625,-186.5234375,0.0,0,0
1765391485.428837,1765391485.4066367,8.30078125,8.7890625,60.05859375,206.0546875,0.0,0,0
1765391485.4728692,1765391485.4106252,39.55078125,-1.953125,64.453125,329.58984375,0.0,0,0
1765391485.473088,1765391485.4145203,-21.97265625,-35.15625,-31.25,-45.8984375,0.0,0,0
1765391485.4732668,1765391485.4184153,-83.0078125,-42.96875,-109.375,-361.328125,0.0,0,0
1765391485.4733179,1765391485.42231,-56.15234375,-25.390625,-48.828125,-235.3515625,0.0,0,0
1765391485.4734368,1765391485.4262052,18.5546875,-8.7890625,82.03125,174.8046875,0.0,0,0
1765391485.473709,1765391485.4301002,52.24609375,-11.23046875,110.83984375,354.4921875,0.0,0,0
1765391485.473759,1765391485.4339952,6.34765625,-19.04296875,-22.94921875,3.41796875,0.0,0,0
1765391485.473805,1765391485.4378903,-53.22265625,-23.92578125,-133.30078125,-341.30859375,0.0,0,0
1765391485.473849,1765391485.4417853,-41.9921875,-18.06640625,-88.8671875,-291.9921875,0.0,0,0
1765391485.4738922,1765391485.4456804,35.15625,2.9296875,36.62109375,128.41796875,0.0,0,0
1765391485.473931,1765391485.4495754,73.2421875,-3.41796875,64.94140625,364.74609375,0.0,0,0
1765391485.473971,1765391485.4534705,20.99609375,-33.203125,-32.71484375,68.359375,0.0,0,0
1765391485.5313,1765391485.457449,-49.31640625,-49.8046875,-78.125,-293.45703125,0.0,0,0
1765391485.531472,1765391485.461344,-54.6875,-42.48046875,-24.4140625,-309.5703125,0.0,0,0
1765391485.531541,1765391485.465239,22.4609375,-22.4609375,85.44921875,95.21484375,0.0,0,0
1765391485.531602,1765391485.469134,83.49609375,-12.6953125,104.4921875,360.3515625,0.0,0,0
1765391485.531668,1765391485.4730291,39.55078125,-28.3203125,-32.71484375,115.234375,0.0,0,0
1765391485.531731,1765391485.4769242,-43.9453125,-44.921875,-133.30078125,-281.73828125,0.0,0,0
1765391485.5318232,1765391485.4808192,-60.546875,-29.78515625,-117.67578125,-353.515625,0.0,0,0
1765391485.5319061,1765391485.484714,-0.48828125,-3.90625,-16.11328125,32.2265625,0.0,0,0
1765391485.531998,1765391485.488609,49.31640625,-10.25390625,29.296875,314.94140625,0.0,0,0
1765391485.5320928,1765391485.4925041,29.78515625,-38.0859375,-52.734375,164.55078125,0.0,0,0
1765391485.5321789,1765391485.4963992,-48.828125,-38.0859375,-140.625,-235.3515625,0.0,0,0
1765391485.532247,1765391485.5002942,-57.12890625,-38.57421875,-111.328125,-368.1640625,0.0,0,0
1765391485.577566,1765391485.504261,-4.8828125,-21.484375,28.80859375,-3.90625,0.0,0,0
1765391485.5776992,1765391485.508156,28.80859375,-6.8359375,90.8203125,303.22265625,0.0,0,0
1765391485.577746,1765391485.512051,34.66796875,-26.85546875,18.5546875,228.515625,0.0,0,0
1765391485.577791,1765391485.5159461,-37.109375,-52.24609375,-118.1640625,-187.98828125,0.0,0,0
1765391485.577833,1765391485.5198412,-88.37890625,-54.6875,-135.7421875,-395.5078125,0.0,0,0
1765391485.577875,1765391485.5237362,-33.203125,-22.4609375,20.99609375,-65.4296875,0.0,0,0
1765391485.577916,1765391485.5276313,19.04296875,-10.7421875,90.8203125,257.8125,0.0,0,0
1765391485.5779588,1765391485.5315263,-0.48828125,-37.109375,2.44140625,240.72265625,0.0,0,0
1765391485.5780082,1765391485.5354214,-54.6875,-46.38671875,-140.13671875,-161.62109375,0.0,0,0
1765391485.578049,1765391485.5393164,-107.421875,-45.41015625,-147.94921875,-413.0859375,0.0,0,0
1765391485.57809,1765391485.5432115,-84.47265625,-31.25,1.953125,-136.23046875,0.0,0,0
1765391485.5781288,1765391485.5471065,-14.6484375,-22.4609375,84.47265625,227.05078125,0.0,0,0
1765391485.6229298,1765391485.5511487,-7.8125,-32.71484375,69.3359375,280.76171875,0.0,0,0
1765391485.623111,1765391485.5550437,-91.30859375,-44.921875,-57.12890625,-122.55859375,0.0,0,0
1765391485.623164,1765391485.5589387,-145.5078125,-47.36328125,-138.671875,-404.78515625,0.0,0,0
1765391485.623208,1765391485.5628338,-109.86328125,-34.1796875,-23.4375,-189.453125,0.0,0,0
1765391485.623251,1765391485.5667288,-37.109375,-22.4609375,83.0078125,199.21875,0.0,0,0
1765391485.623292,1765391485.5706239,-18.06640625,-25.87890625,36.1328125,310.546875,0.0,0,0
1765391485.623332,1765391485.5745192,-83.0078125,-46.38671875,-105.46875,-72.265625,0.0,0,0
1765391485.623372,1765391485.5784142,-131.34765625,-48.828125,-115.234375,-380.859375,0.0,0,0
1765391485.623411,1765391485.5823092,-106.4453125,-29.78515625,0.9765625,-240.72265625,0.0,0,0
1765391485.623452,1765391485.5862043,-27.83203125,-17.08984375,95.21484375,163.57421875,0.0,0,0
1765391485.623492,1765391485.5900993,1.46484375,-21.97265625,93.26171875,326.66015625,0.0,0,0
1765391485.623531,1765391485.5939944,-54.6875,-46.38671875,-37.59765625,-29.296875,0.0,0,0
1765391485.698742,1765391485.598195,-112.79296875,-49.31640625,-92.28515625,-358.88671875,0.0,0,0
1765391485.6989388,1765391485.6020904,-106.4453125,-37.59765625,-17.578125,-292.48046875,0.0,0,0
1765391485.6990888,1765391485.6059854,-25.390625,-32.71484375,76.66015625,125.9765625,0.0,0,0
1765391485.69951,1765391485.6098804,-2.44140625,-22.94921875,81.0546875,344.23828125,0.0,0,0
1765391485.699614,1765391485.6137757,-54.19921875,-28.80859375,-33.203125,26.3671875,0.0,0,0
1765391485.6996758,1765391485.6176708,-94.7265625,-40.0390625,-95.21484375,-321.77734375,0.0,0,0
1765391485.699733,1765391485.6215658,-98.6328125,-34.1796875,-47.8515625,-312.98828125,0.0,0,0
1765391485.699792,1765391485.625461,-26.85546875,-20.01953125,53.22265625,89.35546875,0.0,0,0
1765391485.699898,1765391485.6293561,20.5078125,-19.04296875,82.03125,334.9609375,0.0,0,0
1765391485.6999612,1765391485.6332512,-11.23046875,-36.62109375,-12.20703125,97.65625,0.0,0,0
1765391485.699999,1765391485.6371465,-76.66015625,-36.62109375,-87.890625,-286.62109375,0.0,0,0
1765391485.700041,1765391485.6410415,-86.42578125,-27.34375,-49.31640625,-348.14453125,0.0,0,0
1765391485.712497,1765391485.6450667,-14.6484375,-9.765625,61.5234375,57.6171875,0.0,0,0
1765391485.712608,1765391485.648962,33.203125,0.9765625,100.5859375,334.47265625,0.0,0,0
1765391485.712645,1765391485.652857,1.953125,-20.5078125,14.16015625,164.0625,0.0,0,0
1765391485.712677,1765391485.6567523,-76.171875,-42.48046875,-82.51953125,-247.55859375,0.0,0,0
1765391485.7127109,1765391485.6606474,-96.6796875,-41.015625,-82.03125,-386.23046875,0.0,0,0
1765391485.712747,1765391485.6645424,-37.59765625,-20.99609375,19.04296875,-11.71875,0.0,0,0
1765391485.712779,1765391485.6684377,19.04296875,-13.18359375,75.68359375,299.31640625,0.0,0,0
1765391485.712811,1765391485.6723328,19.04296875,-23.92578125,16.11328125,203.61328125,0.0,0,0
1765391485.712843,1765391485.676228,-43.9453125,-35.64453125,-81.0546875,-213.8671875,0.0,0,0
1765391485.712876,1765391485.680123,-79.1015625,-34.66796875,-97.16796875,-402.34375,0.0,0,0
1765391485.712908,1765391485.6840184,-22.94921875,-19.04296875,14.16015625,-53.22265625,0.0,0,0
1765391485.71294,1765391485.6879134,41.50390625,-11.71875,65.91796875,277.83203125,0.0,0,0
1765391485.757225,1765391485.6919217,41.50390625,-19.04296875,-1.46484375,255.859375,0.0,0,0
1765391485.757327,1765391485.695817,-39.0625,-39.55078125,-130.859375,-166.50390625,0.0,0,0
1765391485.7573571,1765391485.699712,-93.26171875,-46.875,-165.0390625,-415.52734375,0.0,0,0
1765391485.7573838,1765391485.7036073,-53.22265625,-26.85546875,-26.85546875,-120.1171875,0.0,0,0
1765391485.7574122,1765391485.7075024,15.625,-14.16015625,68.359375,244.62890625,0.0,0,0
1765391485.757439,1765391485.7113976,33.69140625,-20.5078125,38.57421875,278.3203125,0.0,0,0
1765391485.7574651,1765391485.7152927,-41.015625,-41.015625,-73.73046875,-139.6484375,0.0,0,0
1765391485.7574909,1765391485.719188,-92.7734375,-41.015625,-139.16015625,-418.45703125,0.0,0,0
1765391485.757569,1765391485.723083,-67.87109375,-23.92578125,-74.21875,-191.89453125,0.0,0,0
1765391485.757601,1765391485.7269783,-2.9296875,-19.53125,37.109375,197.265625,0.0,0,0
1765391485.757629,1765391485.7308733,19.53125,-20.99609375,46.875,302.734375,0.0,0,0
1765391485.7576761,1765391485.7347686,-42.48046875,-36.1328125,-85.9375,-93.26171875,0.0,0,0
1765391485.833237,1765391485.7389374,-91.30859375,-48.828125,-142.08984375,-407.71484375,0.0,0,0
1765391485.833386,1765391485.7428327,-72.75390625,-37.59765625,-40.52734375,-247.0703125,0.0,0,0
1765391485.833432,1765391485.7467277,5.859375,-17.08984375,76.66015625,170.8984375,0.0,0,0
1765391485.8334742,1765391485.750623,41.9921875,-19.04296875,65.4296875,322.75390625,0.0,0,0
1765391485.8335161,1765391485.7545183,-17.578125,-38.57421875,-77.63671875,-40.52734375,0.0,0,0
1765391485.833557,1765391485.7584133,-73.73046875,-36.62109375,-130.37109375,-351.07421875,0.0,0,0
1765391485.833599,1765391485.7623086,-59.5703125,-20.5078125,-61.5234375,-259.765625,0.0,0,0
1765391485.833642,1765391485.7662039,11.23046875,13.671875,41.9921875,153.80859375,0.0,0,0
1765391485.8339,1765391485.770099,50.29296875,3.90625,65.4296875,361.81640625,0.0,0,0
1765391485.8339431,1765391485.7739942,0.0,-37.59765625,-31.25,39.55078125,0.0,0,0
1765391485.8339891,1765391485.7778895,-70.80078125,-46.875,-83.49609375,-308.10546875,0.0,0,0
1765391485.834039,1765391485.7817845,-60.546875,-39.0625,-30.76171875,-293.45703125,0.0,0,0
1765391485.8485372,1765391485.7857807,16.6015625,-17.578125,63.4765625,119.62890625,0.0,0,0
1765391485.8486688,1765391485.789676,64.94140625,-11.23046875,70.80078125,372.55859375,0.0,0,0
1765391485.848707,1765391485.793571,22.4609375,-27.34375,-27.34375,113.28125,0.0,0,0
1765391485.848741,1765391485.7974663,-56.15234375,-39.55078125,-103.02734375,-269.04296875,0.0,0,0
1765391485.848775,1765391485.8013616,-71.77734375,-33.203125,-85.9375,-327.1484375,0.0,0,0
1765391485.8488069,1765391485.8052568,-2.9296875,-7.8125,26.85546875,79.58984375,0.0,0,0
1765391485.8488388,1765391485.809152,50.29296875,-3.41796875,53.22265625,361.328125,0.0,0,0
1765391485.848871,1765391485.8130472,22.4609375,-31.73828125,-56.15234375,166.015625,0.0,0,0
1765391485.848903,1765391485.8169425,-50.29296875,-57.12890625,-141.6015625,-241.69921875,0.0,0,0
1765391485.848935,1765391485.8208377,-74.70703125,-50.29296875,-122.0703125,-361.328125,0.0,0,0
1765391485.8489668,1765391485.8247328,-5.37109375,-8.7890625,15.625,21.97265625,0.0,0,0
1765391485.848997,1765391485.828628,56.640625,2.44140625,86.9140625,325.1953125,0.0,0,0
1765391485.905685,1765391485.8326037,38.0859375,-25.87890625,13.671875,203.61328125,0.0,0,0
1765391485.905774,1765391485.8364987,-47.36328125,-51.7578125,-83.49609375,-216.796875,0.0,0,0
1765391485.905804,1765391485.840394,-81.0546875,-41.50390625,-84.47265625,-399.90234375,0.0,0,0
1765391485.9058309,1765391485.8442893,-20.01953125,-13.671875,24.4140625,-51.26953125,0.0,0,0
1765391485.905858,1765391485.8481846,45.8984375,-8.7890625,59.5703125,282.2265625,0.0,0,0
1765391485.9058838,1765391485.8520799,44.43359375,-12.20703125,2.9296875,246.58203125,0.0,0,0
1765391485.90591,1765391485.855975,-59.08203125,-26.85546875,-99.12109375,-187.01171875,0.0,0,0
1765391485.905935,1765391485.8598702,-104.98046875,-41.9921875,-125.0,-420.8984375,0.0,0,0
1765391485.9059598,1765391485.8637655,-50.29296875,-29.78515625,-19.04296875,-111.81640625,0.0,0,0
1765391485.905986,1765391485.8676608,10.25390625,-21.484375,41.50390625,233.88671875,0.0,0,0
1765391485.9060102,1765391485.871556,32.71484375,-28.80859375,5.37109375,260.7421875,0.0,0,0
1765391485.906035,1765391485.875451,-34.1796875,-50.29296875,-110.83984375,-150.87890625,0.0,0,0
1765391485.9534369,1765391485.8795006,-88.8671875,-54.19921875,-138.18359375,-425.78125,0.0,0,0
1765391485.953591,1765391485.883396,-51.7578125,-29.296875,-41.015625,-184.08203125,0.0,0,0
1765391485.953658,1765391485.8872912,35.15625,-11.71875,23.4375,198.73046875,0.0,0,0
1765391485.9537191,1765391485.8911865,52.24609375,-23.92578125,-0.48828125,283.203125,0.0,0,0
1765391485.9537861,1765391485.8950818,-28.80859375,-54.6875,-112.79296875,-107.421875,0.0,0,0
1765391485.953845,1765391485.8989768,-74.21875,-43.45703125,-142.08984375,-393.5546875,0.0,0,0
1765391485.953909,1765391485.902872,-51.26953125,-17.578125,-47.36328125,-215.33203125,0.0,0,0
1765391485.9539819,1765391485.9067674,12.20703125,-13.671875,41.50390625,185.05859375,0.0,0,0
1765391485.9540591,1765391485.9106627,45.41015625,-10.7421875,49.31640625,326.66015625,0.0,0,0
1765391485.954127,1765391485.914558,-21.97265625,-32.2265625,-52.24609375,-44.43359375,0.0,0,0
1765391485.9541829,1765391485.9184532,-83.984375,-45.8984375,-99.609375,-367.1875,0.0,0,0
1765391485.954239,1765391485.9223485,-72.265625,-39.0625,-30.76171875,-265.625,0.0,0,0
1765391485.997612,1765391485.926388,-13.18359375,-26.85546875,69.3359375,148.92578125,0.0,0,0
1765391485.997772,1765391485.9302833,18.06640625,-26.3671875,78.125,343.26171875,0.0,0,0
1765391485.9978309,1765391485.9341786,-28.3203125,-49.8046875,-39.55078125,1.46484375,0.0,0,0
1765391485.997887,1765391485.9380739,-83.49609375,-55.6640625,-98.6328125,-339.84375,0.0,0,0
1765391485.997943,1765391485.9419692,-79.1015625,-34.66796875,-50.78125,-300.29296875,0.0,0,0
1765391485.9980009,1765391485.9458644,-4.8828125,-8.7890625,45.8984375,115.72265625,0.0,0,0
1765391485.998059,1765391485.9497597,35.64453125,-12.6953125,65.91796875,357.91015625,0.0,0,0
1765391485.9981189,1765391485.953655,-5.859375,-42.48046875,-41.9921875,75.1953125,0.0,0,0
1765391485.998191,1765391485.9575503,-68.84765625,-48.828125,-117.67578125,-301.7578125,0.0,0,0
1765391485.998295,1765391485.9614456,-74.21875,-27.83203125,-84.9609375,-333.984375,0.0,0,0
1765391485.998362,1765391485.9653409,-9.27734375,-15.13671875,20.99609375,62.98828125,0.0,0,0
1765391485.998431,1765391485.9692361,28.3203125,-15.13671875,46.38671875,330.56640625,0.0,0,0
1765391486.04203,1765391485.9732633,-1.953125,-29.78515625,-45.8984375,132.32421875,0.0,0,0
1765391486.0420852,1765391485.9771585,-68.84765625,-49.31640625,-119.140625,-260.7421875,0.0,0,0
1765391486.042119,1765391485.9810538,-86.9140625,-47.36328125,-91.796875,-356.4453125,0.0,0,0
1765391486.042151,1765391485.984949,-25.87890625,-22.94921875,22.4609375,35.64453125,0.0,0,0
1765391486.042183,1765391485.9888444,28.3203125,-15.625,69.3359375,326.66015625,0.0,0,0
1765391486.0422149,1765391485.9927397,14.16015625,-27.83203125,7.8125,190.91796875,0.0,0,0
1765391486.042248,1765391485.996635,-62.5,-39.55078125,-81.0546875,-218.26171875,0.0,0,0
1765391486.04228,1765391486.0005302,-100.09765625,-44.921875,-76.66015625,-383.30078125,0.0,0,0
1765391486.0423129,1765391486.0044255,-46.875,-7.8125,36.1328125,-27.83203125,0.0,0,0
1765391486.042345,1765391486.008321,3.90625,6.8359375,71.2890625,284.1796875,0.0,0,0
1765391486.042377,1765391486.0122163,-1.46484375,-30.2734375,-1.46484375,215.8203125,0.0,0,0
1765391486.042443,1765391486.0161116,-59.5703125,-52.24609375,-110.83984375,-195.3125,0.0,0,0
1765391486.088463,1765391486.0201337,-92.7734375,-45.41015625,-107.421875,-402.83203125,0.0,0,0
1765391486.088576,1765391486.024029,-50.29296875,-24.4140625,18.5546875,-89.35546875,0.0,0,0
1765391486.088629,1765391486.0279243,16.11328125,-9.765625,83.0078125,253.90625,0.0,0,0
1765391486.088675,1765391486.0318196,27.83203125,-15.13671875,40.0390625,261.23046875,0.0,0,0
1765391486.0887198,1765391486.0357149,-48.33984375,-43.9453125,-93.75,-157.71484375,0.0,0,0
1765391486.088772,1765391486.0396104,-105.46875,-53.7109375,-140.625,-420.41015625,0.0,0,0
1765391486.088812,1765391486.0435057,-59.5703125,-36.1328125,-26.3671875,-160.64453125,0.0,0,0
1765391486.088851,1765391486.047401,15.13671875,-20.5078125,61.03515625,207.03125,0.0,0,0
1765391486.08889,1765391486.0512962,26.3671875,-11.71875,36.1328125,275.87890625,0.0,0,0
1765391486.0889301,1765391486.0551915,-40.52734375,-37.109375,-74.70703125,-120.60546875,0.0,0,0
1765391486.0889752,1765391486.0590868,-89.35546875,-51.26953125,-103.515625,-413.0859375,0.0,0,0
1765391486.089033,1765391486.0629823,-62.5,-26.85546875,-12.6953125,-219.23828125,0.0,0,0
1765391486.133128,1765391486.0669878,14.16015625,-21.484375,57.12890625,173.828125,0.0,0,0
1765391486.133227,1765391486.070883,43.45703125,-26.85546875,48.33984375,303.7109375,0.0,0,0
1765391486.133267,1765391486.0747786,-23.92578125,-43.45703125,-56.15234375,-69.3359375,0.0,0,0
1765391486.133302,1765391486.0786738,-80.56640625,-46.38671875,-97.16796875,-378.90625,0.0,0,0
1765391486.133335,1765391486.0825691,-65.4296875,-28.3203125,-30.2734375,-255.37109375,0.0,0,0
1765391486.1333718,1765391486.0864644,10.7421875,-11.71875,52.24609375,150.390625,0.0,0,0
1765391486.133405,1765391486.0903597,46.875,-16.6015625,53.22265625,335.9375,0.0,0,0
1765391486.133436,1765391486.0942552,-14.6484375,-28.80859375,-63.4765625,1.46484375,0.0,0,0
1765391486.1334689,1765391486.0981505,-76.66015625,-30.76171875,-122.55859375,-340.8203125,0.0,0,0
1765391486.133495,1765391486.1020458,-73.2421875,-29.78515625,-61.5234375,-289.55078125,0.0,0,0
1765391486.1335192,1765391486.105941,0.0,-9.765625,39.55078125,130.859375,0.0,0,0
1765391486.133544,1765391486.1098366,48.33984375,-5.859375,55.6640625,354.00390625,0.0,0,0
1765391486.177693,1765391486.1138318,6.8359375,-29.78515625,-58.59375,48.33984375,0.0,0,0
1765391486.1777852,1765391486.117727,-55.6640625,-43.9453125,-123.53515625,-324.21875,0.0,0,0
1765391486.177825,1765391486.1216226,-78.125,-34.66796875,-83.0078125,-342.7734375,0.0,0,0
1765391486.17786,1765391486.1255178,-20.5078125,-14.16015625,18.06640625,63.96484375,0.0,0,0
1765391486.1778932,1765391486.1294131,42.96875,-5.37109375,60.546875,336.42578125,0.0,0,0
1765391486.1779258,1765391486.1333086,23.4375,-19.53125,-27.83203125,106.93359375,0.0,0,0
1765391486.1779578,1765391486.137204,-42.48046875,-38.57421875,-108.3984375,-277.83203125,0.0,0,0
1765391486.177991,1765391486.1410992,-61.03515625,-37.59765625,-98.14453125,-356.4453125,0.0,0,0
1765391486.178022,1765391486.1449947,-7.32421875,-24.4140625,8.7890625,16.11328125,0.0,0,0
1765391486.1780548,1765391486.14889,30.76171875,-15.625,52.24609375,295.8984375,0.0,0,0
1765391486.178087,1765391486.1527853,13.671875,-26.85546875,-28.3203125,147.94921875,0.0,0,0
1765391486.178118,1765391486.1566806,-43.45703125,-44.921875,-115.234375,-271.484375,0.0,0,0
1765391486.222112,1765391486.1606696,-76.66015625,-35.64453125,-114.74609375,-413.57421875,0.0,0,0
1765391486.222178,1765391486.164565,-17.08984375,-24.4140625,-1.46484375,-22.94921875,0.0,0,0
1765391486.2222028,1765391486.1684604,38.57421875,-11.71875,59.08203125,281.25,0.0,0,0
1765391486.222225,1765391486.172356,23.92578125,-22.4609375,12.6953125,197.75390625,0.0,0,0
1765391486.222246,1765391486.1762512,-55.6640625,-42.48046875,-95.21484375,-209.9609375,0.0,0,0
1765391486.22227,1765391486.1801465,-103.515625,-39.0625,-128.90625,-411.62109375,0.0,0,0
1765391486.222291,1765391486.184042,-59.5703125,-16.11328125,-20.99609375,-71.77734375,0.0,0,0
1765391486.222313,1765391486.1879373,-5.859375,-11.23046875,37.59765625,268.5546875,0.0,0,0
1765391486.222334,1765391486.1918325,-7.8125,-33.69140625,-6.34765625,255.859375,0.0,0,0
1765391486.2224,1765391486.195728,-81.0546875,-44.921875,-106.4453125,-162.109375,0.0,0,0
1765391486.222452,1765391486.1996233,-114.74609375,-43.9453125,-122.0703125,-413.0859375,0.0,0,0
1765391486.2224782,1765391486.2035189,-61.03515625,-29.296875,-30.76171875,-124.51171875,0.0,0,0
1765391486.29715,1765391486.2076583,5.859375,-14.16015625,3.41796875,242.1875,0.0,0,0
1765391486.29722,1765391486.2115538,23.92578125,-16.11328125,-50.29296875,282.2265625,0.0,0,0
1765391486.2972422,1765391486.215449,-45.8984375,-38.57421875,-131.34765625,-125.9765625,0.0,0,0
1765391486.2972622,1765391486.2193446,-96.6796875,-54.19921875,-121.58203125,-400.87890625,0.0,0,0
1765391486.297282,1765391486.22324,-65.91796875,-31.73828125,-30.76171875,-188.96484375,0.0,0,0
1765391486.297301,1765391486.2271354,-13.671875,-3.90625,55.17578125,198.73046875,0.0,0,0
1765391486.297322,1765391486.2310307,2.44140625,-4.39453125,24.4140625,317.87109375,0.0,0,0
1765391486.2973409,1765391486.2349262,-57.12890625,-39.55078125,-136.71875,-69.3359375,0.0,0,0
1765391486.297359,1765391486.2388215,-109.86328125,-48.828125,-203.125,-394.53125,0.0,0,0
1765391486.297377,1765391486.242717,-80.56640625,-31.25,-116.2109375,-260.25390625,0.0,0,0
1765391486.297395,1765391486.2466123,1.46484375,-6.8359375,8.30078125,159.1796875,0.0,0,0
1765391486.2974122,1765391486.2505078,36.62109375,0.48828125,33.69140625,340.33203125,0.0,0,0
1765391486.3262231,1765391486.254474,-28.3203125,-27.34375,-75.1953125,-19.53125,0.0,0,0
1765391486.326268,1765391486.2583694,-84.9609375,-36.62109375,-107.91015625,-353.02734375,0.0,0,0
1765391486.326293,1765391486.262265,-72.265625,-32.2265625,-40.52734375,-288.57421875,0.0,0,0
1765391486.326314,1765391486.2661602,-12.20703125,-19.53125,52.24609375,112.79296875,0.0,0,0
1765391486.326335,1765391486.2700558,23.92578125,-16.11328125,70.3125,332.51953125,0.0,0,0
1765391486.326355,1765391486.273951,-25.390625,-34.66796875,-37.59765625,26.85546875,0.0,0,0
1765391486.326376,1765391486.2778466,-103.515625,-40.0390625,-107.91015625,-336.9140625,0.0,0,0
1765391486.326397,1765391486.2817419,-109.86328125,-32.2265625,-70.80078125,-338.8671875,0.0,0,0
1765391486.326417,1765391486.2856374,-40.0390625,-18.5546875,47.36328125,77.1484375,0.0,0,0
1765391486.326438,1765391486.289533,4.39453125,-15.13671875,71.2890625,333.0078125,0.0,0,0
1765391486.326464,1765391486.2934282,-27.34375,-34.66796875,-41.9921875,91.30859375,0.0,0,0
1765391486.326485,1765391486.2973237,-94.7265625,-53.7109375,-132.32421875,-286.62109375,0.0,0,0
1765391486.372206,1765391486.301363,-113.28125,-48.828125,-127.44140625,-365.72265625,0.0,0,0
1765391486.3722591,1765391486.3052585,-47.36328125,-17.578125,-12.6953125,20.99609375,0.0,0,0
1765391486.372285,1765391486.309154,4.39453125,-7.32421875,35.15625,311.5234375,0.0,0,0
1765391486.37231,1765391486.3130493,-18.5546875,-31.25,-50.78125,142.578125,0.0,0,0
1765391486.3723352,1765391486.3169448,-90.8203125,-56.640625,-129.39453125,-261.23046875,0.0,0,0
1765391486.3723829,1765391486.3208404,-122.55859375,-48.33984375,-92.7734375,-382.8125,0.0,0,0
1765391486.372416,1765391486.3247356,-64.453125,-23.4375,30.2734375,-10.25390625,0.0,0,0
1765391486.372573,1765391486.3286312,-4.8828125,-21.484375,62.5,288.0859375,0.0,0,0
1765391486.372649,1765391486.3325267,-6.8359375,-37.109375,-1.46484375,195.80078125,0.0,0,0
1765391486.372681,1765391486.336422,-76.66015625,-54.6875,-97.16796875,-224.609375,0.0,0,0
1765391486.372708,1765391486.3403175,-109.375,-51.26953125,-109.375,-406.25,0.0,0,0
1765391486.3727329,1765391486.344213,-51.7578125,-26.3671875,-0.48828125,-51.7578125,0.0,0,0
1765391486.419116,1765391486.3482473,2.9296875,-11.71875,50.29296875,268.5546875,0.0,0,0
1765391486.419274,1765391486.3521428,3.41796875,-21.97265625,-8.30078125,247.55859375,0.0,0,0
1765391486.419296,1765391486.3560383,-67.87109375,-45.41015625,-139.16015625,-166.9921875,0.0,0,0
1765391486.419313,1765391486.3599339,-113.76953125,-46.38671875,-168.45703125,-410.64453125,0.0,0,0
1765391486.4193301,1765391486.3638291,-59.5703125,-24.4140625,-52.734375,-108.88671875,0.0,0,0
1765391486.4193459,1765391486.3677247,4.8828125,-15.625,12.20703125,249.51171875,0.0,0,0
1765391486.4193652,1765391486.3716202,3.90625,-26.3671875,-27.83203125,286.62109375,0.0,0,0
1765391486.419381,1765391486.3755157,-61.03515625,-53.7109375,-152.34375,-121.58203125,0.0,0,0
1765391486.4193962,1765391486.379411,-103.515625,-49.8046875,-176.7578125,-398.4375,0.0,0,0
1765391486.419411,1765391486.3833065,-64.453125,-16.11328125,-54.6875,-157.71484375,0.0,0,0
1765391486.419426,1765391486.387202,15.625,-12.20703125,30.2734375,229.4921875,0.0,0,0
1765391486.419442,1765391486.3910975,35.15625,-13.671875,10.25390625,328.61328125,0.0,0,0
1765391486.4617522,1765391486.3951166,-32.71484375,-27.83203125,-110.83984375,-62.01171875,0.0,0,0
1765391486.4618099,1765391486.399012,-85.9375,-38.0859375,-153.80859375,-370.60546875,0.0,0,0
1765391486.46183,1765391486.4029076,-65.4296875,-21.484375,-52.734375,-215.33203125,0.0,0,0
1765391486.461846,1765391486.406803,13.671875,0.48828125,52.24609375,191.89453125,0.0,0,0
1765391486.4618618,1765391486.4106984,41.50390625,-1.953125,37.59765625,341.30859375,0.0,0,0
1765391486.46188,1765391486.414594,-34.1796875,-28.3203125,-98.14453125,-21.97265625,0.0,0,0
1765391486.461895,1765391486.4184895,-100.5859375,-41.015625,-146.97265625,-351.5625,0.0,0,0
1765391486.46191,1765391486.422385,-75.68359375,-30.76171875,-71.2890625,-274.4140625,0.0,0,0
1765391486.461925,1765391486.4262805,12.20703125,1.953125,54.6875,153.80859375,0.0,0,0
1765391486.461941,1765391486.430176,51.26953125,-3.41796875,101.07421875,365.234375,0.0,0,0
1765391486.461956,1765391486.4340713,-2.44140625,-39.55078125,1.46484375,41.9921875,0.0,0,0
1765391486.461971,1765391486.4379668,-63.96484375,-42.96875,-64.453125,-307.6171875,0.0,0,0
1765391486.506891,1765391486.4419744,-68.84765625,-23.4375,-32.71484375,-293.45703125,0.0,0,0
1765391486.506953,1765391486.44587,-0.48828125,-3.90625,69.3359375,120.1171875,0.0,0,0
1765391486.506979,1765391486.4497654,47.36328125,-4.39453125,97.65625,371.58203125,0.0,0,0
1765391486.507002,1765391486.453661,0.0,-33.203125,-16.6015625,107.421875,0.0,0,0
1765391486.507147,1765391486.4575565,-71.2890625,-49.8046875,-102.5390625,-275.390625,0.0,0,0
1765391486.5071712,1765391486.4614518,-79.1015625,-37.109375,-74.70703125,-326.171875,0.0,0,0
1765391486.5071921,1765391486.4653473,-5.37109375,-17.578125,36.62109375,77.1484375,0.0,0,0
1765391486.507213,1765391486.4692428,42.96875,0.9765625,67.3828125,351.07421875,0.0,0,0
1765391486.5072331,1765391486.4731383,11.71875,-15.13671875,-28.80859375,154.296875,0.0,0,0
1765391486.5072541,1765391486.4770339,-56.640625,-53.22265625,-115.72265625,-249.0234375,0.0,0,0
1765391486.507274,1765391486.4809294,-81.54296875,-47.8515625,-94.23828125,-373.046875,0.0,0,0
1765391486.507295,1765391486.484825,-23.92578125,-27.34375,16.6015625,-0.48828125,0.0,0,0
1765391486.5547469,1765391486.4888225,31.73828125,-11.23046875,62.01171875,304.19921875,0.0,0,0
1765391486.554825,1765391486.492718,17.08984375,-24.90234375,-13.18359375,187.01171875,0.0,0,0
1765391486.554859,1765391486.4966135,-52.24609375,-47.8515625,-105.46875,-227.5390625,0.0,0,0
1765391486.5548859,1765391486.500509,-88.8671875,-38.0859375,-95.21484375,-396.97265625,0.0,0,0
1765391486.554913,1765391486.5044045,-35.15625,-17.578125,14.16015625,-47.8515625,0.0,0,0
1765391486.5549388,1765391486.5083,30.76171875,-9.765625,59.5703125,281.73828125,0.0,0,0
1765391486.554973,1765391486.5121956,36.1328125,-21.484375,10.25390625,248.53515625,0.0,0,0
1765391486.555001,1765391486.516091,-30.76171875,-40.52734375,-96.19140625,-172.8515625,0.0,0,0
1765391486.5550258,1765391486.5199866,-71.77734375,-44.43359375,-121.58203125,-405.76171875,0.0,0,0
1765391486.5550568,1765391486.5238822,-27.34375,-25.390625,11.71875,-91.30859375,0.0,0,0
1765391486.555082,1765391486.5277777,20.99609375,-20.99609375,95.703125,261.71875,0.0,0,0
1765391486.555107,1765391486.5316732,25.87890625,-39.55078125,53.7109375,274.90234375,0.0,0,0
1765391486.597196,1765391486.5356572,-42.48046875,-56.640625,-50.29296875,-146.97265625,0.0,0,0
1765391486.5973198,1765391486.5395527,-97.16796875,-53.7109375,-69.3359375,-425.29296875,0.0,0,0
1765391486.597356,1765391486.5434482,-59.08203125,-30.2734375,32.71484375,-175.78125,0.0,0,0
1765391486.597388,1765391486.5473437,4.8828125,-17.08984375,90.8203125,204.1015625,0.0,0,0
1765391486.59742,1765391486.5512393,25.87890625,-20.01953125,48.33984375,284.1796875,0.0,0,0
1765391486.597453,1765391486.5551348,-33.69140625,-43.9453125,-63.4765625,-98.14453125,0.0,0,0
1765391486.5974882,1765391486.5590303,-84.9609375,-39.0625,-104.98046875,-386.23046875,0.0,0,0
1765391486.5975192,1765391486.5629258,-55.6640625,-13.18359375,-29.78515625,-214.35546875,0.0,0,0
1765391486.597555,1765391486.5668213,22.94921875,-21.484375,61.03515625,186.03515625,0.0,0,0
1765391486.597586,1765391486.5707169,51.7578125,-24.4140625,58.59375,333.0078125,0.0,0,0
1765391486.597619,1765391486.5746124,-14.16015625,-42.96875,-64.94140625,-37.109375,0.0,0,0
1765391486.597674,1765391486.578508,-66.40625,-52.24609375,-110.3515625,-366.69921875,0.0,0,0
1765391486.656048,1765391486.582483,-48.33984375,-34.66796875,-30.2734375,-264.16015625,0.0,0,0
1765391486.656256,1765391486.5863786,20.5078125,-10.7421875,71.2890625,161.62109375,0.0,0,0
1765391486.6563241,1765391486.590274,56.15234375,-8.7890625,78.125,365.234375,0.0,0,0
1765391486.6563818,1765391486.5941696,6.8359375,-30.76171875,-34.66796875,19.04296875,0.0,0,0
1765391486.656438,1765391486.5980651,-58.10546875,-40.0390625,-86.9140625,-332.03125,0.0,0,0
1765391486.6564941,1765391486.6019607,-58.10546875,-24.90234375,-31.73828125,-295.8984375,0.0,0,0
1765391486.65655,1765391486.6058562,11.23046875,12.6953125,63.4765625,123.046875,0.0,0,0
1765391486.656606,1765391486.6097517,44.921875,7.32421875,67.87109375,358.88671875,0.0,0,0
1765391486.65666,1765391486.6136475,1.46484375,-32.71484375,-47.36328125,70.80078125,0.0,0,0
1765391486.656715,1765391486.617543,-54.19921875,-44.43359375,-117.1875,-296.875,0.0,0,0
1765391486.656768,1765391486.6214385,-54.19921875,-33.203125,-81.54296875,-333.984375,0.0,0,0
1765391486.656822,1765391486.625334,30.2734375,-8.7890625,28.80859375,68.359375,0.0,0,0
1765391486.702334,1765391486.6292968,74.70703125,-12.6953125,63.4765625,342.7734375,0.0,0,0
1765391486.7024682,1765391486.6331923,30.76171875,-34.1796875,-29.78515625,131.34765625,0.0,0,0
1765391486.702511,1765391486.637088,-45.41015625,-47.36328125,-114.74609375,-266.11328125,0.0,0,0
1765391486.702539,1765391486.6409836,-67.3828125,-51.26953125,-104.98046875,-368.1640625,0.0,0,0
1765391486.702566,1765391486.644879,8.30078125,-24.90234375,18.06640625,22.4609375,0.0,0,0
1765391486.702594,1765391486.6487746,63.96484375,0.48828125,59.5703125,314.94140625,0.0,0,0
1765391486.702633,1765391486.6526701,41.9921875,-13.671875,-27.83203125,180.17578125,0.0,0,0
1765391486.7026591,1765391486.6565657,-30.76171875,-51.26953125,-122.0703125,-230.46875,0.0,0,0
1765391486.7026849,1765391486.6604612,-66.40625,-51.7578125,-117.1875,-392.08984375,0.0,0,0
1765391486.702715,1765391486.6643567,-10.7421875,-17.578125,-5.859375,-34.66796875,0.0,0,0
1765391486.702742,1765391486.6682525,49.8046875,-12.20703125,50.29296875,281.25,0.0,0,0
1765391486.702771,1765391486.672148,51.7578125,-27.83203125,8.30078125,234.375,0.0,0,0
1765391486.7467961,1765391486.6761808,-15.625,-45.8984375,-87.890625,-184.08203125,0.0,0,0
1765391486.7468429,1765391486.6800764,-55.17578125,-55.6640625,-90.33203125,-406.73828125,0.0,0,0
1765391486.74686,1765391486.683972,-0.9765625,-23.4375,20.01953125,-75.68359375,0.0,0,0
1765391486.746877,1765391486.6878674,65.4296875,-9.27734375,63.96484375,267.578125,0.0,0,0
1765391486.746932,1765391486.691763,75.1953125,-19.04296875,24.4140625,272.4609375,0.0,0,0
1765391486.7469509,1765391486.6956587,1.953125,-26.85546875,-82.03125,-130.37109375,0.0,0,0
1765391486.746968,1765391486.6995542,-42.48046875,-33.203125,-114.2578125,-384.765625,0.0,0,0
1765391486.746984,1765391486.7034497,0.0,-14.16015625,-9.27734375,-117.67578125,0.0,0,0
1765391486.746999,1765391486.7073452,65.4296875,-0.48828125,55.17578125,251.46484375,0.0,0,0
1765391486.747015,1765391486.711241,88.37890625,-1.46484375,29.296875,313.4765625,0.0,0,0
1765391486.74703,1765391486.7151365,18.06640625,-23.4375,-90.8203125,-83.0078125,0.0,0,0
1765391486.747046,1765391486.719032,-38.57421875,-37.59765625,-136.71875,-376.46484375,0.0,0,0
1765391486.792328,1765391486.7230544,-13.18359375,-20.01953125,-46.875,-191.89453125,0.0,0,0
1765391486.792398,1765391486.72695,52.24609375,1.46484375,45.41015625,209.47265625,0.0,0,0
1765391486.7924109,1765391486.7308457,83.0078125,-10.7421875,40.0390625,339.84375,0.0,0,0
1765391486.7924218,1765391486.7347412,20.5078125,-42.48046875,-75.1953125,-38.57421875,0.0,0,0
1765391486.7924328,1765391486.7386367,-47.36328125,-44.921875,-103.02734375,-352.5390625,0.0,0,0
1765391486.792474,1765391486.7425323,-41.015625,-27.34375,-26.85546875,-244.140625,0.0,0,0
1765391486.792486,1765391486.746428,36.62109375,-12.6953125,64.453125,164.55078125,0.0,0,0
1765391486.792535,1765391486.7503235,74.70703125,-19.04296875,76.66015625,354.98046875,0.0,0,0
1765391486.792593,1765391486.754219,6.8359375,-34.1796875,-32.71484375,9.765625,0.0,0,0
1765391486.7926269,1765391486.7581148,-63.96484375,-39.0625,-87.40234375,-335.9375,0.0,0,0
1765391486.79264,1765391486.7620103,-64.453125,-36.1328125,-32.2265625,-288.57421875,0.0,0,0
1765391486.792651,1765391486.7659059,8.30078125,-17.578125,64.94140625,118.65234375,0.0,0,0
1765391486.83727,1765391486.7699227,57.6171875,-17.578125,79.58984375,339.35546875,0.0,0,0
1765391486.837568,1765391486.7738183,13.671875,-39.55078125,-23.4375,60.546875,0.0,0,0
1765391486.83758,1765391486.777714,-65.91796875,-47.8515625,-82.03125,-306.640625,0.0,0,0
1765391486.8375921,1765391486.7816095,-71.77734375,-39.55078125,-44.43359375,-329.1015625,0.0,0,0
1765391486.8376021,1765391486.785505,1.953125,-20.01953125,61.03515625,77.1484375,0.0,0,0
1765391486.837611,1765391486.7894008,48.33984375,-9.27734375,99.609375,342.7734375,0.0,0,0
1765391486.83762,1765391486.7932963,15.625,-37.109375,0.48828125,121.58203125,0.0,0,0
1765391486.8376288,1765391486.797192,-56.15234375,-57.12890625,-90.8203125,-274.4140625,0.0,0,0
1765391486.837685,1765391486.8010876,-80.56640625,-32.2265625,-75.1953125,-364.2578125,0.0,0,0
1765391486.837695,1765391486.8049831,-17.578125,-10.7421875,26.85546875,36.1328125,0.0,0,0
1765391486.837704,1765391486.808879,36.1328125,-10.7421875,63.4765625,330.56640625,0.0,0,0
1765391486.8377118,1765391486.8127744,17.578125,-26.85546875,-10.25390625,181.640625,0.0,0,0
1765391486.896783,1765391486.8168633,-60.546875,-51.7578125,-91.30859375,-230.95703125,0.0,0,0
1765391486.896821,1765391486.820759,-90.8203125,-42.96875,-82.03125,-384.27734375,0.0,0,0
1765391486.8968372,1765391486.8246546,-22.94921875,-17.08984375,15.625,-19.53125,0.0,0,0
1765391486.896849,1765391486.8285503,35.15625,-15.625,41.015625,288.57421875,0.0,0,0
1765391486.896862,1765391486.8324459,21.484375,-36.62109375,-34.66796875,216.30859375,0.0,0,0
1765391486.896874,1765391486.8363416,-50.78125,-52.24609375,-142.08984375,-201.66015625,0.0,0,0
1765391486.896886,1765391486.8402371,-92.28515625,-49.8046875,-150.390625,-401.85546875,0.0,0,0
1765391486.896898,1765391486.844133,-41.50390625,-20.5078125,-16.11328125,-69.82421875,0.0,0,0
1765391486.8969119,1765391486.8480284,28.80859375,-3.90625,60.05859375,255.37109375,0.0,0,0
1765391486.896925,1765391486.8519242,41.9921875,-28.80859375,28.3203125,251.46484375,0.0,0,0
1765391486.896937,1765391486.8558197,-29.78515625,-52.734375,-65.91796875,-154.78515625,0.0,0,0
1765391486.896949,1765391486.8597155,-93.75,-58.10546875,-106.93359375,-422.36328125,0.0,0,0
1765391486.926985,1765391486.8637066,-76.66015625,-34.66796875,-15.625,-159.66796875,0.0,0,0
1765391486.9270191,1765391486.8676023,-17.578125,-19.04296875,60.546875,218.26171875,0.0,0,0
1765391486.9270358,1765391486.8714979,0.9765625,-31.73828125,25.390625,288.0859375,0.0,0,0
1765391486.927053,1765391486.8753936,-79.1015625,-48.33984375,-89.35546875,-118.1640625,0.0,0,0
1765391486.927069,1765391486.8792892,-135.7421875,-48.33984375,-115.234375,-397.94921875,0.0,0,0
1765391486.927084,1765391486.883185,-109.86328125,-36.62109375,-23.92578125,-184.08203125,0.0,0,0
1765391486.927101,1765391486.8870807,-44.43359375,-28.3203125,51.26953125,206.0546875,0.0,0,0
1765391486.927117,1765391486.8909762,-20.01953125,-30.2734375,14.16015625,316.89453125,0.0,0,0
1765391486.927132,1765391486.894872,-82.03125,-49.31640625,-105.95703125,-79.58984375,0.0,0,0
1765391486.927147,1765391486.8987675,-141.6015625,-53.7109375,-140.13671875,-407.2265625,0.0,0,0
1765391486.927165,1765391486.9026632,-118.1640625,-29.296875,-60.05859375,-273.4375,0.0,0,0
1765391486.927201,1765391486.9065588,-42.96875,-7.8125,39.0625,142.08984375,0.0,0,0
1765391486.9719071,1765391486.9105403,-13.671875,-20.5078125,52.734375,323.73046875,0.0,0,0
1765391486.971949,1765391486.914436,-55.6640625,-46.875,-65.4296875,-23.92578125,0.0,0,0
1765391486.9719691,1765391486.9183319,-104.4921875,-56.15234375,-118.65234375,-367.1875,0.0,0,0
1765391486.971987,1765391486.9222274,-103.02734375,-42.96875,-57.6171875,-312.01171875,0.0,0,0
1765391486.9720051,1765391486.9261231,-20.99609375,-18.5546875,40.52734375,107.421875,0.0,0,0
1765391486.972023,1765391486.9300187,18.06640625,-12.6953125,65.4296875,326.171875,0.0,0,0
1765391486.972042,1765391486.9339144,-52.734375,-23.4375,-38.57421875,24.90234375,0.0,0,0
1765391486.9720588,1765391486.9378102,-110.83984375,-38.57421875,-112.79296875,-326.66015625,0.0,0,0
1765391486.9720771,1765391486.9417057,-115.72265625,-45.41015625,-81.0546875,-345.703125,0.0,0,0
1765391486.972095,1765391486.9456015,-43.45703125,-20.01953125,27.34375,68.84765625,0.0,0,0
1765391486.972112,1765391486.9494972,22.94921875,-8.7890625,55.6640625,334.9609375,0.0,0,0
1765391486.972158,1765391486.9533927,-23.4375,-26.85546875,-47.36328125,87.40234375,0.0,0,0
1765391487.035249,1765391486.957364,-101.07421875,-49.31640625,-120.1171875,-303.7109375,0.0,0,0
1765391487.035327,1765391486.9612598,-112.79296875,-38.57421875,-86.42578125,-369.140625,0.0,0,0
1765391487.035352,1765391486.9651554,-45.41015625,-8.30078125,23.4375,31.25,0.0,0,0
1765391487.035376,1765391486.9690511,13.18359375,-12.6953125,45.8984375,312.98828125,0.0,0,0
1765391487.035398,1765391486.972947,-2.44140625,-30.76171875,-42.96875,157.2265625,0.0,0,0
1765391487.035419,1765391486.9768424,-73.2421875,-40.0390625,-121.09375,-233.88671875,0.0,0,0
1765391487.0354402,1765391486.9807382,-101.07421875,-22.4609375,-103.02734375,-373.046875,0.0,0,0
1765391487.035462,1765391486.984634,-47.8515625,-11.23046875,7.8125,-12.20703125,0.0,0,0
1765391487.035489,1765391486.9885294,13.671875,-23.4375,53.22265625,300.29296875,0.0,0,0
1765391487.03551,1765391486.9924252,12.6953125,-28.3203125,9.27734375,207.51953125,0.0,0,0
1765391487.03553,1765391486.996321,-67.87109375,-42.96875,-73.73046875,-220.21484375,0.0,0,0
1765391487.035551,1765391487.0002165,-123.046875,-50.29296875,-89.84375,-416.9921875,0.0,0,0
1765391487.07735,1765391487.0041778,-69.3359375,-27.34375,13.671875,-66.40625,0.0,0,0
1765391487.077429,1765391487.0080736,-6.34765625,-17.578125,54.19921875,263.671875,0.0,0,0
1765391487.077457,1765391487.011969,-12.6953125,-35.15625,3.41796875,240.72265625,0.0,0,0
1765391487.077483,1765391487.0158648,-83.984375,-55.17578125,-105.46875,-169.921875,0.0,0,0
1765391487.0775082,1765391487.0197606,-116.2109375,-53.7109375,-117.1875,-417.96875,0.0,0,0
1765391487.0775318,1765391487.0236564,-60.546875,-19.53125,13.671875,-129.8828125,0.0,0,0
1765391487.077557,1765391487.027552,6.34765625,-5.37109375,63.96484375,227.5390625,0.0,0,0
1765391487.077583,1765391487.0314476,8.7890625,-24.90234375,10.25390625,275.390625,0.0,0,0
1765391487.077607,1765391487.0353434,-69.82421875,-55.6640625,-101.07421875,-125.0,0.0,0,0
1765391487.077632,1765391487.039239,-120.60546875,-58.59375,-134.765625,-406.25,0.0,0,0
1765391487.077656,1765391487.0431347,-82.51953125,-28.3203125,-28.80859375,-170.41015625,0.0,0,0
1765391487.07768,1765391487.0470304,-14.6484375,-18.5546875,58.10546875,210.9375,0.0,0,0
1765391487.122028,1765391487.051063,3.41796875,-22.94921875,56.15234375,305.17578125,0.0,0,0
1765391487.12207,1765391487.0549588,-56.15234375,-45.8984375,-56.15234375,-69.82421875,0.0,0,0
1765391487.122099,1765391487.0588543,-106.93359375,-51.7578125,-108.88671875,-379.39453125,0.0,0,0
1765391487.122135,1765391487.06275,-89.35546875,-33.69140625,-11.71875,-233.88671875,0.0,0,0
1765391487.1221619,1765391487.0666459,-19.04296875,-17.08984375,85.44921875,167.96875,0.0,0,0
1765391487.122187,1765391487.0705416,23.4375,-13.18359375,70.80078125,326.171875,0.0,0,0
1765391487.1222122,1765391487.0744374,-38.57421875,-44.43359375,-66.89453125,-40.0390625,0.0,0,0
1765391487.122237,1765391487.078333,-97.65625,-55.17578125,-116.69921875,-363.76953125,0.0,0,0
1765391487.122262,1765391487.0822287,-79.58984375,-33.203125,-40.0390625,-278.3203125,0.0,0,0
1765391487.122287,1765391487.0861244,-4.39453125,-13.671875,65.4296875,139.16015625,0.0,0,0
1765391487.1223118,1765391487.0900202,41.50390625,-18.06640625,77.1484375,352.5390625,0.0,0,0
1765391487.122337,1765391487.093916,-6.34765625,-34.1796875,-40.52734375,35.64453125,0.0,0,0
1765391487.197324,1765391487.0980992,-69.3359375,-40.52734375,-94.23828125,-313.4765625,0.0,0,0
1765391487.197481,1765391487.101995,-75.1953125,-35.64453125,-50.78125,-312.98828125,0.0,0,0
1765391487.197515,1765391487.1058908,-11.23046875,-16.6015625,43.45703125,96.19140625,0.0,0,0
1765391487.197543,1765391487.1097865,30.2734375,-9.765625,60.546875,347.65625,0.0,0,0
1765391487.197571,1765391487.1136823,-9.27734375,-24.4140625,-44.43359375,92.28515625,0.0,0,0
1765391487.197598,1765391487.117578,-74.70703125,-38.57421875,-129.39453125,-283.69140625,0.0,0,0
1765391487.1976252,1765391487.1214738,-88.37890625,-33.203125,-110.83984375,-342.7734375,0.0,0,0
1765391487.197651,1765391487.1253695,-16.11328125,-18.5546875,13.671875,62.5,0.0,0,0
1765391487.197676,1765391487.1292653,38.0859375,-9.27734375,58.10546875,339.84375,0.0,0,0
1765391487.197703,1765391487.133161,2.9296875,-21.484375,-24.4140625,143.06640625,0.0,0,0
1765391487.197729,1765391487.1370568,-69.82421875,-44.43359375,-98.14453125,-260.7421875,0.0,0,0
1765391487.1977549,1765391487.1409526,-101.07421875,-49.31640625,-83.49609375,-377.44140625,0.0,0,0
1765391487.21205,1765391487.1449704,-35.15625,-35.64453125,30.2734375,6.34765625,0.0,0,0
1765391487.21213,1765391487.1488662,42.96875,-18.06640625,78.61328125,320.3125,0.0,0,0
1765391487.212162,1765391487.152762,35.15625,-26.85546875,0.0,211.9140625,0.0,0,0
1765391487.212189,1765391487.1566577,-31.73828125,-48.33984375,-118.1640625,-209.47265625,0.0,0,0
1765391487.212218,1765391487.1605535,-72.265625,-45.41015625,-136.23046875,-391.6015625,0.0,0,0
1765391487.212244,1765391487.1644492,-22.4609375,-13.671875,16.6015625,-41.50390625,0.0,0,0
1765391487.21227,1765391487.168345,38.57421875,-3.41796875,86.9140625,286.62109375,0.0,0,0
1765391487.212296,1765391487.1722407,40.52734375,-21.484375,13.671875,252.9296875,0.0,0,0
1765391487.21232,1765391487.1761365,-33.203125,-56.640625,-101.07421875,-175.78125,0.0,0,0
1765391487.212348,1765391487.1800323,-91.796875,-64.94140625,-132.32421875,-424.8046875,0.0,0,0
1765391487.21238,1765391487.1839283,-44.43359375,-23.92578125,-18.5546875,-118.1640625,0.0,0,0
1765391487.212406,1765391487.187824,23.92578125,-8.7890625,53.7109375,238.76953125,0.0,0,0
1765391487.257022,1765391487.1918254,27.83203125,-23.92578125,22.4609375,276.3671875,0.0,0,0
1765391487.2570748,1765391487.1957211,-30.2734375,-32.2265625,-73.73046875,-134.27734375,0.0,0,0
1765391487.25717,1765391487.199617,-66.40625,-39.55078125,-104.98046875,-412.59765625,0.0,0,0
1765391487.257204,1765391487.203513,-34.1796875,-10.7421875,-15.13671875,-166.9921875,0.0,0,0
1765391487.2572339,1765391487.2074087,35.64453125,16.11328125,48.828125,218.26171875,0.0,0,0
1765391487.25726,1765391487.2113044,49.8046875,-9.27734375,22.4609375,308.10546875,0.0,0,0
1765391487.257285,1765391487.2152002,-11.71875,-40.52734375,-84.9609375,-90.8203125,0.0,0,0
1765391487.2573109,1765391487.219096,-69.82421875,-39.55078125,-142.08984375,-396.97265625,0.0,0,0
1765391487.2573462,1765391487.2229917,-54.19921875,-16.6015625,-63.96484375,-227.05078125,0.0,0,0
1765391487.2573729,1765391487.2268875,16.11328125,-10.7421875,36.1328125,178.22265625,0.0,0,0
1765391487.2573981,1765391487.2307832,46.38671875,-15.13671875,26.3671875,318.359375,0.0,0,0
1765391487.257452,1765391487.2346792,-13.18359375,-43.9453125,-99.12109375,-50.29296875,0.0,0,0
1765391487.302183,1765391487.2386718,-91.30859375,-50.29296875,-131.34765625,-371.09375,0.0,0,0
1765391487.30226,1765391487.2425675,-85.9375,-33.69140625,-44.43359375,-275.87890625,0.0,0,0
1765391487.302291,1765391487.2464633,-9.27734375,-17.08984375,57.6171875,148.92578125,0.0,0,0
1765391487.302318,1765391487.250359,21.484375,-15.625,68.359375,351.07421875,0.0,0,0
1765391487.3023438,1765391487.254255,-41.015625,-45.41015625,-57.12890625,11.71875,0.0,0,0
1765391487.30237,1765391487.2581508,-109.86328125,-54.19921875,-114.74609375,-338.37890625,0.0,0,0
1765391487.3023949,1765391487.2620466,-108.88671875,-40.0390625,-56.15234375,-308.10546875,0.0,0,0
1765391487.302424,1765391487.2659423,-33.203125,-11.71875,49.8046875,106.4453125,0.0,0,0
1765391487.302449,1765391487.269838,17.08984375,-6.34765625,70.80078125,354.4921875,0.0,0,0
1765391487.302474,1765391487.2737339,-18.5546875,-44.921875,-36.62109375,82.03125,0.0,0,0
1765391487.302499,1765391487.2776299,-104.00390625,-58.10546875,-106.93359375,-297.36328125,0.0,0,0
1765391487.3025239,1765391487.2815256,-117.1875,-41.015625,-74.21875,-335.44921875,0.0,0,0
1765391487.347452,1765391487.2855065,-33.203125,-10.25390625,42.96875,72.75390625,0.0,0,0
1765391487.3475351,1765391487.2894022,8.30078125,-8.30078125,86.42578125,347.65625,0.0,0,0
1765391487.347567,1765391487.2932982,-20.01953125,-32.2265625,-9.765625,145.5078125,0.0,0,0
1765391487.347594,1765391487.297194,-83.49609375,-41.9921875,-98.14453125,-259.765625,0.0,0,0
1765391487.3476212,1765391487.3010898,-100.09765625,-31.25,-77.1484375,-354.4921875,0.0,0,0
1765391487.347648,1765391487.3049855,-20.01953125,-1.953125,43.9453125,47.36328125,0.0,0,0
1765391487.3476741,1765391487.3088815,40.0390625,7.8125,79.58984375,334.47265625,0.0,0,0
1765391487.347699,1765391487.3127773,20.99609375,-12.6953125,-9.765625,203.125,0.0,0,0
1765391487.347724,1765391487.316673,-56.15234375,-45.8984375,-94.7265625,-209.9609375,0.0,0,0
1765391487.34775,1765391487.3205688,-97.65625,-47.8515625,-88.8671875,-376.953125,0.0,0,0
1765391487.347775,1765391487.3244648,-36.62109375,-18.5546875,17.08984375,-20.01953125,0.0,0,0
1765391487.347808,1765391487.3283606,22.4609375,-11.23046875,68.359375,297.8515625,0.0,0,0
1765391487.4059598,1765391487.332332,16.6015625,-28.3203125,7.8125,242.67578125,0.0,0,0
1765391487.406023,1765391487.3362277,-51.26953125,-41.50390625,-93.75,-178.7109375,0.0,0,0
1765391487.406058,1765391487.3401237,-98.14453125,-43.45703125,-107.91015625,-400.87890625,0.0,0,0
1765391487.406091,1765391487.3440194,-51.26953125,-23.92578125,6.34765625,-76.66015625,0.0,0,0
1765391487.406131,1765391487.3479152,12.20703125,-14.6484375,66.40625,272.4609375,0.0,0,0
1765391487.406208,1765391487.351811,7.32421875,-18.06640625,32.71484375,268.5546875,0.0,0,0
1765391487.406285,1765391487.355707,-64.453125,-30.76171875,-72.75390625,-162.109375,0.0,0,0
1765391487.40633,1765391487.3596027,-105.46875,-41.9921875,-102.5390625,-426.7578125,0.0,0,0
1765391487.4063659,1765391487.3634984,-66.89453125,-20.99609375,4.8828125,-159.66796875,0.0,0,0
1765391487.4064,1765391487.3673942,0.48828125,-4.39453125,75.68359375,217.7734375,0.0,0,0
1765391487.406433,1765391487.3712902,22.4609375,-17.578125,49.31640625,289.55078125,0.0,0,0
1765391487.406466,1765391487.375186,-39.55078125,-55.17578125,-66.89453125,-109.86328125,0.0,0,0
1765391487.451954,1765391487.3791475,-91.796875,-59.08203125,-114.74609375,-405.2734375,0.0,0,0
1765391487.4520671,1765391487.3830435,-77.1484375,-27.34375,-34.1796875,-212.40234375,0.0,0,0
1765391487.4521039,1765391487.3869393,-9.27734375,-11.23046875,43.45703125,191.89453125,0.0,0,0
1765391487.452138,1765391487.390835,15.13671875,-13.18359375,20.01953125,320.3125,0.0,0,0
1765391487.452171,1765391487.394731,-56.640625,-40.0390625,-102.05078125,-62.5,0.0,0,0
1765391487.452207,1765391487.3986268,-107.91015625,-32.71484375,-137.6953125,-386.71875,0.0,0,0
1765391487.452244,1765391487.4025226,-83.0078125,-7.8125,-62.5,-269.53125,0.0,0,0
1765391487.452275,1765391487.4064183,-8.7890625,-20.99609375,31.73828125,145.5078125,0.0,0,0
1765391487.452306,1765391487.4103143,24.90234375,-36.1328125,37.109375,333.49609375,0.0,0,0
1765391487.45234,1765391487.41421,-30.2734375,-47.36328125,-80.56640625,-2.9296875,0.0,0,0
1765391487.452371,1765391487.4181058,-91.796875,-35.64453125,-128.41796875,-335.44921875,0.0,0,0
1765391487.4524019,1765391487.4220018,-92.7734375,-19.53125,-79.1015625,-296.875,0.0,0,0
1765391487.498272,1765391487.4260352,-19.53125,-10.25390625,19.04296875,110.83984375,0.0,0,0
1765391487.4984472,1765391487.4299312,37.59765625,-14.16015625,41.015625,346.19140625,0.0,0,0
1765391487.4985101,1765391487.433827,-7.32421875,-27.34375,-64.453125,55.6640625,0.0,0,0
1765391487.498569,1765391487.4377227,-75.1953125,-34.1796875,-112.3046875,-313.96484375,0.0,0,0
1765391487.498642,1765391487.4416187,-71.77734375,-24.4140625,-54.6875,-338.8671875,0.0,0,0
1765391487.498711,1765391487.4455144,2.44140625,0.9765625,60.05859375,71.77734375,0.0,0,0
1765391487.49877,1765391487.4494104,45.41015625,-3.41796875,81.0546875,343.26171875,0.0,0,0
1765391487.4988632,1765391487.4533062,15.13671875,-29.78515625,-20.01953125,136.23046875,0.0,0,0
1765391487.49892,1765391487.457202,-64.94140625,-33.69140625,-104.98046875,-258.7890625,0.0,0,0
1765391487.4990022,1765391487.461098,-85.9375,-25.390625,-83.984375,-359.86328125,0.0,0,0
1765391487.4990761,1765391487.4649937,-22.94921875,-15.13671875,40.52734375,37.59765625,0.0,0,0
1765391487.499153,1765391487.4688897,28.3203125,-8.7890625,67.87109375,326.66015625,0.0,0,0
1765391487.542068,1765391487.4729118,0.48828125,-30.2734375,-21.97265625,163.0859375,0.0,0,0
1765391487.542133,1765391487.4768078,-79.1015625,-40.52734375,-109.375,-248.046875,0.0,0,0
1765391487.542167,1765391487.4807036,-116.69921875,-30.2734375,-109.375,-406.25,0.0,0,0
1765391487.5421991,1765391487.4845996,-74.21875,-8.7890625,11.23046875,-60.05859375,0.0,0,0
1765391487.542321,1765391487.4884953,-3.41796875,-4.8828125,83.984375,249.0234375,0.0,0,0
1765391487.542349,1765391487.4923913,-25.87890625,-18.06640625,35.64453125,162.109375,0.0,0,0
1765391487.542374,1765391487.496287,-134.765625,-27.34375,-84.47265625,-285.64453125,0.0,0,0
1765391487.542401,1765391487.500183,-185.05859375,-36.1328125,-72.75390625,-510.25390625,0.0,0,0
1765391487.5424268,1765391487.5040789,-143.06640625,-10.7421875,57.12890625,-187.98828125,0.0,0,0
1765391487.5424519,1765391487.5079749,-102.05078125,-1.953125,108.3984375,152.34375,0.0,0,0
1765391487.542479,1765391487.5118706,-106.4453125,-33.203125,74.21875,142.08984375,0.0,0,0
1765391487.5425038,1765391487.5157666,-186.03515625,-48.33984375,-51.26953125,-281.25,0.0,0,0
1765391487.588081,1765391487.5197794,-238.76953125,-36.1328125,-87.890625,-527.83203125,0.0,0,0
1765391487.5882082,1765391487.5236754,-183.10546875,-16.11328125,18.06640625,-251.953125,0.0,0,0
1765391487.588259,1765391487.5275714,-114.74609375,-8.7890625,87.890625,120.1171875,0.0,0,0
1765391487.5883038,1765391487.5314672,-102.5390625,-14.6484375,48.828125,186.5234375,0.0,0,0
1765391487.588352,1765391487.5353632,-160.64453125,-37.109375,-85.9375,-210.44921875,0.0,0,0
1765391487.588396,1765391487.539259,-213.8671875,-42.96875,-121.58203125,-501.46484375,0.0,0,0
1765391487.588439,1765391487.543155,-181.640625,-26.3671875,-28.3203125,-296.875,0.0,0,0
1765391487.5884821,1765391487.5470507,-90.8203125,-9.765625,52.24609375,112.79296875,0.0,0,0
1765391487.588525,1765391487.5509467,-51.26953125,-10.25390625,35.15625,245.1171875,0.0,0,0
1765391487.588587,1765391487.5548425,-102.5390625,-39.55078125,-83.0078125,-132.32421875,0.0,0,0
1765391487.588626,1765391487.5587385,-149.90234375,-48.33984375,-104.4921875,-439.453125,0.0,0,0
1765391487.5886762,1765391487.5626345,-127.44140625,-26.85546875,-20.5078125,-297.36328125,0.0,0,0
1765391487.633056,1765391487.566637,-32.2265625,-27.83203125,57.6171875,126.953125,0.0,0,0
1765391487.633186,1765391487.5705328,22.4609375,-28.3203125,56.15234375,311.5234375,0.0,0,0
1765391487.633245,1765391487.5744288,-34.1796875,-37.59765625,-77.1484375,-35.15625,0.0,0,0
1765391487.633301,1765391487.5783246,-100.09765625,-45.41015625,-141.11328125,-361.81640625,0.0,0,0
1765391487.6333592,1765391487.5822206,-90.33203125,-35.64453125,-96.6796875,-304.6875,0.0,0,0
1765391487.633429,1765391487.5861166,-3.90625,-13.671875,4.8828125,131.34765625,0.0,0,0
1765391487.6334841,1765391487.5900123,46.38671875,-11.71875,52.24609375,375.48828125,0.0,0,0
1765391487.633548,1765391487.5939083,11.23046875,-31.73828125,-61.5234375,65.4296875,0.0,0,0
1765391487.633607,1765391487.5978043,-48.828125,-34.66796875,-146.97265625,-285.64453125,0.0,0,0
1765391487.6336691,1765391487.6017,-66.40625,-33.203125,-107.421875,-289.55078125,0.0,0,0
1765391487.633726,1765391487.605596,13.671875,-14.6484375,18.06640625,128.90625,0.0,0,0
1765391487.63378,1765391487.6094918,75.1953125,-13.671875,49.8046875,406.73828125,0.0,0,0
1765391487.678943,1765391487.6134899,42.96875,-45.41015625,-65.91796875,170.8984375,0.0,0,0
1765391487.6790771,1765391487.6173859,-18.5546875,-57.6171875,-149.4140625,-223.14453125,0.0,0,0
1765391487.6791291,1765391487.6212816,-45.41015625,-38.57421875,-114.2578125,-299.31640625,0.0,0,0
1765391487.6791732,1765391487.6251776,20.5078125,-20.99609375,1.46484375,90.8203125,0.0,0,0
1765391487.679233,1765391487.6290736,77.63671875,-17.08984375,37.109375,384.765625,0.0,0,0
1765391487.679297,1765391487.6329694,52.734375,-29.78515625,-47.36328125,220.703125,0.0,0,0
1765391487.6793458,1765391487.6368654,-14.6484375,-50.78125,-134.27734375,-191.40625,0.0,0,0
1765391487.679389,1765391487.6407614,-41.50390625,-34.1796875,-123.046875,-330.56640625,0.0,0,0
1765391487.6794329,1765391487.6446574,18.06640625,-14.6484375,-4.8828125,37.59765625,0.0,0,0
1765391487.679478,1765391487.6485531,83.49609375,-28.80859375,47.36328125,359.375,0.0,0,0
1765391487.6795242,1765391487.6524491,70.3125,-41.50390625,-1.46484375,271.484375,0.0,0,0
1765391487.679564,1765391487.6563451,-5.37109375,-59.08203125,-88.8671875,-153.80859375,0.0,0,0
1765391487.723132,1765391487.6603284,-41.50390625,-52.734375,-111.328125,-349.609375,0.0,0,0
1765391487.723302,1765391487.6642244,13.671875,-20.99609375,-15.13671875,-10.25390625,0.0,0,0
1765391487.7233658,1765391487.6681204,82.51953125,-9.765625,42.48046875,318.84765625,0.0,0,0
1765391487.723425,1765391487.6720161,80.078125,-27.83203125,-4.8828125,297.8515625,0.0,0,0
1765391487.7234821,1765391487.6759121,5.859375,-38.0859375,-104.4921875,-126.953125,0.0,0,0
1765391487.723538,1765391487.6798081,-41.50390625,-38.0859375,-111.81640625,-387.6953125,0.0,0,0
1765391487.723595,1765391487.6837041,2.44140625,-15.625,-4.8828125,-99.12109375,0.0,0,0
1765391487.7236512,1765391487.6876,76.66015625,3.41796875,56.15234375,259.765625,0.0,0,0
1765391487.723706,1765391487.691496,74.70703125,-14.6484375,30.2734375,304.19921875,0.0,0,0
1765391487.723762,1765391487.695392,4.39453125,-40.0390625,-100.5859375,-102.5390625,0.0,0,0
1765391487.723818,1765391487.699288,-40.52734375,-51.26953125,-158.69140625,-386.71875,0.0,0,0
1765391487.7238731,1765391487.7031837,-17.578125,-26.85546875,-62.5,-166.50390625,0.0,0,0
1765391487.7973309,1765391487.7073114,42.96875,-22.94921875,42.96875,227.5390625,0.0,0,0
1765391487.797395,1765391487.7112074,75.1953125,-32.71484375,44.43359375,344.7265625,0.0,0,0
1765391487.797424,1765391487.7151034,14.6484375,-52.734375,-81.54296875,-55.17578125,0.0,0,0
1765391487.797451,1765391487.7189994,-62.98828125,-68.84765625,-137.6953125,-375.48828125,0.0,0,0
1765391487.797486,1765391487.7228951,-58.59375,-35.64453125,-56.15234375,-220.21484375,0.0,0,0
1765391487.797512,1765391487.7267911,16.11328125,-2.9296875,43.9453125,194.82421875,0.0,0,0
1765391487.797537,1765391487.7306871,45.8984375,-5.37109375,35.64453125,360.83984375,0.0,0,0
1765391487.7975628,1765391487.7345831,-11.23046875,-37.109375,-89.35546875,-7.8125,0.0,0,0
1765391487.7975879,1765391487.7384791,-66.40625,-48.828125,-133.7890625,-345.21484375,0.0,0,0
1765391487.797614,1765391487.7423751,-63.96484375,-35.15625,-75.68359375,-261.23046875,0.0,0,0
1765391487.7976398,1765391487.7462711,3.41796875,-22.94921875,13.18359375,166.50390625,0.0,0,0
1765391487.797665,1765391487.7501671,45.8984375,-23.4375,29.78515625,382.8125,0.0,0,0
1765391487.827351,1765391487.7541313,-6.8359375,-39.55078125,-76.66015625,57.12890625,0.0,0,0
1765391487.827455,1765391487.7580273,-79.1015625,-47.36328125,-143.5546875,-300.29296875,0.0,0,0
1765391487.827499,1765391487.7619233,-77.1484375,-49.31640625,-99.12109375,-289.55078125,0.0,0,0
1765391487.8275352,1765391487.7658193,-11.71875,-34.1796875,26.3671875,124.51171875,0.0,0,0
1765391487.827568,1765391487.7697153,32.71484375,-18.06640625,57.12890625,381.34765625,0.0,0,0
1765391487.8275998,1765391487.7736113,0.48828125,-26.85546875,-58.59375,117.1875,0.0,0,0
1765391487.8276339,1765391487.7775073,-58.59375,-43.9453125,-138.18359375,-276.3671875,0.0,0,0
1765391487.8276658,1765391487.7814033,-71.2890625,-49.8046875,-100.09765625,-338.8671875,0.0,0,0
1765391487.82771,1765391487.7852993,0.48828125,-30.2734375,29.78515625,69.3359375,0.0,0,0
1765391487.827748,1765391487.789195,48.828125,-25.390625,68.84765625,358.3984375,0.0,0,0
1765391487.827779,1765391487.793091,11.23046875,-42.48046875,-23.4375,164.0625,0.0,0,0
1765391487.827809,1765391487.796987,-63.4765625,-49.31640625,-99.609375,-247.0703125,0.0,0,0
1765391487.871886,1765391487.8010166,-86.9140625,-43.45703125,-75.68359375,-370.1171875,0.0,0,0
1765391487.8719392,1765391487.8049126,-14.16015625,-6.8359375,32.71484375,17.08984375,0.0,0,0
1765391487.87197,1765391487.8088086,41.9921875,3.41796875,59.5703125,326.171875,0.0,0,0
1765391487.871995,1765391487.8127046,13.18359375,-24.90234375,2.44140625,213.8671875,0.0,0,0
1765391487.872021,1765391487.8166006,-55.17578125,-38.0859375,-72.265625,-210.44921875,0.0,0,0
1765391487.872046,1765391487.8204966,-86.42578125,-36.1328125,-71.77734375,-394.04296875,0.0,0,0
1765391487.872074,1765391487.8243926,-25.390625,-27.83203125,51.7578125,-34.1796875,0.0,0,0
1765391487.8720992,1765391487.8282886,28.3203125,-24.4140625,100.09765625,291.015625,0.0,0,0
1765391487.87219,1765391487.8321846,17.08984375,-28.80859375,40.0390625,259.765625,0.0,0,0
1765391487.8722172,1765391487.8360806,-58.59375,-42.96875,-57.6171875,-157.71484375,0.0,0,0
1765391487.872242,1765391487.8399765,-95.21484375,-56.15234375,-87.40234375,-403.3203125,0.0,0,0
1765391487.872267,1765391487.8438725,-25.390625,-39.55078125,5.859375,-87.40234375,0.0,0,0
1765391487.9174888,1765391487.8478925,43.45703125,-16.6015625,60.546875,283.203125,0.0,0,0
1765391487.917581,1765391487.8517885,39.0625,-19.04296875,23.4375,307.12890625,0.0,0,0
1765391487.917621,1765391487.8556845,-51.7578125,-38.0859375,-84.9609375,-127.44140625,0.0,0,0
1765391487.917655,1765391487.8595805,-96.19140625,-49.31640625,-129.39453125,-413.57421875,0.0,0,0
1765391487.917738,1765391487.8634765,-42.48046875,-30.2734375,-38.57421875,-164.0625,0.0,0,0
1765391487.917808,1765391487.8673725,21.97265625,-10.25390625,43.9453125,226.07421875,0.0,0,0
1765391487.917846,1765391487.8712685,35.15625,-12.6953125,35.15625,318.84765625,0.0,0,0
1765391487.91788,1765391487.8751645,-39.55078125,-44.43359375,-60.546875,-92.28515625,0.0,0,0
1765391487.917912,1765391487.8790607,-84.47265625,-51.26953125,-80.56640625,-407.2265625,0.0,0,0
1765391487.917944,1765391487.8829567,-49.8046875,-17.08984375,-4.8828125,-235.3515625,0.0,0,0
1765391487.91801,1765391487.8868527,22.4609375,-7.32421875,53.7109375,182.12890625,0.0,0,0
1765391487.9180548,1765391487.8907487,56.15234375,-16.11328125,40.0390625,340.33203125,0.0,0,0
1765391487.9620411,1765391487.8947582,-9.27734375,-35.64453125,-80.56640625,-41.9921875,0.0,0,0
1765391487.962094,1765391487.8986545,-81.54296875,-49.31640625,-128.41796875,-377.9296875,0.0,0,0
1765391487.9621272,1765391487.9025505,-75.1953125,-41.015625,-58.59375,-286.1328125,0.0,0,0
1765391487.96216,1765391487.9064465,0.0,-17.578125,39.0625,136.23046875,0.0,0,0
1765391487.962191,1765391487.9103425,30.76171875,-10.25390625,55.17578125,337.890625,0.0,0,0
1765391487.962223,1765391487.9142385,-15.13671875,-32.71484375,-40.52734375,3.41796875,0.0,0,0
1765391487.962264,1765391487.9181345,-67.87109375,-53.7109375,-94.7265625,-348.14453125,0.0,0,0
1765391487.9622989,1765391487.9220307,-69.3359375,-40.0390625,-52.24609375,-324.21875,0.0,0,0
1765391487.9623308,1765391487.9259267,-4.39453125,-4.39453125,56.640625,103.02734375,0.0,0,0
1765391487.962364,1765391487.9298227,32.71484375,-6.8359375,79.58984375,353.515625,0.0,0,0
1765391487.9623969,1765391487.9337187,-1.46484375,-38.57421875,-22.4609375,74.70703125,0.0,0,0
1765391487.962433,1765391487.9376147,-66.89453125,-50.78125,-96.19140625,-309.08203125,0.0,0,0
1765391488.007763,1765391487.9416156,-81.0546875,-37.109375,-68.359375,-351.5625,0.0,0,0
1765391488.007852,1765391487.9455116,-5.37109375,-13.18359375,30.76171875,56.640625,0.0,0,0
1765391488.007884,1765391487.9494078,35.64453125,-12.20703125,53.22265625,337.40234375,0.0,0,0
1765391488.007914,1765391487.9533038,3.41796875,-28.3203125,-44.921875,132.8125,0.0,0,0
1765391488.007945,1765391487.9571998,-62.01171875,-43.9453125,-120.1171875,-277.83203125,0.0,0,0
1765391488.007972,1765391487.9610958,-88.8671875,-47.8515625,-78.125,-384.27734375,0.0,0,0
1765391488.007998,1765391487.9649918,-22.94921875,-19.04296875,46.38671875,17.08984375,0.0,0,0
1765391488.0080278,1765391487.968888,33.203125,-2.9296875,81.54296875,324.70703125,0.0,0,0
1765391488.008055,1765391487.972784,15.625,-17.08984375,6.34765625,196.77734375,0.0,0,0
1765391488.0080798,1765391487.97668,-51.7578125,-45.8984375,-72.265625,-224.609375,0.0,0,0
1765391488.008106,1765391487.980576,-91.796875,-44.921875,-67.87109375,-401.3671875,0.0,0,0
1765391488.008131,1765391487.9844723,-41.50390625,-24.4140625,30.76171875,-38.57421875,0.0,0,0
1765391488.0529332,1765391487.9884639,22.94921875,-15.625,54.6875,285.15625,0.0,0,0
1765391488.0530188,1765391487.9923599,24.4140625,-23.92578125,-22.4609375,226.5625,0.0,0,0
1765391488.053056,1765391487.9962559,-47.8515625,-55.17578125,-115.72265625,-190.91796875,0.0,0,0
1765391488.0530932,1765391488.000152,-97.16796875,-47.36328125,-101.5625,-413.57421875,0.0,0,0
1765391488.0531268,1765391488.004048,-50.29296875,-7.32421875,0.48828125,-106.93359375,0.0,0,0
1765391488.053161,1765391488.007944,29.296875,7.32421875,51.26953125,259.27734375,0.0,0,0
1765391488.053194,1765391488.01184,47.8515625,-10.7421875,32.2265625,278.80859375,0.0,0,0
1765391488.053236,1765391488.0157363,-31.73828125,-48.33984375,-80.078125,-151.85546875,0.0,0,0
1765391488.053268,1765391488.0196323,-91.30859375,-49.8046875,-130.37109375,-421.875,0.0,0,0
1765391488.053301,1765391488.0235283,-55.17578125,-26.85546875,-33.203125,-156.73828125,0.0,0,0
1765391488.053333,1765391488.0274246,16.11328125,-11.71875,69.82421875,236.81640625,0.0,0,0
1765391488.053364,1765391488.0313206,35.15625,-20.01953125,39.0625,311.5234375,0.0,0,0
1765391488.0971892,1765391488.0353024,-38.57421875,-47.8515625,-95.703125,-85.44921875,0.0,0,0
1765391488.097318,1765391488.0391984,-101.07421875,-49.8046875,-124.0234375,-380.859375,0.0,0,0
1765391488.097365,1765391488.0430944,-72.75390625,-31.25,-20.5078125,-197.265625,0.0,0,0
1765391488.0974028,1765391488.0469906,7.8125,-11.23046875,60.05859375,222.16796875,0.0,0,0
1765391488.097436,1765391488.0508866,27.83203125,-10.25390625,33.203125,374.51171875,0.0,0,0
1765391488.097468,1765391488.0547826,-39.55078125,-41.015625,-79.58984375,-15.625,0.0,0,0
1765391488.0974998,1765391488.0586789,-103.02734375,-42.96875,-158.203125,-358.88671875,0.0,0,0
1765391488.0975318,1765391488.0625749,-91.30859375,-21.97265625,-87.40234375,-247.55859375,0.0,0,0
1765391488.097564,1765391488.0664709,-12.20703125,-12.6953125,45.8984375,177.734375,0.0,0,0
1765391488.097595,1765391488.070367,35.64453125,-12.20703125,48.33984375,370.1171875,0.0,0,0
1765391488.0976262,1765391488.074263,-15.13671875,-31.25,-75.1953125,28.80859375,0.0,0,0
1765391488.0976572,1765391488.078159,-76.171875,-50.29296875,-120.1171875,-320.80078125,0.0,0,0
1765391488.155443,1765391488.082131,-82.03125,-41.9921875,-56.15234375,-291.50390625,0.0,0,0
1765391488.1555111,1765391488.086027,-10.25390625,-10.7421875,47.36328125,129.8828125,0.0,0,0
1765391488.155543,1765391488.089923,35.64453125,-4.39453125,69.82421875,376.953125,0.0,0,0
1765391488.1555688,1765391488.0938191,-14.16015625,-28.80859375,-34.66796875,86.42578125,0.0,0,0
1765391488.155596,1765391488.0977151,-81.54296875,-41.50390625,-107.91015625,-305.6640625,0.0,0,0
1765391488.155623,1765391488.1016114,-81.0546875,-22.4609375,-68.84765625,-327.1484375,0.0,0,0
1765391488.155649,1765391488.1055074,-5.859375,8.30078125,37.59765625,107.91015625,0.0,0,0
1765391488.155675,1765391488.1094034,37.109375,2.9296875,66.40625,380.37109375,0.0,0,0
1765391488.1557,1765391488.1132996,2.44140625,-27.34375,-31.73828125,148.92578125,0.0,0,0
1765391488.155725,1765391488.1171956,-75.68359375,-47.36328125,-115.234375,-254.39453125,0.0,0,0
1765391488.155751,1765391488.1210918,-102.05078125,-40.0390625,-84.9609375,-345.703125,0.0,0,0
1765391488.155776,1765391488.1249878,-33.69140625,-15.625,36.62109375,50.29296875,0.0,0,0
1765391488.2013912,1765391488.1289473,28.3203125,-10.7421875,75.68359375,365.72265625,0.0,0,0
1765391488.201441,1765391488.1328433,13.18359375,-23.92578125,-10.7421875,224.609375,0.0,0,0
1765391488.201474,1765391488.1367395,-59.08203125,-40.52734375,-113.28125,-216.30859375,0.0,0,0
1765391488.201499,1765391488.1406355,-83.0078125,-36.1328125,-113.76953125,-376.46484375,0.0,0,0
1765391488.201528,1765391488.1445317,-18.06640625,-17.08984375,-3.41796875,-2.44140625,0.0,0,0
1765391488.2015529,1765391488.1484277,33.69140625,-4.39453125,40.52734375,326.66015625,0.0,0,0
1765391488.201578,1765391488.152324,23.4375,-9.27734375,-20.01953125,265.625,0.0,0,0
1765391488.2016058,1765391488.15622,-46.38671875,-40.52734375,-118.65234375,-178.22265625,0.0,0,0
1765391488.201631,1765391488.160116,-91.796875,-41.015625,-116.69921875,-398.92578125,0.0,0,0
1765391488.20167,1765391488.1640122,-38.0859375,-12.6953125,10.25390625,-56.15234375,0.0,0,0
1765391488.201697,1765391488.1679082,28.3203125,-11.23046875,55.17578125,294.921875,0.0,0,0
1765391488.2017221,1765391488.1718044,21.484375,-25.87890625,-12.20703125,291.015625,0.0,0,0
1765391488.2473059,1765391488.1758354,-54.6875,-50.78125,-137.6953125,-152.83203125,0.0,0,0
1765391488.2474291,1765391488.1797314,-88.8671875,-43.9453125,-161.62109375,-426.7578125,0.0,0,0
1765391488.2474701,1765391488.1836276,-33.203125,-5.859375,-37.59765625,-137.6953125,0.0,0,0
1765391488.247505,1765391488.1875236,37.59765625,5.859375,54.19921875,243.65234375,0.0,0,0
1765391488.247539,1765391488.1914198,56.640625,-18.06640625,40.52734375,319.3359375,0.0,0,0
1765391488.247571,1765391488.1953158,-13.671875,-43.9453125,-80.56640625,-91.796875,0.0,0,0
1765391488.247603,1765391488.199212,-78.61328125,-43.9453125,-126.953125,-404.296875,0.0,0,0
1765391488.247643,1765391488.203108,-42.96875,-22.4609375,-32.2265625,-191.40625,0.0,0,0
1765391488.2476768,1765391488.2070043,32.71484375,-5.37109375,65.4296875,217.28515625,0.0,0,0
1765391488.24771,1765391488.2109003,54.6875,-1.953125,55.17578125,336.42578125,0.0,0,0
1765391488.2477472,1765391488.2147965,-9.765625,-28.3203125,-77.63671875,-61.03515625,0.0,0,0
1765391488.247783,1765391488.2186925,-69.82421875,-42.96875,-126.953125,-389.6484375,0.0,0,0
1765391488.292085,1765391488.222712,-45.8984375,-22.94921875,-39.0625,-244.62890625,0.0,0,0
1765391488.2921631,1765391488.226608,24.90234375,-18.06640625,63.96484375,173.828125,0.0,0,0
1765391488.292193,1765391488.2305043,53.7109375,-22.94921875,54.6875,356.4453125,0.0,0,0
1765391488.292219,1765391488.2344005,-7.32421875,-38.0859375,-75.68359375,4.39453125,0.0,0,0
1765391488.292245,1765391488.2382965,-74.21875,-43.45703125,-115.72265625,-347.16796875,0.0,0,0
1765391488.2922711,1765391488.2421927,-64.453125,-26.85546875,-48.33984375,-282.71484375,0.0,0,0
1765391488.292296,1765391488.2460887,10.7421875,-13.671875,44.43359375,145.01953125,0.0,0,0
1765391488.2923222,1765391488.249985,54.6875,-19.53125,57.12890625,368.1640625,0.0,0,0
1765391488.292346,1765391488.253881,11.23046875,-13.671875,-58.59375,51.7578125,0.0,0,0
1765391488.292371,1765391488.2577772,-65.4296875,-9.765625,-138.671875,-323.2421875,0.0,0,0
1765391488.292396,1765391488.2616735,-75.1953125,-30.76171875,-82.03125,-343.26171875,0.0,0,0
1765391488.292421,1765391488.2655694,-5.859375,-18.5546875,61.5234375,79.58984375,0.0,0,0
1765391488.337611,1765391488.2695835,41.50390625,-12.6953125,86.9140625,346.19140625,0.0,0,0
1765391488.337736,1765391488.2734797,9.27734375,-36.1328125,-31.73828125,103.02734375,0.0,0,0
1765391488.337784,1765391488.277376,-61.5234375,-41.9921875,-101.07421875,-277.34375,0.0,0,0
1765391488.3378282,1765391488.281272,-75.68359375,-25.87890625,-60.05859375,-351.5625,0.0,0,0
1765391488.3378701,1765391488.2851682,-1.46484375,-7.32421875,41.015625,48.828125,0.0,0,0
1765391488.337912,1765391488.2890642,47.8515625,-9.27734375,62.98828125,343.26171875,0.0,0,0
1765391488.337954,1765391488.2929604,14.16015625,-31.73828125,-26.3671875,177.24609375,0.0,0,0
1765391488.3379881,1765391488.2968566,-66.89453125,-53.22265625,-118.65234375,-242.67578125,0.0,0,0
1765391488.338021,1765391488.3007526,-90.8203125,-39.0625,-114.2578125,-392.578125,0.0,0,0
1765391488.338052,1765391488.3046489,-9.765625,-12.6953125,13.671875,-10.7421875,0.0,0,0
1765391488.338083,1765391488.308545,52.24609375,-11.23046875,75.1953125,312.5,0.0,0,0
1765391488.338114,1765391488.312441,30.2734375,-25.87890625,-0.48828125,219.7265625,0.0,0,0
1765391488.4270122,1765391488.3166,-50.78125,-44.921875,-108.88671875,-218.75,0.0,0,0
1765391488.4270852,1765391488.3204963,-90.8203125,-39.0625,-111.81640625,-426.7578125,0.0,0,0
1765391488.427121,1765391488.3243926,-23.92578125,-14.16015625,15.13671875,-65.91796875,0.0,0,0
1765391488.4271538,1765391488.3282886,57.12890625,-10.25390625,86.9140625,284.1796875,0.0,0,0
1765391488.427186,1765391488.3321848,54.6875,-23.4375,37.59765625,255.859375,0.0,0,0
1765391488.427295,1765391488.336081,-21.97265625,-47.36328125,-75.1953125,-178.22265625,0.0,0,0
1765391488.427338,1765391488.3399773,-64.453125,-63.4765625,-84.47265625,-425.78125,0.0,0,0
1765391488.42737,1765391488.3438735,-23.92578125,-36.1328125,25.87890625,-137.6953125,0.0,0,0
1765391488.427402,1765391488.3477695,41.015625,-14.16015625,84.9609375,223.14453125,0.0,0,0
1765391488.427434,1765391488.3516657,58.10546875,-25.87890625,59.08203125,269.04296875,0.0,0,0
1765391488.427466,1765391488.355562,-23.4375,-43.45703125,-55.17578125,-156.73828125,0.0,0,0
1765391488.427498,1765391488.3594582,-87.40234375,-40.52734375,-103.515625,-456.0546875,0.0,0,0
1765391488.428488,1765391488.3634608,-43.45703125,-22.94921875,-5.37109375,-212.40234375,0.0,0,0
1765391488.428544,1765391488.367357,26.3671875,-13.671875,78.61328125,204.1015625,0.0,0,0
1765391488.428576,1765391488.371253,37.109375,-22.94921875,42.96875,303.7109375,0.0,0,0
1765391488.4286022,1765391488.3751493,-35.15625,-54.19921875,-79.1015625,-104.4921875,0.0,0,0
1765391488.428627,1765391488.3790455,-97.65625,-54.19921875,-122.55859375,-428.7109375,0.0,0,0
1765391488.428653,1765391488.3829417,-63.96484375,-28.3203125,-34.1796875,-259.27734375,0.0,0,0
1765391488.4286778,1765391488.386838,24.90234375,-19.53125,56.15234375,168.45703125,0.0,0,0
1765391488.428703,1765391488.3907342,36.62109375,-10.7421875,37.59765625,329.58984375,0.0,0,0
1765391488.4287271,1765391488.3946304,-34.66796875,-31.25,-70.3125,-35.15625,0.0,0,0
1765391488.428752,1765391488.3985264,-84.9609375,-53.7109375,-103.515625,-374.51171875,0.0,0,0
1765391488.428777,1765391488.4024227,-87.40234375,-35.64453125,-51.7578125,-310.546875,0.0,0,0
1765391488.428802,1765391488.406319,-22.4609375,-10.7421875,27.34375,104.00390625,0.0,0,0
1765391488.4734201,1765391488.4103043,29.296875,-10.25390625,41.50390625,336.42578125,0.0,0,0
1765391488.473529,1765391488.4142005,-8.7890625,-36.62109375,-72.265625,11.23046875,0.0,0,0
1765391488.4735649,1765391488.4180968,-80.078125,-39.0625,-142.08984375,-360.83984375,0.0,0,0
1765391488.4735968,1765391488.421993,-87.40234375,-23.92578125,-87.40234375,-349.12109375,0.0,0,0
1765391488.473632,1765391488.4258893,-14.16015625,-11.71875,27.34375,70.80078125,0.0,0,0
1765391488.4736671,1765391488.4297855,36.1328125,-12.20703125,63.4765625,337.890625,0.0,0,0
1765391488.4737,1765391488.4336817,5.37109375,-31.25,-25.87890625,72.75390625,0.0,0,0
1765391488.473731,1765391488.4375777,-56.15234375,-43.45703125,-111.328125,-326.66015625,0.0,0,0
1765391488.473762,1765391488.441474,-83.984375,-40.0390625,-88.8671875,-388.18359375,0.0,0,0
1765391488.473794,1765391488.4453702,-19.04296875,-18.06640625,22.4609375,22.4609375,0.0,0,0
1765391488.473825,1765391488.4492664,38.57421875,-4.39453125,58.10546875,313.4765625,0.0,0,0
1765391488.473859,1765391488.4531627,-2.44140625,-25.87890625,-20.99609375,123.046875,0.0,0,0
1765391488.53359,1765391488.4571395,-81.54296875,-53.22265625,-121.58203125,-296.38671875,0.0,0,0
1765391488.5337338,1765391488.4610357,-114.2578125,-44.43359375,-126.953125,-432.6171875,0.0,0,0
1765391488.5338,1765391488.464932,-55.6640625,-17.08984375,2.9296875,-34.66796875,0.0,0,0
1765391488.533868,1765391488.4688282,4.8828125,-15.625,74.21875,292.48046875,0.0,0,0
1765391488.533934,1765391488.4727244,-11.23046875,-40.52734375,8.30078125,180.6640625,0.0,0,0
1765391488.533995,1765391488.4766207,-87.890625,-55.17578125,-105.46875,-244.140625,0.0,0,0
1765391488.534092,1765391488.480517,-120.1171875,-40.52734375,-122.55859375,-430.6640625,0.0,0,0
1765391488.5342531,1765391488.4844131,-68.359375,-20.01953125,-7.32421875,-69.82421875,0.0,0,0
1765391488.534373,1765391488.4883094,-2.44140625,-14.6484375,51.7578125,278.80859375,0.0,0,0
1765391488.53444,1765391488.4922056,7.8125,-22.94921875,-3.90625,248.046875,0.0,0,0
1765391488.534498,1765391488.4961019,-62.01171875,-35.64453125,-117.67578125,-192.3828125,0.0,0,0
1765391488.534558,1765391488.4999979,-107.91015625,-29.296875,-132.8125,-449.70703125,0.0,0,0
1765391488.579008,1765391488.503978,-64.453125,-10.25390625,-4.8828125,-132.8125,0.0,0,0
1765391488.579196,1765391488.5078743,5.37109375,-4.39453125,52.734375,228.515625,0.0,0,0
1765391488.579263,1765391488.5117705,9.765625,-10.25390625,13.18359375,269.04296875,0.0,0,0
1765391488.579325,1765391488.5156667,-72.265625,-33.69140625,-92.28515625,-134.765625,0.0,0,0
1765391488.579515,1765391488.519563,-121.58203125,-50.29296875,-143.06640625,-426.7578125,0.0,0,0
1765391488.579552,1765391488.5234592,-83.0078125,-17.08984375,-31.73828125,-175.29296875,0.0,0,0
1765391488.579586,1765391488.5273554,-3.41796875,6.8359375,63.96484375,234.86328125,0.0,0,0
1765391488.579617,1765391488.5312517,34.1796875,-18.5546875,29.296875,342.7734375,0.0,0,0
1765391488.579652,1765391488.535148,-35.15625,-52.24609375,-92.28515625,-70.3125,0.0,0,0
1765391488.579683,1765391488.5390441,-109.375,-53.22265625,-133.30078125,-410.64453125,0.0,0,0
1765391488.579733,1765391488.5429404,-93.26171875,-30.76171875,-50.29296875,-240.72265625,0.0,0,0
1765391488.579766,1765391488.5468366,1.953125,-6.8359375,60.05859375,199.21875,0.0,0,0
1765391488.62324,1765391488.5508664,46.875,-10.25390625,58.59375,361.81640625,0.0,0,0
1765391488.623415,1765391488.5547626,-27.34375,-48.828125,-79.58984375,-38.57421875,0.0,0,0
1765391488.6234822,1765391488.5586588,-87.40234375,-53.22265625,-125.9765625,-373.046875,0.0,0,0
1765391488.623544,1765391488.562555,-64.94140625,-29.78515625,-28.80859375,-262.6953125,0.0,0,0
1765391488.623602,1765391488.5664513,10.25390625,-17.08984375,73.2421875,169.921875,0.0,0,0
1765391488.623658,1765391488.5703475,50.29296875,-13.671875,65.91796875,378.41796875,0.0,0,0
1765391488.623716,1765391488.5742438,8.30078125,-33.203125,-50.29296875,40.0390625,0.0,0,0
1765391488.623772,1765391488.57814,-51.26953125,-50.29296875,-105.95703125,-327.63671875,0.0,0,0
1765391488.623827,1765391488.5820365,-60.05859375,-37.59765625,-36.62109375,-312.98828125,0.0,0,0
1765391488.623883,1765391488.5859327,9.27734375,-2.9296875,69.3359375,119.62890625,0.0,0,0
1765391488.623938,1765391488.589829,56.15234375,-0.48828125,74.21875,378.90625,0.0,0,0
1765391488.623996,1765391488.5937252,6.8359375,-31.25,-38.0859375,89.84375,0.0,0,0
1765391488.6989598,1765391488.5978997,-72.75390625,-47.36328125,-114.74609375,-313.96484375,0.0,0,0
1765391488.699139,1765391488.601796,-81.0546875,-47.36328125,-70.80078125,-357.91015625,0.0,0,0
1765391488.6992059,1765391488.6056924,-2.44140625,-25.390625,46.38671875,66.89453125,0.0,0,0
1765391488.6992698,1765391488.6095886,46.38671875,-20.01953125,75.68359375,359.375,0.0,0,0
1765391488.6993291,1765391488.6134849,20.99609375,-37.109375,-20.99609375,158.69140625,0.0,0,0
1765391488.699389,1765391488.617381,-56.15234375,-47.36328125,-106.93359375,-264.16015625,0.0,0,0
1765391488.699449,1765391488.6212776,-93.26171875,-44.43359375,-88.8671875,-390.13671875,0.0,0,0
1765391488.699507,1765391488.6251738,-23.4375,-18.5546875,27.83203125,13.18359375,0.0,0,0
1765391488.6995661,1765391488.62907,32.2265625,1.46484375,76.66015625,340.8203125,0.0,0,0
1765391488.699622,1765391488.6329665,9.27734375,-15.13671875,-3.90625,214.35546875,0.0,0,0
1765391488.699678,1765391488.6368628,-66.40625,-40.0390625,-103.515625,-228.515625,0.0,0,0
1765391488.699733,1765391488.640759,-94.7265625,-41.50390625,-91.30859375,-408.203125,0.0,0,0
1765391488.713542,1765391488.6447756,-30.76171875,-31.25,35.15625,-25.390625,0.0,0,0
1765391488.7136571,1765391488.6486719,27.34375,-10.7421875,90.33203125,316.89453125,0.0,0,0
1765391488.713728,1765391488.6525683,18.06640625,-21.97265625,20.5078125,265.625,0.0,0,0
1765391488.7137861,1765391488.6564646,-51.7578125,-51.26953125,-97.16796875,-180.17578125,0.0,0,0
1765391488.7138429,1765391488.6603608,-93.75,-43.45703125,-98.14453125,-432.6171875,0.0,0,0
1765391488.713898,1765391488.6642573,-50.78125,-22.4609375,13.18359375,-101.5625,0.0,0,0
1765391488.713943,1765391488.6681535,21.97265625,-21.97265625,64.94140625,271.484375,0.0,0,0
1765391488.713984,1765391488.6720498,39.55078125,-20.99609375,17.08984375,295.8984375,0.0,0,0
1765391488.714025,1765391488.6759462,-41.50390625,-49.31640625,-100.5859375,-145.99609375,0.0,0,0
1765391488.714072,1765391488.6798425,-103.515625,-64.453125,-117.1875,-429.6875,0.0,0,0
1765391488.714112,1765391488.6837387,-51.26953125,-26.3671875,-17.578125,-148.92578125,0.0,0,0
1765391488.7141519,1765391488.6876352,13.18359375,-11.71875,62.5,245.1171875,0.0,0,0
1765391488.757719,1765391488.6916401,18.06640625,-24.4140625,37.59765625,325.68359375,0.0,0,0
1765391488.757802,1765391488.6955364,-42.48046875,-32.2265625,-87.890625,-85.44921875,0.0,0,0
1765391488.757834,1765391488.6994326,-87.40234375,-49.8046875,-116.2109375,-395.5078125,0.0,0,0
1765391488.7578611,1765391488.703329,-59.08203125,-36.62109375,-8.30078125,-210.9375,0.0,0,0
1765391488.757888,1765391488.7072253,2.44140625,-2.44140625,62.98828125,218.26171875,0.0,0,0
1765391488.757921,1765391488.7111218,31.25,-7.8125,36.62109375,372.0703125,0.0,0,0
1765391488.757947,1765391488.715018,-20.5078125,-41.50390625,-74.21875,-25.390625,0.0,0,0
1765391488.757972,1765391488.7189143,-101.5625,-47.8515625,-120.60546875,-378.90625,0.0,0,0
1765391488.757997,1765391488.7228107,-84.47265625,-32.71484375,-53.22265625,-272.94921875,0.0,0,0
1765391488.758023,1765391488.726707,-5.859375,-11.71875,25.390625,169.921875,0.0,0,0
1765391488.758048,1765391488.7306035,15.13671875,-21.484375,28.80859375,372.55859375,0.0,0,0
1765391488.758073,1765391488.7344997,-26.3671875,-58.59375,-75.1953125,18.5546875,0.0,0,0
1765391488.8020842,1765391488.7384872,-83.49609375,-51.26953125,-113.76953125,-341.30859375,0.0,0,0
1765391488.802185,1765391488.7423837,-84.9609375,-37.109375,-60.05859375,-310.546875,0.0,0,0
1765391488.8022258,1765391488.74628,-8.30078125,-18.5546875,22.4609375,134.765625,0.0,0,0
1765391488.802262,1765391488.7501764,34.66796875,-18.06640625,29.296875,397.4609375,0.0,0,0
1765391488.8022962,1765391488.7540727,-19.04296875,-48.828125,-88.8671875,84.47265625,0.0,0,0
1765391488.802328,1765391488.757969,-74.70703125,-49.8046875,-135.25390625,-307.6171875,0.0,0,0
1765391488.8023639,1765391488.7618654,-83.0078125,-42.96875,-83.49609375,-355.46875,0.0,0,0
1765391488.8023958,1765391488.7657616,-11.71875,-21.484375,37.59765625,55.17578125,0.0,0,0
1765391488.8024268,1765391488.769658,38.57421875,-2.9296875,80.56640625,352.05078125,0.0,0,0
1765391488.802475,1765391488.7735543,-3.90625,-27.34375,-40.52734375,123.046875,0.0,0,0
1765391488.802507,1765391488.7774508,-87.40234375,-46.38671875,-141.11328125,-304.6875,0.0,0,0
1765391488.80254,1765391488.781347,-116.69921875,-49.31640625,-113.76953125,-414.0625,0.0,0,0
1765391488.847711,1765391488.7853267,-36.62109375,-24.4140625,24.90234375,-1.46484375,0.0,0,0
1765391488.8478432,1765391488.7892232,23.92578125,-13.18359375,80.078125,321.2890625,0.0,0,0
1765391488.847929,1765391488.7931194,8.7890625,-31.25,1.953125,174.8046875,0.0,0,0
1765391488.847973,1765391488.797016,-70.80078125,-51.26953125,-95.703125,-264.16015625,0.0,0,0
1765391488.848008,1765391488.8009121,-104.00390625,-54.19921875,-91.30859375,-429.19921875,0.0,0,0
1765391488.8480399,1765391488.8048086,-31.25,-21.97265625,42.48046875,-32.2265625,0.0,0,0
1765391488.848075,1765391488.8087049,32.2265625,-4.8828125,89.84375,310.546875,0.0,0,0
1765391488.848107,1765391488.8126013,18.5546875,-20.99609375,9.27734375,228.515625,0.0,0,0
1765391488.84814,1765391488.8164976,-66.89453125,-37.59765625,-99.609375,-222.65625,0.0,0,0
1765391488.8481731,1765391488.820394,-101.07421875,-32.2265625,-110.83984375,-451.171875,0.0,0,0
1765391488.8482041,1765391488.8242903,-38.0859375,-7.8125,13.18359375,-99.12109375,0.0,0,0
1765391488.8482409,1765391488.8281868,33.203125,0.48828125,67.3828125,264.16015625,0.0,0,0
1765391488.9060302,1765391488.832156,37.59765625,-18.06640625,12.20703125,259.765625,0.0,0,0
1765391488.906105,1765391488.8360524,-38.57421875,-46.875,-105.95703125,-173.33984375,0.0,0,0
1765391488.9061491,1765391488.839949,-84.47265625,-48.828125,-144.04296875,-442.87109375,0.0,0,0
1765391488.906178,1765391488.8438451,-40.0390625,-30.76171875,-36.1328125,-166.50390625,0.0,0,0
1765391488.906205,1765391488.8477416,30.76171875,-15.625,38.57421875,221.19140625,0.0,0,0
1765391488.906233,1765391488.8516378,40.52734375,-20.99609375,3.41796875,300.29296875,0.0,0,0
1765391488.90626,1765391488.8555343,-29.296875,-43.45703125,-132.32421875,-110.3515625,0.0,0,0
1765391488.906285,1765391488.8594306,-87.40234375,-47.8515625,-173.828125,-424.31640625,0.0,0,0
1765391488.906411,1765391488.863327,-62.5,-30.76171875,-65.91796875,-223.14453125,0.0,0,0
1765391488.90644,1765391488.8672233,19.04296875,-11.23046875,41.9921875,205.56640625,0.0,0,0
1765391488.906467,1765391488.8711197,38.57421875,-14.16015625,53.22265625,343.26171875,0.0,0,0
1765391488.906492,1765391488.875016,-24.90234375,-34.1796875,-67.3828125,-54.19921875,0.0,0,0
1765391488.952456,1765391488.8789756,-86.42578125,-36.62109375,-129.39453125,-395.01953125,0.0,0,0
1765391488.95254,1765391488.882872,-80.078125,-21.484375,-57.6171875,-269.04296875,0.0,0,0
1765391488.952567,1765391488.8867686,1.46484375,-15.13671875,45.8984375,175.78125,0.0,0,0
1765391488.9525928,1765391488.8906648,36.1328125,-15.13671875,44.43359375,378.41796875,0.0,0,0
1765391488.952618,1765391488.8945613,-18.06640625,-31.25,-76.66015625,19.53125,0.0,0,0
1765391488.9526432,1765391488.8984575,-78.61328125,-38.57421875,-118.1640625,-338.37890625,0.0,0,0
1765391488.952668,1765391488.902354,-83.984375,-30.2734375,-64.453125,-296.38671875,0.0,0,0
1765391488.952696,1765391488.9062502,-7.8125,-20.01953125,21.97265625,136.23046875,0.0,0,0
1765391488.95272,1765391488.9101467,42.96875,-15.13671875,31.25,384.765625,0.0,0,0
1765391488.952745,1765391488.9140432,-20.5078125,-31.73828125,-82.03125,73.73046875,0.0,0,0
1765391488.952769,1765391488.9179394,-96.19140625,-46.38671875,-154.78515625,-310.546875,0.0,0,0
1765391488.952794,1765391488.921836,-95.21484375,-41.9921875,-77.63671875,-320.3125,0.0,0,0
1765391488.99735,1765391488.9258633,-20.99609375,-22.94921875,63.4765625,109.86328125,0.0,0,0
1765391488.997458,1765391488.9297595,26.85546875,-10.7421875,84.47265625,386.23046875,0.0,0,0
1765391488.9974961,1765391488.933656,-18.5546875,-26.3671875,-29.296875,131.34765625,0.0,0,0
1765391488.997529,1765391488.9375525,-98.6328125,-44.43359375,-124.0234375,-290.0390625,0.0,0,0
1765391488.9975622,1765391488.9414487,-101.5625,-34.1796875,-108.88671875,-377.9296875,0.0,0,0
1765391488.9975948,1765391488.9453452,-18.5546875,-6.34765625,-2.9296875,30.76171875,0.0,0,0
1765391488.9976268,1765391488.9492416,22.94921875,-9.27734375,42.48046875,340.33203125,0.0,0,0
1765391488.99766,1765391488.9531379,-11.23046875,-41.015625,-43.45703125,165.52734375,0.0,0,0
1765391488.997706,1765391488.9570343,-74.21875,-46.875,-130.859375,-259.765625,0.0,0,0
1765391488.9977431,1765391488.9609308,-107.421875,-28.80859375,-115.72265625,-410.64453125,0.0,0,0
1765391488.997778,1765391488.964827,-43.9453125,-13.18359375,3.41796875,-28.3203125,0.0,0,0
1765391488.99781,1765391488.9687235,16.11328125,-7.8125,59.08203125,313.4765625,0.0,0,0
1765391489.042549,1765391488.9727411,19.04296875,-17.08984375,-1.46484375,243.65234375,0.0,0,0
1765391489.042638,1765391488.9766374,-50.78125,-37.59765625,-80.078125,-200.1953125,0.0,0,0
1765391489.0426738,1765391488.9805338,-105.95703125,-41.9921875,-58.10546875,-429.19921875,0.0,0,0
1765391489.042708,1765391488.9844303,-53.22265625,-25.390625,55.17578125,-78.61328125,0.0,0,0
1765391489.0427399,1765391488.9883268,20.01953125,-17.578125,77.1484375,285.64453125,0.0,0,0
1765391489.042773,1765391488.992223,27.34375,-21.97265625,0.0,284.1796875,0.0,0,0
1765391489.042804,1765391488.9961195,-63.96484375,-38.57421875,-120.60546875,-166.50390625,0.0,0,0
1765391489.042837,1765391489.000016,-110.3515625,-57.6171875,-137.6953125,-434.5703125,0.0,0,0
1765391489.042869,1765391489.0039122,-58.10546875,-25.87890625,-14.16015625,-130.859375,0.0,0,0
1765391489.042901,1765391489.0078087,11.23046875,6.34765625,61.5234375,254.8828125,0.0,0,0
1765391489.042933,1765391489.0117052,22.94921875,-19.04296875,27.83203125,306.15234375,0.0,0,0
1765391489.042964,1765391489.0156016,-44.43359375,-49.8046875,-70.80078125,-123.53515625,0.0,0,0
1765391489.087498,1765391489.019609,-90.8203125,-53.7109375,-91.30859375,-430.6640625,0.0,0,0
1765391489.087615,1765391489.0235052,-73.2421875,-31.73828125,-1.953125,-207.51953125,0.0,0,0
1765391489.0876648,1765391489.0274017,6.34765625,-13.671875,78.125,217.28515625,0.0,0,0
1765391489.08771,1765391489.0312982,36.1328125,-15.13671875,57.12890625,345.21484375,0.0,0,0
1765391489.0877519,1765391489.0351946,-42.96875,-42.48046875,-70.80078125,-55.6640625,0.0,0,0
1765391489.0877938,1765391489.039091,-102.5390625,-44.43359375,-123.53515625,-394.04296875,0.0,0,0
1765391489.087837,1765391489.0429873,-79.58984375,-21.484375,-42.96875,-250.9765625,0.0,0,0
1765391489.08788,1765391489.0468838,2.44140625,-10.7421875,48.828125,188.4765625,0.0,0,0
1765391489.0879219,1765391489.0507803,34.66796875,0.48828125,38.57421875,370.1171875,0.0,0,0
