timestamp,lsl_timestamp,TP9,AF7,AF8,TP10,Right AUX,keypress_A,keypress_B
1772022412.024352,1772022411.9219935,0.9765625,-52.24609375,-44.921875,-20.01953125,0.0,0,0
1772022412.024568,1772022411.9258807,14.6484375,-31.25,-22.4609375,4.8828125,0.0,0,0
1772022412.024611,1772022411.9297678,4.8828125,-14.6484375,-25.87890625,0.0,0.0,0,0
1772022412.0246441,1772022411.933655,-7.32421875,-8.30078125,-34.66796875,-4.39453125,0.0,0,0
1772022412.02469,1772022411.937542,-15.625,-22.94921875,-39.55078125,-11.23046875,0.0,0,0
1772022412.024719,1772022411.9414291,-12.20703125,-41.50390625,-39.55078125,-19.53125,0.0,0,0
1772022412.024747,1772022411.9453163,18.5546875,-41.50390625,-20.01953125,0.0,0.0,0,0
1772022412.024775,1772022411.9492033,29.78515625,-45.41015625,-14.6484375,10.7421875,0.0,0,0
1772022412.024816,1772022411.9530904,21.484375,-61.03515625,-33.69140625,-1.953125,0.0,0,0
1772022412.0248451,1772022411.9569776,-8.30078125,-47.36328125,-51.26953125,-26.3671875,0.0,0,0
1772022412.024873,1772022411.9608648,-24.4140625,-37.109375,-53.7109375,-35.64453125,0.0,0,0
1772022412.0249012,1772022411.9647517,7.8125,-34.1796875,-32.71484375,-30.76171875,0.0,0,0
1772022412.040234,1772022411.968904,29.78515625,-14.6484375,-19.04296875,-19.53125,0.0,0,0
1772022412.040323,1772022411.9727912,15.13671875,-18.06640625,-24.90234375,-13.671875,0.0,0,0
1772022412.0403662,1772022411.9766784,-14.16015625,-36.62109375,-43.9453125,-31.73828125,0.0,0,0
1772022412.040403,1772022411.9805655,-25.390625,-35.64453125,-49.31640625,-38.0859375,0.0,0,0
1772022412.04044,1772022411.9844527,-9.27734375,-29.78515625,-29.78515625,-21.97265625,0.0,0,0
1772022412.0404758,1772022411.98834,4.39453125,-15.625,-12.6953125,5.859375,0.0,0,0
1772022412.040511,1772022411.992227,-4.39453125,-28.80859375,-24.4140625,7.8125,0.0,0,0
1772022412.040549,1772022411.9961145,-23.4375,-41.015625,-43.9453125,-8.7890625,0.0,0,0
1772022412.040585,1772022412.0000017,-22.94921875,-41.9921875,-44.43359375,-20.5078125,0.0,0,0
1772022412.04062,1772022412.0038888,-8.7890625,-38.57421875,-34.66796875,-22.94921875,0.0,0,0
1772022412.0406551,1772022412.007776,1.46484375,-23.4375,-21.97265625,-11.71875,0.0,0,0
1772022412.04069,1772022412.0116632,-14.16015625,-27.34375,-30.76171875,-13.18359375,0.0,0,0
1772022412.085582,1772022412.015787,-35.15625,-32.71484375,-46.875,-21.97265625,0.0,0,0
1772022412.085738,1772022412.019674,-42.96875,-36.1328125,-52.24609375,-41.015625,0.0,0,0
1772022412.0858061,1772022412.0235612,-33.203125,-41.9921875,-45.41015625,-58.10546875,0.0,0,0
1772022412.0858712,1772022412.0274487,1.953125,-26.3671875,-24.4140625,-29.296875,0.0,0,0
1772022412.0859299,1772022412.0313358,18.5546875,-20.99609375,-19.53125,-1.953125,0.0,0,0
1772022412.085988,1772022412.035223,-5.37109375,-31.73828125,-40.52734375,-23.4375,0.0,0,0
1772022412.086046,1772022412.0391104,-43.45703125,-27.83203125,-49.8046875,-54.6875,0.0,0,0
1772022412.0861208,1772022412.0429976,-37.109375,-30.2734375,-39.0625,-53.22265625,0.0,0,0
1772022412.086209,1772022412.0468848,-4.8828125,-27.34375,-29.296875,-29.296875,0.0,0,0
1772022412.086277,1772022412.0507722,2.44140625,-10.7421875,-25.390625,-16.11328125,0.0,0,0
1772022412.0863621,1772022412.0546594,-17.08984375,-16.11328125,-36.1328125,-26.3671875,0.0,0,0
1772022412.0864398,1772022412.0585465,-28.80859375,-44.43359375,-47.36328125,-42.96875,0.0,0,0
1772022412.1311622,1772022412.062654,-25.390625,-42.48046875,-42.96875,-45.41015625,0.0,0,0
1772022412.1313071,1772022412.0665414,-3.90625,-16.6015625,-23.92578125,-20.99609375,0.0,0,0
1772022412.131356,1772022412.0704288,13.671875,-14.6484375,-17.578125,-7.8125,0.0,0,0
1772022412.131405,1772022412.074316,-13.18359375,-29.296875,-26.85546875,-11.23046875,0.0,0,0
1772022412.131458,1772022412.0782034,-40.52734375,-27.83203125,-39.0625,-25.390625,0.0,0,0
1772022412.131505,1772022412.0820906,-34.66796875,-10.25390625,-38.57421875,-43.45703125,0.0,0,0
1772022412.131551,1772022412.085978,-8.30078125,-5.37109375,-19.04296875,-25.87890625,0.0,0,0
1772022412.131604,1772022412.0898654,4.8828125,-34.1796875,-15.625,-3.41796875,0.0,0,0
1772022412.131648,1772022412.0937526,-13.18359375,-40.52734375,-24.90234375,-13.18359375,0.0,0,0
1772022412.131712,1772022412.09764,-47.36328125,-24.90234375,-41.50390625,-45.8984375,0.0,0,0
1772022412.131763,1772022412.1015272,-52.734375,-21.97265625,-43.45703125,-53.7109375,0.0,0,0
1772022412.131835,1772022412.1054146,-25.390625,-17.08984375,-26.85546875,-31.25,0.0,0,0
1772022412.1771882,1772022412.1095097,-3.90625,-11.71875,-16.11328125,-14.16015625,0.0,0,0
1772022412.177342,1772022412.1133971,-4.8828125,-30.2734375,-18.06640625,-12.6953125,0.0,0,0
1772022412.177409,1772022412.1172845,-41.50390625,-45.8984375,-32.71484375,-34.1796875,0.0,0,0
1772022412.17747,1772022412.121172,-35.64453125,-40.52734375,-36.1328125,-51.7578125,0.0,0,0
1772022412.177535,1772022412.1250594,-21.97265625,-32.71484375,-21.97265625,-29.296875,0.0,0,0
1772022412.177593,1772022412.1289468,-1.953125,-13.18359375,-16.11328125,-3.90625,0.0,0,0
1772022412.1776571,1772022412.132834,22.4609375,-15.625,-22.94921875,-2.44140625,0.0,0,0
1772022412.177715,1772022412.1367214,-36.62109375,-18.5546875,-46.38671875,-26.3671875,0.0,0,0
1772022412.1777852,1772022412.1406088,-71.2890625,-14.6484375,-56.15234375,-52.734375,0.0,0,0
1772022412.1778471,1772022412.1444962,-41.015625,-20.5078125,-30.76171875,-35.64453125,0.0,0,0
1772022412.177919,1772022412.1483836,-6.34765625,-6.34765625,-13.18359375,-6.34765625,0.0,0,0
1772022412.1779861,1772022412.152271,13.18359375,-6.8359375,-20.99609375,-6.34765625,0.0,0,0
1772022412.2217028,1772022412.156347,-22.94921875,-27.83203125,-41.50390625,-29.296875,0.0,0,0
1772022412.221824,1772022412.1602345,-50.78125,-39.55078125,-43.9453125,-47.36328125,0.0,0,0
1772022412.221897,1772022412.1641219,-22.94921875,-37.109375,-26.3671875,-39.0625,0.0,0,0
1772022412.2219589,1772022412.1680093,8.7890625,-15.13671875,-9.765625,-12.20703125,0.0,0,0
1772022412.222019,1772022412.1718967,-3.90625,-6.8359375,-12.20703125,-6.34765625,0.0,0,0
1772022412.22208,1772022412.175784,-38.57421875,-19.53125,-35.64453125,-31.25,0.0,0,0
1772022412.2221382,1772022412.1796715,-58.10546875,-40.52734375,-43.9453125,-53.22265625,0.0,0,0
1772022412.2222002,1772022412.1835592,-52.734375,-35.15625,-37.59765625,-57.12890625,0.0,0,0
1772022412.2222579,1772022412.1874466,-24.90234375,-18.06640625,-26.85546875,-32.2265625,0.0,0,0
1772022412.2223182,1772022412.191334,-8.30078125,-23.92578125,-17.578125,-9.27734375,0.0,0,0
1772022412.2223759,1772022412.1952214,-26.3671875,-38.0859375,-25.87890625,-24.4140625,0.0,0,0
1772022412.222435,1772022412.1991088,-56.640625,-41.015625,-41.015625,-38.57421875,0.0,0,0
1772022412.26824,1772022412.203167,-59.5703125,-25.87890625,-39.55078125,-41.015625,0.0,0,0
1772022412.2683861,1772022412.2070544,-36.62109375,-12.20703125,-19.53125,-32.2265625,0.0,0,0
1772022412.268493,1772022412.2109418,-18.06640625,-13.18359375,-10.7421875,-11.71875,0.0,0,0
1772022412.268554,1772022412.2148292,-35.64453125,-25.390625,-29.78515625,-16.11328125,0.0,0,0
1772022412.268616,1772022412.2187169,-63.96484375,-28.3203125,-39.55078125,-36.1328125,0.0,0,0
1772022412.268676,1772022412.2226043,-65.91796875,-19.53125,-30.76171875,-39.55078125,0.0,0,0
1772022412.268734,1772022412.2264917,-46.875,-35.64453125,-16.6015625,-23.4375,0.0,0,0
1772022412.26879,1772022412.2303793,-41.50390625,-69.3359375,-14.16015625,-16.6015625,0.0,0,0
1772022412.2688482,1772022412.2342668,-45.8984375,-66.89453125,-26.3671875,-8.7890625,0.0,0,0
1772022412.2689059,1772022412.2381542,-67.3828125,-41.9921875,-44.921875,-25.390625,0.0,0,0
1772022412.26897,1772022412.2420416,-78.61328125,-28.3203125,-45.8984375,-39.0625,0.0,0,0
1772022412.269027,1772022412.2459292,-49.31640625,-38.0859375,-18.06640625,-6.8359375,0.0,0,0
1772022412.324203,1772022412.2499592,-32.2265625,-43.9453125,-11.71875,9.765625,0.0,0,0
1772022412.324369,1772022412.2538466,-53.22265625,-32.2265625,-35.15625,1.953125,0.0,0,0
1772022412.3244338,1772022412.2577343,-81.54296875,-25.390625,-62.01171875,-44.921875,0.0,0,0
1772022412.3244958,1772022412.2616217,-66.89453125,-18.5546875,-66.40625,-60.05859375,0.0,0,0
1772022412.3256462,1772022412.2655091,-40.0390625,-20.99609375,-31.25,-2.9296875,0.0,0,0
1772022412.325713,1772022412.2693968,-50.29296875,-29.78515625,-3.41796875,31.73828125,0.0,0,0
1772022412.3257751,1772022412.2732842,-62.98828125,-46.38671875,-10.25390625,32.71484375,0.0,0,0
1772022412.325839,1772022412.2771719,-83.0078125,-51.26953125,-32.2265625,-0.9765625,0.0,0,0
1772022412.325897,1772022412.2810593,-98.14453125,-43.9453125,-32.71484375,-22.4609375,0.0,0,0
1772022412.325954,1772022412.284947,-70.3125,-44.921875,-5.859375,5.37109375,0.0,0,0
1772022412.3260102,1772022412.2888343,-30.2734375,-42.48046875,5.37109375,34.1796875,0.0,0,0
1772022412.326067,1772022412.2927217,-29.78515625,-54.19921875,-10.25390625,35.64453125,0.0,0,0
1772022412.370532,1772022412.2967339,-62.5,-55.6640625,-20.5078125,19.53125,0.0,0,0
1772022412.370637,1772022412.3006215,-75.68359375,-40.52734375,-21.484375,8.30078125,0.0,0,0
1772022412.3706849,1772022412.3045092,-49.31640625,-42.48046875,-2.9296875,21.484375,0.0,0,0
1772022412.370728,1772022412.3083966,-16.6015625,-33.69140625,3.41796875,29.296875,0.0,0,0
1772022412.370771,1772022412.3122842,-23.4375,-32.2265625,-8.30078125,34.66796875,0.0,0,0
1772022412.370813,1772022412.3161716,-52.734375,-66.40625,-27.34375,19.53125,0.0,0,0
1772022412.370854,1772022412.3200593,-68.359375,-74.70703125,-31.73828125,0.48828125,0.0,0,0
1772022412.370944,1772022412.3239467,-37.109375,-51.26953125,-9.27734375,30.76171875,0.0,0,0
1772022412.3710122,1772022412.3278344,-17.578125,-50.78125,3.90625,56.15234375,0.0,0,0
1772022412.371103,1772022412.331722,-32.71484375,-44.921875,-6.8359375,42.48046875,0.0,0,0
1772022412.3711731,1772022412.3356094,-50.29296875,-34.66796875,-24.4140625,12.20703125,0.0,0,0
1772022412.3712199,1772022412.339497,-71.2890625,-39.0625,-21.484375,3.41796875,0.0,0,0
1772022412.416172,1772022412.3436375,-54.6875,-27.34375,-12.20703125,4.39453125,0.0,0,0
1772022412.4163158,1772022412.3475251,-17.578125,-15.625,-5.859375,27.83203125,0.0,0,0
1772022412.4163651,1772022412.3514128,-10.25390625,-27.34375,-10.25390625,49.8046875,0.0,0,0
1772022412.416409,1772022412.3553004,-36.62109375,-41.9921875,-34.66796875,35.15625,0.0,0,0
1772022412.4164531,1772022412.3591878,-66.89453125,-57.6171875,-40.0390625,15.13671875,0.0,0,0
1772022412.416497,1772022412.3630755,-57.6171875,-54.19921875,-25.390625,14.6484375,0.0,0,0
1772022412.416542,1772022412.3669631,-32.71484375,-25.87890625,-0.9765625,36.1328125,0.0,0,0
1772022412.416611,1772022412.3708508,-26.3671875,-11.23046875,-2.44140625,54.19921875,0.0,0,0
1772022412.416662,1772022412.3747385,-34.66796875,-23.92578125,-32.71484375,46.38671875,0.0,0,0
1772022412.416725,1772022412.378626,-67.3828125,-39.0625,-39.0625,4.8828125,0.0,0,0
1772022412.416765,1772022412.3825138,-54.19921875,-40.0390625,-27.83203125,10.7421875,0.0,0,0
1772022412.416828,1772022412.3864012,-15.13671875,-33.69140625,-14.16015625,60.05859375,0.0,0,0
1772022412.460248,1772022412.390524,-18.5546875,-28.3203125,-7.32421875,74.21875,0.0,0,0
1772022412.460371,1772022412.3944118,-23.92578125,-28.3203125,-28.3203125,56.15234375,0.0,0,0
1772022412.4604218,1772022412.3982995,-54.6875,-28.80859375,-51.26953125,20.5078125,0.0,0,0
1772022412.4604669,1772022412.402187,-52.24609375,-23.4375,-47.36328125,15.13671875,0.0,0,0
1772022412.460525,1772022412.4060748,-7.32421875,-22.94921875,-26.3671875,54.6875,0.0,0,0
1772022412.4605691,1772022412.4099624,-15.13671875,-16.11328125,-21.97265625,66.89453125,0.0,0,0
1772022412.460612,1772022412.41385,-42.48046875,-27.34375,-29.78515625,65.4296875,0.0,0,0
1772022412.460659,1772022412.4177377,-64.94140625,-40.52734375,-32.71484375,65.91796875,0.0,0,0
1772022412.460722,1772022412.4216256,-59.5703125,-56.640625,-25.390625,68.359375,0.0,0,0
1772022412.460785,1772022412.4255133,-40.52734375,-50.78125,-7.32421875,70.80078125,0.0,0,0
1772022412.4608462,1772022412.429401,-31.25,-30.76171875,-1.953125,86.42578125,0.0,0,0
1772022412.460889,1772022412.4332886,-31.25,-29.78515625,-13.18359375,96.6796875,0.0,0,0
1772022412.505387,1772022412.4373908,-65.4296875,-35.64453125,-23.92578125,72.265625,0.0,0,0
1772022412.505553,1772022412.4412785,-64.94140625,-37.59765625,-15.625,75.1953125,0.0,0,0
1772022412.505625,1772022412.4451663,-30.76171875,-26.3671875,5.37109375,105.95703125,0.0,0,0
1772022412.505685,1772022412.449054,-10.7421875,-22.4609375,4.8828125,123.53515625,0.0,0,0
1772022412.505742,1772022412.4529417,-13.18359375,-30.76171875,-11.23046875,120.1171875,0.0,0,0
1772022412.5058,1772022412.4568295,-40.52734375,-40.0390625,-21.484375,106.93359375,0.0,0,0
1772022412.505857,1772022412.4607172,-76.66015625,-41.9921875,-36.62109375,74.70703125,0.0,0,0
1772022412.505918,1772022412.464605,-63.4765625,-30.2734375,-27.34375,73.73046875,0.0,0,0
1772022412.505993,1772022412.4684927,-31.73828125,-24.90234375,-8.30078125,102.5390625,0.0,0,0
1772022412.506068,1772022412.4723804,-20.99609375,-24.90234375,-7.32421875,97.16796875,0.0,0,0
1772022412.506125,1772022412.4762683,-46.38671875,-24.4140625,-25.390625,83.0078125,0.0,0,0
1772022412.50619,1772022412.480156,-62.01171875,-21.484375,-44.921875,59.08203125,0.0,0,0
1772022412.551542,1772022412.4842415,-35.15625,-19.53125,-25.87890625,69.82421875,0.0,0,0
1772022412.551666,1772022412.4881291,-13.671875,-16.6015625,-3.90625,104.4921875,0.0,0,0
1772022412.551727,1772022412.492017,-20.01953125,-12.6953125,-7.32421875,87.40234375,0.0,0,0
1772022412.551787,1772022412.4959047,-70.80078125,-20.99609375,-28.3203125,59.08203125,0.0,0,0
1772022412.551847,1772022412.4997926,-85.44921875,-16.6015625,-42.96875,33.203125,0.0,0,0
1772022412.551906,1772022412.5036805,-37.59765625,-4.8828125,-27.34375,27.34375,0.0,0,0
1772022412.5519621,1772022412.5075681,-13.671875,2.44140625,-7.8125,64.94140625,0.0,0,0
1772022412.552019,1772022412.511456,-27.34375,-16.6015625,-15.13671875,79.58984375,0.0,0,0
1772022412.552084,1772022412.5153437,-53.7109375,-40.0390625,-40.0390625,45.41015625,0.0,0,0
1772022412.5521438,1772022412.5192316,-79.58984375,-39.0625,-41.015625,20.99609375,0.0,0,0
1772022412.552198,1772022412.5231194,-71.2890625,-40.0390625,-19.04296875,42.96875,0.0,0,0
1772022412.5522392,1772022412.527007,-41.50390625,-22.4609375,-10.25390625,51.7578125,0.0,0,0
1772022412.6246982,1772022412.5312183,-29.78515625,-8.30078125,-18.5546875,40.0390625,0.0,0,0
1772022412.624801,1772022412.5351062,-52.24609375,-17.08984375,-35.64453125,26.85546875,0.0,0,0
1772022412.624841,1772022412.538994,-75.68359375,-32.71484375,-42.48046875,-1.953125,0.0,0,0
1772022412.624876,1772022412.542882,-61.5234375,-28.3203125,-26.85546875,2.44140625,0.0,0,0
1772022412.624911,1772022412.5467699,-32.2265625,-28.80859375,-4.8828125,44.921875,0.0,0,0
1772022412.6249442,1772022412.5506577,-16.6015625,-27.83203125,-0.48828125,46.38671875,0.0,0,0
1772022412.6249778,1772022412.5545456,-40.0390625,-37.109375,-17.578125,22.94921875,0.0,0,0
1772022412.625011,1772022412.5584335,-60.05859375,-57.6171875,-35.15625,1.953125,0.0,0,0
1772022412.6250439,1772022412.5623214,-57.12890625,-45.8984375,-33.203125,-11.23046875,0.0,0,0
1772022412.625082,1772022412.5662093,-33.69140625,-40.0390625,-13.18359375,8.30078125,0.0,0,0
1772022412.625115,1772022412.5700972,-20.99609375,-29.78515625,-9.765625,20.5078125,0.0,0,0
1772022412.625152,1772022412.573985,-40.52734375,-8.7890625,-32.2265625,0.0,0.0,0,0
1772022412.6407008,1772022412.5780504,-68.359375,-8.7890625,-46.875,-20.99609375,0.0,0,0
1772022412.640756,1772022412.5819383,-69.82421875,-14.16015625,-45.8984375,-38.0859375,0.0,0,0
1772022412.640783,1772022412.5858262,-34.66796875,-10.7421875,-28.3203125,-23.92578125,0.0,0,0
1772022412.640807,1772022412.589714,-15.625,-18.06640625,-9.27734375,12.6953125,0.0,0,0
1772022412.64083,1772022412.593602,-23.92578125,-28.3203125,-22.94921875,1.46484375,0.0,0,0
1772022412.6408992,1772022412.59749,-53.7109375,-29.78515625,-42.96875,-31.25,0.0,0,0
1772022412.640949,1772022412.601378,-67.3828125,-28.3203125,-32.2265625,-40.0390625,0.0,0,0
1772022412.6409779,1772022412.6052659,-29.296875,-14.6484375,-21.484375,-41.50390625,0.0,0,0
1772022412.641003,1772022412.6091537,-10.7421875,-18.06640625,-25.390625,-34.66796875,0.0,0,0
1772022412.6411352,1772022412.6130416,-27.83203125,-24.4140625,-30.2734375,-22.94921875,0.0,0,0
1772022412.641162,1772022412.6169295,-59.08203125,-46.875,-48.33984375,-44.43359375,0.0,0,0
1772022412.641186,1772022412.6208177,-69.82421875,-52.734375,-50.29296875,-62.01171875,0.0,0,0
1772022412.698953,1772022412.6248536,-37.109375,-25.390625,-23.4375,-33.69140625,0.0,0,0
1772022412.699022,1772022412.6287415,-15.13671875,-20.99609375,-22.4609375,-16.11328125,0.0,0,0
1772022412.6990469,1772022412.6326296,-22.4609375,-29.296875,-30.2734375,-23.92578125,0.0,0,0
1772022412.699071,1772022412.6365175,-52.24609375,-35.15625,-38.0859375,-54.19921875,0.0,0,0
1772022412.699094,1772022412.6404054,-50.29296875,-30.2734375,-46.38671875,-67.87109375,0.0,0,0
1772022412.699117,1772022412.6442935,-25.87890625,-21.484375,-27.83203125,-36.62109375,0.0,0,0
1772022412.69914,1772022412.6481814,-19.53125,-41.015625,-10.7421875,-8.30078125,0.0,0,0
1772022412.699163,1772022412.6520693,-32.2265625,-42.48046875,-19.04296875,-15.625,0.0,0,0
1772022412.699188,1772022412.6559575,-66.89453125,-31.25,-40.0390625,-47.8515625,0.0,0,0
1772022412.69921,1772022412.6598454,-79.58984375,-28.80859375,-46.38671875,-59.5703125,0.0,0,0
1772022412.699233,1772022412.6637335,-45.41015625,-10.7421875,-26.3671875,-52.734375,0.0,0,0
1772022412.6992562,1772022412.6676214,-13.671875,-12.20703125,-10.7421875,-32.2265625,0.0,0,0
1772022412.7459588,1772022412.671784,-29.296875,-15.13671875,-20.5078125,-23.4375,0.0,0,0
1772022412.746026,1772022412.6756718,-54.6875,-17.578125,-41.015625,-46.875,0.0,0,0
1772022412.7460601,1772022412.67956,-59.5703125,-25.390625,-47.36328125,-69.3359375,0.0,0,0
1772022412.746092,1772022412.683448,-59.5703125,-21.484375,-40.52734375,-77.63671875,0.0,0,0
1772022412.746121,1772022412.687336,-38.0859375,-19.04296875,-26.85546875,-60.546875,0.0,0,0
1772022412.746152,1772022412.691224,-27.83203125,-33.203125,-18.06640625,-50.29296875,0.0,0,0
1772022412.74618,1772022412.6951122,-51.7578125,-43.9453125,-29.296875,-59.08203125,0.0,0,0
1772022412.746212,1772022412.6990001,-68.84765625,-43.45703125,-45.41015625,-86.42578125,0.0,0,0
1772022412.746241,1772022412.7028883,-61.5234375,-40.0390625,-38.57421875,-99.609375,0.0,0,0
1772022412.7462678,1772022412.7067764,-32.71484375,-47.8515625,-17.08984375,-65.4296875,0.0,0,0
1772022412.7462971,1772022412.7106643,-13.671875,-46.875,-8.7890625,-39.0625,0.0,0,0
1772022412.746324,1772022412.7145524,-40.0390625,-40.0390625,-26.3671875,-62.98828125,0.0,0,0
1772022412.792717,1772022412.7186928,-68.84765625,-41.015625,-40.52734375,-96.6796875,0.0,0,0
1772022412.792834,1772022412.722581,-50.78125,-20.99609375,-31.73828125,-91.30859375,0.0,0,0
1772022412.7928672,1772022412.7264688,-24.90234375,-11.71875,-16.11328125,-64.453125,0.0,0,0
1772022412.792896,1772022412.730357,-23.92578125,-18.06640625,-11.23046875,-55.17578125,0.0,0,0
1772022412.792924,1772022412.734245,-39.0625,-30.2734375,-20.5078125,-59.08203125,0.0,0,0
1772022412.792952,1772022412.7381332,-75.68359375,-22.94921875,-39.0625,-91.796875,0.0,0,0
1772022412.792982,1772022412.7420213,-70.3125,-24.4140625,-36.62109375,-98.6328125,0.0,0,0
1772022412.79301,1772022412.7459095,-27.83203125,-24.90234375,-15.625,-62.01171875,0.0,0,0
1772022412.7930381,1772022412.7497976,-13.671875,-21.484375,-13.18359375,-53.7109375,0.0,0,0
1772022412.793067,1772022412.7536857,-29.78515625,-51.26953125,-27.34375,-66.40625,0.0,0,0
1772022412.7930949,1772022412.7575738,-69.3359375,-56.15234375,-44.43359375,-97.16796875,0.0,0,0
1772022412.793122,1772022412.761462,-55.6640625,-39.55078125,-41.50390625,-106.4453125,0.0,0,0
1772022412.838333,1772022412.7655861,-0.48828125,-29.296875,-16.6015625,-83.49609375,0.0,0,0
1772022412.83849,1772022412.7694745,-0.9765625,-29.78515625,-12.6953125,-75.1953125,0.0,0,0
1772022412.838631,1772022412.7733626,-33.203125,-29.296875,-32.2265625,-82.51953125,0.0,0,0
1772022412.838699,1772022412.7772508,-46.875,-34.1796875,-48.828125,-109.375,0.0,0,0
1772022412.838759,1772022412.781139,-43.45703125,-38.0859375,-48.828125,-115.234375,0.0,0,0
1772022412.838818,1772022412.785027,-19.04296875,-24.90234375,-25.87890625,-77.63671875,0.0,0,0
1772022412.838877,1772022412.7889154,4.39453125,-18.5546875,-17.578125,-63.4765625,0.0,0,0
1772022412.8389351,1772022412.7928035,-17.08984375,-32.71484375,-22.94921875,-69.82421875,0.0,0,0
1772022412.8389928,1772022412.7966917,-62.01171875,-61.5234375,-37.109375,-86.42578125,0.0,0,0
1772022412.839051,1772022412.8005798,-67.87109375,-39.0625,-50.29296875,-106.4453125,0.0,0,0
1772022412.839108,1772022412.804468,-25.390625,-5.37109375,-29.296875,-94.7265625,0.0,0,0
1772022412.839165,1772022412.8083563,4.8828125,-19.04296875,-12.20703125,-61.03515625,0.0,0,0
1772022412.925889,1772022412.8127441,-11.23046875,-22.4609375,-19.04296875,-50.29296875,0.0,0,0
1772022412.926077,1772022412.8166325,-59.08203125,-29.296875,-41.015625,-82.03125,0.0,0,0
1772022412.926146,1772022412.8205209,-69.82421875,-20.99609375,-48.33984375,-99.609375,0.0,0,0
1772022412.926208,1772022412.8244092,-41.9921875,-4.8828125,-21.97265625,-72.265625,0.0,0,0
1772022412.9262688,1772022412.8282974,-22.94921875,4.39453125,-7.8125,-22.94921875,0.0,0,0
1772022412.9263282,1772022412.8321857,-22.4609375,-11.23046875,-22.4609375,-35.15625,0.0,0,0
1772022412.92652,1772022412.836074,-46.38671875,-34.1796875,-40.52734375,-64.94140625,0.0,0,0
1772022412.926621,1772022412.8399625,-66.40625,-29.78515625,-44.43359375,-56.15234375,0.0,0,0
1772022412.926689,1772022412.8438506,-45.8984375,-42.96875,-30.2734375,-41.9921875,0.0,0,0
1772022412.926749,1772022412.847739,-23.92578125,-32.71484375,-13.18359375,-28.80859375,0.0,0,0
1772022412.926806,1772022412.8516273,-29.78515625,-24.4140625,-14.6484375,-33.203125,0.0,0,0
1772022412.926864,1772022412.8555157,-42.96875,-27.83203125,-30.76171875,-40.52734375,0.0,0,0
1772022412.9281,1772022412.859627,-41.50390625,-19.53125,-33.203125,-49.8046875,0.0,0,0
1772022412.9281988,1772022412.8635154,-47.8515625,-10.7421875,-21.484375,-52.24609375,0.0,0,0
1772022412.9282649,1772022412.8674037,-32.71484375,-6.34765625,0.9765625,-9.765625,0.0,0,0
1772022412.928328,1772022412.871292,-15.625,-6.8359375,5.859375,1.46484375,0.0,0,0
1772022412.928386,1772022412.8751805,-46.38671875,-24.4140625,-26.3671875,-39.55078125,0.0,0,0
1772022412.9284952,1772022412.8790689,-62.01171875,-27.83203125,-46.38671875,-46.38671875,0.0,0,0
1772022412.928549,1772022412.8829572,-48.828125,-15.625,-30.2734375,-40.52734375,0.0,0,0
1772022412.9285939,1772022412.8868456,-24.4140625,-27.34375,-2.9296875,-9.765625,0.0,0,0
1772022412.928641,1772022412.890734,-23.92578125,-32.71484375,-2.9296875,6.34765625,0.0,0,0
1772022412.928683,1772022412.8946223,-38.57421875,-19.53125,-23.92578125,-8.30078125,0.0,0,0
1772022412.928726,1772022412.8985107,-55.17578125,-19.53125,-36.1328125,-24.4140625,0.0,0,0
1772022412.9288352,1772022412.902399,-60.546875,-35.15625,-37.109375,-31.73828125,0.0,0,0
1772022412.9730911,1772022412.9064684,-32.2265625,-41.50390625,-14.16015625,-2.9296875,0.0,0,0
1772022412.973231,1772022412.9103568,-17.578125,-32.2265625,-12.20703125,22.4609375,0.0,0,0
1772022412.9732742,1772022412.9142451,-29.78515625,-43.9453125,-30.76171875,16.11328125,0.0,0,0
1772022412.973312,1772022412.9181337,-69.82421875,-63.4765625,-21.97265625,-2.9296875,0.0,0,0
1772022412.973346,1772022412.922022,-73.2421875,-49.8046875,-23.92578125,-3.90625,0.0,0,0
1772022412.973383,1772022412.9259105,-24.90234375,-17.08984375,-24.4140625,9.765625,0.0,0,0
1772022412.973417,1772022412.9297988,-17.578125,-10.25390625,-13.18359375,30.2734375,0.0,0,0
1772022412.97345,1772022412.9336872,-53.7109375,-46.875,-20.01953125,36.62109375,0.0,0,0
1772022412.973483,1772022412.9375758,-69.82421875,-44.43359375,-37.109375,10.7421875,0.0,0,0
1772022412.973516,1772022412.9414642,-64.453125,-16.6015625,-42.48046875,14.6484375,0.0,0,0
1772022412.9735491,1772022412.9453526,-37.59765625,-21.484375,-17.578125,27.83203125,0.0,0,0
1772022412.973582,1772022412.949241,-31.25,-39.0625,-4.8828125,47.8515625,0.0,0,0
1772022413.015263,1772022412.953289,-44.921875,-29.296875,-11.23046875,81.0546875,0.0,0,0
1772022413.015403,1772022412.9571774,-48.828125,-32.2265625,-29.296875,69.82421875,0.0,0,0
1772022413.0154262,1772022412.961066,-40.52734375,-43.9453125,-43.45703125,40.52734375,0.0,0,0
1772022413.015445,1772022412.9649544,-33.69140625,-40.0390625,-16.6015625,49.31640625,0.0,0,0
1772022413.0154629,1772022412.9688427,-9.27734375,-17.578125,-3.90625,79.1015625,0.0,0,0
1772022413.015481,1772022412.9727314,11.71875,-13.18359375,-12.6953125,79.1015625,0.0,0,0
1772022413.015498,1772022412.9766197,-55.17578125,-66.40625,-47.36328125,12.20703125,0.0,0,0
1772022413.0155158,1772022412.980508,-43.45703125,-65.4296875,-48.828125,21.97265625,0.0,0,0
1772022413.015533,1772022412.9843967,32.71484375,-10.25390625,-5.37109375,80.078125,0.0,0,0
1772022413.01555,1772022412.988285,39.0625,-5.37109375,2.9296875,75.68359375,0.0,0,0
1772022413.015578,1772022412.9921737,21.97265625,-15.13671875,-2.9296875,65.4296875,0.0,0,0
1772022413.015595,1772022412.996062,-16.6015625,-27.83203125,-18.5546875,29.78515625,0.0,0,0
1772022413.07506,1772022413.0000975,-21.484375,-29.78515625,-24.90234375,26.3671875,0.0,0,0
1772022413.075105,1772022413.0039861,5.859375,-21.97265625,-20.01953125,41.50390625,0.0,0,0
1772022413.075119,1772022413.0078745,25.87890625,-19.53125,-11.71875,39.55078125,0.0,0,0
1772022413.0751328,1772022413.011763,31.73828125,-20.99609375,-5.37109375,53.7109375,0.0,0,0
1772022413.075147,1772022413.0156515,-11.71875,-47.36328125,-31.25,28.3203125,0.0,0,0
1772022413.07516,1772022413.01954,-15.625,-26.85546875,-30.76171875,19.53125,0.0,0,0
1772022413.0751739,1772022413.0234284,6.8359375,-17.08984375,-13.671875,36.1328125,0.0,0,0
1772022413.075187,1772022413.027317,15.625,-26.3671875,-8.30078125,55.17578125,0.0,0,0
1772022413.0752,1772022413.0312054,23.92578125,-14.16015625,-7.8125,63.4765625,0.0,0,0
1772022413.075213,1772022413.035094,-8.7890625,-30.2734375,-33.203125,24.90234375,0.0,0,0
1772022413.0752268,1772022413.0389826,-52.734375,-53.7109375,-57.6171875,-24.90234375,0.0,0,0
1772022413.07524,1772022413.042871,-14.16015625,-33.69140625,-44.921875,-7.32421875,0.0,0,0
1772022413.1198988,1772022413.0469038,46.38671875,-3.90625,-12.6953125,38.0859375,0.0,0,0
1772022413.119927,1772022413.0507925,43.45703125,-17.578125,-3.90625,48.828125,0.0,0,0
1772022413.119945,1772022413.054681,11.71875,-29.296875,-21.97265625,44.43359375,0.0,0,0
1772022413.1199622,1772022413.0585697,-14.6484375,-37.59765625,-44.921875,-0.9765625,0.0,0,0
1772022413.12002,1772022413.062458,-5.859375,-33.69140625,-41.9921875,-30.76171875,0.0,0,0
1772022413.1200461,1772022413.0663466,22.4609375,-26.85546875,-11.71875,0.0,0.0,0,0
1772022413.120064,1772022413.0702353,24.90234375,-24.90234375,-5.859375,20.99609375,0.0,0,0
1772022413.1200829,1772022413.0741236,-6.8359375,-22.94921875,-29.296875,-1.46484375,0.0,0,0
1772022413.1201,1772022413.0780122,-24.4140625,-31.25,-40.0390625,-25.87890625,0.0,0,0
1772022413.120117,1772022413.0819008,-22.4609375,-36.62109375,-33.203125,-38.0859375,0.0,0,0
1772022413.1201348,1772022413.0857894,-10.25390625,-29.296875,-23.92578125,-31.25,0.0,0,0
1772022413.1201532,1772022413.0896778,-3.90625,-12.6953125,-25.390625,-19.04296875,0.0,0,0
1772022413.1650739,1772022413.0938082,-10.25390625,-27.34375,-32.71484375,-22.4609375,0.0,0,0
1772022413.1651149,1772022413.0976968,-17.578125,-40.0390625,-41.015625,-48.33984375,0.0,0,0
1772022413.1651268,1772022413.1015854,-18.06640625,-26.3671875,-43.45703125,-64.94140625,0.0,0,0
1772022413.165139,1772022413.105474,4.39453125,-18.06640625,-21.97265625,-49.31640625,0.0,0,0
1772022413.16515,1772022413.1093626,33.69140625,-15.625,-8.7890625,-31.25,0.0,0,0
1772022413.165161,1772022413.1132512,24.90234375,-15.625,-16.6015625,-25.87890625,0.0,0,0
1772022413.1651719,1772022413.1171398,-15.13671875,-20.01953125,-36.1328125,-52.24609375,0.0,0,0
1772022413.1652212,1772022413.1210284,-26.3671875,-19.53125,-40.0390625,-73.2421875,0.0,0,0
1772022413.1652439,1772022413.124917,-1.953125,-26.3671875,-16.11328125,-53.22265625,0.0,0,0
1772022413.165257,1772022413.1288056,24.90234375,-33.69140625,-2.44140625,-22.4609375,0.0,0,0
1772022413.165268,1772022413.1326942,18.5546875,-26.3671875,-13.18359375,-29.296875,0.0,0,0
1772022413.165279,1772022413.1365829,-17.578125,-28.80859375,-33.69140625,-62.98828125,0.0,0,0
1772022413.225591,1772022413.1406991,-25.87890625,-14.6484375,-35.64453125,-71.2890625,0.0,0,0
1772022413.225625,1772022413.144588,0.0,-5.37109375,-23.4375,-62.98828125,0.0,0,0
1772022413.2256372,1772022413.1484766,26.3671875,-4.39453125,-14.16015625,-47.8515625,0.0,0,0
1772022413.2256472,1772022413.1523652,10.7421875,-3.90625,-18.5546875,-41.015625,0.0,0,0
1772022413.225657,1772022413.1562538,-27.83203125,-16.11328125,-40.52734375,-60.05859375,0.0,0,0
1772022413.225667,1772022413.1601427,-31.25,-36.62109375,-44.43359375,-64.453125,0.0,0,0
1772022413.225677,1772022413.1640313,0.48828125,-55.6640625,-23.92578125,-39.0625,0.0,0,0
1772022413.2257159,1772022413.1679199,11.23046875,-47.36328125,-16.6015625,-34.66796875,0.0,0,0
1772022413.225734,1772022413.1718085,-13.18359375,-48.33984375,-28.3203125,-41.9921875,0.0,0,0
1772022413.225753,1772022413.175697,-41.015625,-53.7109375,-44.43359375,-61.03515625,0.0,0,0
1772022413.2257988,1772022413.179586,-56.15234375,-25.87890625,-46.38671875,-85.44921875,0.0,0,0
1772022413.225824,1772022413.1834745,-42.48046875,-4.8828125,-36.1328125,-74.70703125,0.0,0,0
1772022413.256961,1772022413.1875782,-18.5546875,-5.37109375,-27.34375,-52.734375,0.0,0,0
1772022413.2569978,1772022413.1914668,-3.90625,-15.625,-24.90234375,-35.15625,0.0,0,0
1772022413.25701,1772022413.1953557,-30.2734375,-22.4609375,-43.45703125,-38.0859375,0.0,0,0
1772022413.257021,1772022413.1992443,-49.8046875,-37.59765625,-54.19921875,-54.19921875,0.0,0,0
1772022413.257032,1772022413.2031329,-30.76171875,-42.48046875,-41.50390625,-64.94140625,0.0,0,0
1772022413.257043,1772022413.2070217,-13.671875,-49.8046875,-23.92578125,-52.24609375,0.0,0,0
1772022413.257053,1772022413.2109103,-11.23046875,-43.45703125,-19.04296875,-40.0390625,0.0,0,0
1772022413.2570639,1772022413.2147992,-39.0625,-14.16015625,-40.52734375,-61.03515625,0.0,0,0
1772022413.2570739,1772022413.2186878,-63.4765625,-13.671875,-53.22265625,-80.078125,0.0,0,0
1772022413.257083,1772022413.2225766,-51.26953125,-22.94921875,-38.0859375,-76.66015625,0.0,0,0
1772022413.2570932,1772022413.2264652,-19.04296875,-19.53125,-13.18359375,-52.24609375,0.0,0,0
1772022413.2571032,1772022413.230354,-3.90625,-16.6015625,-25.390625,-53.22265625,0.0,0,0
1772022413.300174,1772022413.2344325,-1.953125,-31.73828125,-46.875,-55.17578125,0.0,0,0
1772022413.300211,1772022413.2383213,-41.9921875,-37.59765625,-41.9921875,-52.24609375,0.0,0,0
1772022413.300224,1772022413.2422101,-62.98828125,-40.0390625,-30.2734375,-65.91796875,0.0,0,0
1772022413.3002381,1772022413.2460988,-30.76171875,-44.43359375,-15.625,-42.96875,0.0,0,0
1772022413.30025,1772022413.2499876,-19.53125,-30.2734375,-18.5546875,-29.78515625,0.0,0,0
1772022413.300263,1772022413.2538764,-32.71484375,-21.97265625,-27.83203125,-45.41015625,0.0,0,0
1772022413.300276,1772022413.257765,-50.29296875,-22.94921875,-45.41015625,-64.94140625,0.0,0,0
1772022413.300288,1772022413.261654,-45.41015625,-40.0390625,-47.8515625,-59.5703125,0.0,0,0
1772022413.300301,1772022413.2655427,-8.30078125,-49.8046875,-20.5078125,-37.109375,0.0,0,0
1772022413.300313,1772022413.2694314,12.20703125,-35.64453125,-7.8125,-24.90234375,0.0,0,0
1772022413.3003252,1772022413.2733202,-3.41796875,-49.31640625,-14.16015625,-19.04296875,0.0,0,0
1772022413.300338,1772022413.277209,-32.71484375,-70.3125,-27.83203125,-37.59765625,0.0,0,0
1772022413.345215,1772022413.2812748,-43.45703125,-59.5703125,-35.64453125,-59.5703125,0.0,0,0
1772022413.345249,1772022413.2851636,-24.90234375,-22.94921875,-17.578125,-46.38671875,0.0,0,0
1772022413.345267,1772022413.2890525,-8.7890625,-19.53125,-10.25390625,-23.4375,0.0,0,0
1772022413.345283,1772022413.2929413,-3.90625,-43.45703125,-19.53125,-22.94921875,0.0,0,0
1772022413.345299,1772022413.2968302,-46.38671875,-56.15234375,-33.69140625,-44.921875,0.0,0,0
1772022413.345314,1772022413.3007188,-63.4765625,-33.203125,-32.2265625,-61.03515625,0.0,0,0
1772022413.3453891,1772022413.3046076,-19.53125,-11.71875,-18.06640625,-55.6640625,0.0,0,0
1772022413.345406,1772022413.3084965,1.953125,-34.66796875,-14.16015625,-39.0625,0.0,0,0
1772022413.345421,1772022413.3123853,-12.6953125,-44.43359375,-20.01953125,-21.97265625,0.0,0,0
1772022413.3454359,1772022413.3162742,-36.62109375,-37.59765625,-38.0859375,-47.8515625,0.0,0,0
1772022413.345451,1772022413.320163,-46.875,-44.921875,-43.45703125,-63.96484375,0.0,0,0
1772022413.3454652,1772022413.3240519,-27.34375,-27.83203125,-17.578125,-36.1328125,0.0,0,0
1772022413.3926558,1772022413.3280957,-24.90234375,-4.39453125,-4.8828125,-18.06640625,0.0,0,0
1772022413.3927019,1772022413.3319845,-25.390625,-13.18359375,-16.6015625,-17.578125,0.0,0,0
1772022413.392719,1772022413.3358734,-36.1328125,-35.15625,-32.71484375,-36.62109375,0.0,0,0
1772022413.392735,1772022413.3397622,-45.8984375,-41.9921875,-42.48046875,-58.10546875,0.0,0,0
1772022413.39275,1772022413.343651,-31.25,-32.2265625,-30.2734375,-57.6171875,0.0,0,0
1772022413.392766,1772022413.34754,-1.953125,-30.76171875,-12.20703125,-26.3671875,0.0,0,0
1772022413.3927839,1772022413.3514287,8.7890625,-31.25,-12.6953125,-12.20703125,0.0,0,0
1772022413.392799,1772022413.3553176,-25.87890625,-36.1328125,-33.203125,-35.64453125,0.0,0,0
1772022413.3928142,1772022413.3592064,-53.7109375,-38.57421875,-43.45703125,-50.78125,0.0,0,0
1772022413.392829,1772022413.3630953,-27.34375,-20.99609375,-32.71484375,-44.43359375,0.0,0,0
1772022413.392844,1772022413.3669841,-8.7890625,-17.08984375,-18.5546875,-27.34375,0.0,0,0
1772022413.392859,1772022413.370873,-24.4140625,-29.78515625,-18.06640625,-20.5078125,0.0,0,0
1772022413.448891,1772022413.374894,-49.8046875,-39.0625,-37.59765625,-39.0625,0.0,0,0
1772022413.44895,1772022413.3787827,-54.6875,-39.0625,-49.8046875,-62.5,0.0,0,0
1772022413.448972,1772022413.3826716,-34.1796875,-31.73828125,-40.0390625,-60.05859375,0.0,0,0
1772022413.4489899,1772022413.3865607,-16.6015625,-23.92578125,-20.99609375,-32.71484375,0.0,0,0
1772022413.4490082,1772022413.3904495,-7.8125,-32.2265625,-7.32421875,-3.41796875,0.0,0,0
1772022413.449026,1772022413.3943384,-27.34375,-31.73828125,-20.5078125,-11.71875,0.0,0,0
1772022413.449043,1772022413.3982272,-47.8515625,-33.203125,-38.57421875,-46.875,0.0,0,0
1772022413.4490612,1772022413.402116,-43.45703125,-35.15625,-32.2265625,-57.12890625,0.0,0,0
1772022413.449078,1772022413.406005,-29.296875,-27.83203125,-15.625,-32.71484375,0.0,0,0
1772022413.449095,1772022413.409894,-19.04296875,-40.52734375,-11.71875,-9.765625,0.0,0,0
1772022413.4491122,1772022413.4137828,-22.94921875,-52.24609375,-21.97265625,-9.765625,0.0,0,0
1772022413.4491289,1772022413.4176717,-54.6875,-44.921875,-32.71484375,-38.57421875,0.0,0,0
1772022413.5239081,1772022413.4219449,-55.17578125,-17.578125,-34.66796875,-54.19921875,0.0,0,0
1772022413.523962,1772022413.4258337,-23.92578125,-4.8828125,-18.06640625,-31.73828125,0.0,0,0
1772022413.523992,1772022413.4297228,-4.39453125,-15.625,-12.6953125,-9.27734375,0.0,0,0
1772022413.524022,1772022413.4336116,-17.08984375,-27.83203125,-24.90234375,-13.671875,0.0,0,0
1772022413.52405,1772022413.4375007,-56.640625,-33.69140625,-36.62109375,-51.7578125,0.0,0,0
1772022413.5240781,1772022413.4413896,-59.5703125,-41.015625,-37.59765625,-70.80078125,0.0,0,0
1772022413.524107,1772022413.4452786,-23.4375,-35.64453125,-17.08984375,-45.8984375,0.0,0,0
1772022413.524134,1772022413.4491677,-5.859375,-37.59765625,-15.13671875,-19.04296875,0.0,0,0
1772022413.524162,1772022413.4530566,-5.37109375,-43.9453125,-32.2265625,-17.578125,0.0,0,0
1772022413.52419,1772022413.4569457,-39.0625,-47.8515625,-45.8984375,-47.36328125,0.0,0,0
1772022413.524218,1772022413.4608345,-61.5234375,-37.109375,-45.41015625,-62.98828125,0.0,0,0
1772022413.524247,1772022413.4647236,-34.1796875,-18.5546875,-24.90234375,-50.29296875,0.0,0,0
1772022413.540842,1772022413.4688494,-23.4375,-24.90234375,-18.5546875,-24.90234375,0.0,0,0
1772022413.5409,1772022413.4727385,-25.87890625,-38.0859375,-25.87890625,-23.92578125,0.0,0,0
1772022413.540939,1772022413.4766276,-35.64453125,-41.015625,-44.921875,-58.59375,0.0,0,0
1772022413.5409741,1772022413.4805167,-39.0625,-32.2265625,-49.31640625,-65.4296875,0.0,0,0
1772022413.5410151,1772022413.4844058,-26.85546875,-24.4140625,-18.5546875,-44.43359375,0.0,0,0
1772022413.541051,1772022413.4882946,-13.671875,-21.484375,-5.37109375,-18.5546875,0.0,0,0
1772022413.541086,1772022413.4921837,-9.27734375,-35.64453125,-19.04296875,-19.04296875,0.0,0,0
1772022413.541122,1772022413.4960728,-41.9921875,-52.24609375,-33.69140625,-47.8515625,0.0,0,0
1772022413.541162,1772022413.4999619,-58.10546875,-46.875,-37.59765625,-49.31640625,0.0,0,0
1772022413.541197,1772022413.503851,-23.4375,-41.50390625,-21.484375,-26.85546875,0.0,0,0
1772022413.541232,1772022413.50774,3.90625,-33.69140625,-11.23046875,3.90625,0.0,0,0
1772022413.54128,1772022413.5116289,0.9765625,-26.3671875,-20.01953125,19.53125,0.0,0,0
1772022413.598778,1772022413.5157294,-25.87890625,-36.62109375,-35.64453125,-7.8125,0.0,0,0
1772022413.598901,1772022413.5196187,-40.0390625,-52.734375,-43.45703125,-34.66796875,0.0,0,0
1772022413.5989492,1772022413.5235078,-17.08984375,-44.921875,-28.80859375,-16.6015625,0.0,0,0
1772022413.598994,1772022413.527397,0.9765625,-24.4140625,-10.25390625,21.484375,0.0,0,0
1772022413.599037,1772022413.531286,-6.8359375,-33.203125,-12.20703125,34.1796875,0.0,0,0
1772022413.5990841,1772022413.535175,-42.96875,-30.2734375,-31.73828125,1.953125,0.0,0,0
1772022413.599125,1772022413.5390642,-63.4765625,-19.04296875,-38.0859375,-30.76171875,0.0,0,0
1772022413.599168,1772022413.5429533,-51.26953125,-31.73828125,-30.76171875,-35.64453125,0.0,0,0
1772022413.5992131,1772022413.5468423,-21.97265625,-48.33984375,-14.6484375,-4.39453125,0.0,0,0
1772022413.599255,1772022413.5507314,-3.41796875,-43.45703125,-7.8125,17.578125,0.0,0,0
1772022413.599297,1772022413.5546205,-30.2734375,-35.64453125,-29.78515625,-8.30078125,0.0,0,0
1772022413.599343,1772022413.5585096,-46.38671875,-52.734375,-48.33984375,-36.1328125,0.0,0,0
1772022413.630643,1772022413.5625994,-24.90234375,-50.29296875,-38.0859375,-37.59765625,0.0,0,0
1772022413.630778,1772022413.5664885,-3.41796875,-24.90234375,-18.06640625,-10.7421875,0.0,0,0
1772022413.6308239,1772022413.5703778,-9.27734375,-13.18359375,-20.5078125,8.30078125,0.0,0,0
1772022413.630868,1772022413.574267,-18.5546875,-33.203125,-35.15625,2.44140625,0.0,0,0
1772022413.6309671,1772022413.578156,-35.64453125,-55.6640625,-40.52734375,-30.2734375,0.0,0,0
1772022413.6310642,1772022413.582045,-35.64453125,-40.52734375,-31.73828125,-52.24609375,0.0,0,0
1772022413.631113,1772022413.5859344,-9.765625,-16.11328125,-14.6484375,-18.06640625,0.0,0,0
1772022413.631157,1772022413.5898235,-2.44140625,-17.578125,-8.30078125,15.13671875,0.0,0,0
1772022413.6312,1772022413.5937126,-16.11328125,-31.73828125,-24.90234375,5.37109375,0.0,0,0
1772022413.631243,1772022413.5976017,-41.50390625,-36.1328125,-43.45703125,-31.73828125,0.0,0,0
1772022413.631286,1772022413.601491,-48.828125,-39.0625,-41.015625,-52.734375,0.0,0,0
1772022413.6313322,1772022413.60538,-25.87890625,-16.11328125,-12.6953125,-16.6015625,0.0,0,0
1772022413.676517,1772022413.60945,4.39453125,-16.11328125,-1.953125,20.99609375,0.0,0,0
1772022413.6766841,1772022413.6133392,12.20703125,-46.38671875,-18.5546875,7.32421875,0.0,0,0
1772022413.6767511,1772022413.6172285,-34.1796875,-41.015625,-41.9921875,-47.36328125,0.0,0,0
1772022413.6768188,1772022413.6211176,-35.15625,-37.109375,-44.43359375,-66.89453125,0.0,0,0
1772022413.6768909,1772022413.6250067,12.20703125,-24.90234375,-17.08984375,-21.97265625,0.0,0,0
1772022413.67695,1772022413.628896,11.23046875,1.46484375,-10.7421875,11.71875,0.0,0,0
1772022413.6770089,1772022413.632785,-14.16015625,-1.953125,-23.92578125,-0.9765625,0.0,0,0
1772022413.6770718,1772022413.6366744,-49.8046875,-30.2734375,-47.8515625,-50.78125,0.0,0,0
1772022413.67713,1772022413.6405635,-57.12890625,-64.94140625,-53.22265625,-77.63671875,0.0,0,0
1772022413.6771998,1772022413.6444528,-18.06640625,-51.26953125,-27.83203125,-45.41015625,0.0,0,0
1772022413.677451,1772022413.648342,11.23046875,-17.08984375,-13.671875,5.859375,0.0,0,0
1772022413.677512,1772022413.6522312,8.30078125,-11.23046875,-19.53125,23.92578125,0.0,0,0
1772022413.720763,1772022413.656286,-9.765625,-33.203125,-41.50390625,-25.87890625,0.0,0,0
1772022413.720928,1772022413.660175,-33.69140625,-49.31640625,-44.43359375,-71.77734375,0.0,0,0
1772022413.720993,1772022413.6640644,-24.4140625,-27.34375,-19.53125,-53.7109375,0.0,0,0
1772022413.7210538,1772022413.6679537,-2.9296875,-2.44140625,-8.30078125,-1.953125,0.0,0,0
1772022413.7211132,1772022413.6718428,-1.46484375,-3.90625,-10.7421875,25.87890625,0.0,0,0
1772022413.721312,1772022413.6757321,-21.97265625,-12.6953125,-29.296875,-16.11328125,0.0,0,0
1772022413.721379,1772022413.6796212,-21.97265625,-24.4140625,-38.57421875,-61.03515625,0.0,0,0
1772022413.721427,1772022413.6835105,-17.08984375,-35.64453125,-22.4609375,-50.78125,0.0,0,0
1772022413.721496,1772022413.6873999,-4.8828125,-22.4609375,-8.7890625,0.9765625,0.0,0,0
1772022413.721549,1772022413.691289,13.18359375,-27.34375,-10.25390625,31.73828125,0.0,0,0
1772022413.7215931,1772022413.6951783,-15.13671875,-36.1328125,-36.62109375,-11.23046875,0.0,0,0
1772022413.721636,1772022413.6990676,-46.875,-32.2265625,-47.8515625,-63.4765625,0.0,0,0
1772022413.765155,1772022413.7031045,-40.0390625,-23.4375,-32.71484375,-56.15234375,0.0,0,0
1772022413.765239,1772022413.7069938,-12.6953125,-12.6953125,-21.97265625,-5.37109375,0.0,0,0
1772022413.765276,1772022413.7108831,-3.90625,-24.4140625,-15.13671875,26.85546875,0.0,0,0
1772022413.765313,1772022413.7147722,-30.2734375,-43.9453125,-34.66796875,-4.39453125,0.0,0,0
1772022413.7653491,1772022413.7186615,-52.24609375,-53.7109375,-51.7578125,-61.03515625,0.0,0,0
1772022413.765384,1772022413.7225509,-41.50390625,-36.1328125,-39.0625,-65.4296875,0.0,0,0
1772022413.765419,1772022413.7264402,-9.27734375,-24.90234375,-23.4375,-0.48828125,0.0,0,0
1772022413.765456,1772022413.7303295,12.6953125,-41.015625,-15.13671875,54.19921875,0.0,0,0
1772022413.765491,1772022413.7342186,-23.4375,-41.50390625,-36.62109375,16.6015625,0.0,0,0
1772022413.765526,1772022413.738108,-58.10546875,-31.25,-56.640625,-57.6171875,0.0,0,0
1772022413.765561,1772022413.7419972,-41.015625,-25.390625,-43.45703125,-71.77734375,0.0,0,0
1772022413.765596,1772022413.7458866,-14.16015625,-25.87890625,-8.7890625,4.39453125,0.0,0,0
1772022413.824654,1772022413.7499106,-6.8359375,-34.66796875,4.8828125,77.63671875,0.0,0,0
1772022413.824831,1772022413.7538,-17.08984375,-43.45703125,-22.4609375,47.8515625,0.0,0,0
1772022413.824882,1772022413.7576892,-46.38671875,-38.57421875,-44.921875,-31.73828125,0.0,0,0
1772022413.824929,1772022413.7615786,-43.9453125,-17.578125,-40.0390625,-63.4765625,0.0,0,0
1772022413.824975,1772022413.765468,-14.16015625,-2.9296875,-7.32421875,4.39453125,0.0,0,0
1772022413.8250182,1772022413.7693572,2.44140625,-11.23046875,6.8359375,65.91796875,0.0,0,0
1772022413.825061,1772022413.7732465,-19.04296875,-20.01953125,-22.4609375,51.7578125,0.0,0,0
1772022413.825105,1772022413.7771358,-48.828125,-32.2265625,-53.22265625,-32.2265625,0.0,0,0
1772022413.8251479,1772022413.7810252,-46.38671875,-49.31640625,-52.734375,-84.9609375,0.0,0,0
1772022413.8251898,1772022413.7849145,-20.01953125,-51.7578125,-22.94921875,-10.25390625,0.0,0,0
1772022413.825233,1772022413.7888036,0.0,-55.17578125,-2.44140625,75.68359375,0.0,0,0
1772022413.8252742,1772022413.792693,-12.20703125,-45.41015625,-19.04296875,63.4765625,0.0,0,0
1772022413.8700821,1772022413.7966974,-60.05859375,-24.4140625,-52.734375,-41.50390625,0.0,0,0
1772022413.870233,1772022413.8005867,-72.75390625,-22.4609375,-61.5234375,-102.05078125,0.0,0,0
1772022413.8702688,1772022413.804476,-35.64453125,-25.390625,-29.296875,-41.50390625,0.0,0,0
1772022413.8703082,1772022413.8083653,-7.32421875,-18.06640625,-4.8828125,46.875,0.0,0,0
1772022413.870337,1772022413.8122547,-1.953125,-25.87890625,-18.5546875,58.59375,0.0,0,0
1772022413.870364,1772022413.816144,-20.5078125,-43.9453125,-44.921875,-26.85546875,0.0,0,0
1772022413.8704069,1772022413.8200333,-48.33984375,-45.41015625,-50.78125,-102.05078125,0.0,0,0
1772022413.870445,1772022413.8239226,-37.109375,-27.34375,-25.87890625,-66.40625,0.0,0,0
1772022413.8704908,1772022413.827812,-2.9296875,-7.32421875,-9.27734375,12.20703125,0.0,0,0
1772022413.870519,1772022413.8317015,-12.20703125,1.953125,-12.6953125,38.0859375,0.0,0,0
1772022413.870566,1772022413.8355908,-48.33984375,-15.13671875,-35.15625,-22.4609375,0.0,0,0
1772022413.870604,1772022413.8394802,-62.5,-33.69140625,-45.41015625,-84.47265625,0.0,0,0
1772022413.916204,1772022413.8436022,-29.78515625,-33.203125,-21.97265625,-62.01171875,0.0,0,0
1772022413.9163609,1772022413.8474915,8.30078125,-38.0859375,0.9765625,20.01953125,0.0,0,0
1772022413.9164119,1772022413.8513808,10.25390625,-47.36328125,-1.953125,49.8046875,0.0,0,0
1772022413.916459,1772022413.8552704,-19.53125,-47.36328125,-32.2265625,-20.99609375,0.0,0,0
1772022413.916502,1772022413.8591597,-49.8046875,-37.59765625,-52.24609375,-87.890625,0.0,0,0
1772022413.916546,1772022413.863049,-46.38671875,-20.01953125,-31.25,-82.51953125,0.0,0,0
1772022413.916607,1772022413.8669384,-5.37109375,-25.390625,-7.8125,-2.9296875,0.0,0,0
1772022413.91665,1772022413.870828,18.06640625,-32.71484375,-6.8359375,59.08203125,0.0,0,0
1772022413.916699,1772022413.8747172,-27.34375,-35.64453125,-41.015625,5.37109375,0.0,0,0
1772022413.9167418,1772022413.8786066,-75.1953125,-28.80859375,-64.453125,-103.515625,0.0,0,0
1772022413.916785,1772022413.882496,-60.05859375,-17.08984375,-42.48046875,-122.55859375,0.0,0,0
1772022413.916828,1772022413.8863854,-21.484375,-14.16015625,-4.39453125,11.71875,0.0,0,0
1772022413.974449,1772022413.8904886,-1.953125,-29.296875,3.90625,109.375,0.0,0,0
1772022413.974633,1772022413.894378,-24.4140625,-43.9453125,-31.73828125,30.2734375,0.0,0,0
1772022413.974699,1772022413.8982675,-71.77734375,-28.3203125,-58.10546875,-104.00390625,0.0,0,0
1772022413.974766,1772022413.9021568,-71.77734375,-36.1328125,-45.41015625,-139.6484375,0.0,0,0
1772022413.9748359,1772022413.9060464,-21.97265625,-54.6875,-2.44140625,-7.8125,0.0,0,0
1772022413.974895,1772022413.9099357,11.71875,-38.0859375,14.16015625,107.421875,0.0,0,0
1772022413.974954,1772022413.9138253,-23.4375,-24.90234375,-27.83203125,43.9453125,0.0,0,0
1772022413.975012,1772022413.9177146,-85.44921875,-27.34375,-70.3125,-108.3984375,0.0,0,0
1772022413.975069,1772022413.9216042,-81.54296875,-24.90234375,-63.4765625,-157.71484375,0.0,0,0
1772022413.9751282,1772022413.9254935,-22.94921875,-26.85546875,-9.27734375,-26.3671875,0.0,0,0
1772022413.975185,1772022413.929383,-2.9296875,-28.3203125,6.8359375,92.7734375,0.0,0,0
1772022413.97525,1772022413.9332724,-37.109375,-21.97265625,-33.203125,48.828125,0.0,0,0
1772022414.005474,1772022413.93736,-80.078125,-29.78515625,-64.94140625,-104.4921875,0.0,0,0
1772022414.005643,1772022413.9412496,-84.9609375,-29.78515625,-62.98828125,-170.8984375,0.0,0,0
1772022414.0057,1772022413.9451392,-33.203125,-17.578125,-17.08984375,-46.38671875,0.0,0,0
1772022414.0057511,1772022413.9490285,11.71875,-16.11328125,4.39453125,84.47265625,0.0,0,0
1772022414.0057962,1772022413.952918,-1.953125,-43.9453125,-22.94921875,73.2421875,0.0,0,0
1772022414.005879,1772022413.9568076,-71.77734375,-59.08203125,-59.5703125,-80.56640625,0.0,0,0
1772022414.0059369,1772022413.960697,-94.23828125,-41.015625,-69.82421875,-182.12890625,0.0,0,0
1772022414.0059829,1772022413.9645865,-41.015625,-24.90234375,-27.34375,-72.75390625,0.0,0,0
1772022414.006026,1772022413.968476,-10.25390625,-10.7421875,0.9765625,68.359375,0.0,0,0
1772022414.0060601,1772022413.9723656,-10.7421875,-16.6015625,-17.578125,76.66015625,0.0,0,0
1772022414.006093,1772022413.976255,-46.38671875,-32.2265625,-58.10546875,-63.96484375,0.0,0,0
1772022414.006127,1772022413.9801445,-70.80078125,-53.7109375,-66.89453125,-162.109375,0.0,0,0
1772022414.050588,1772022413.9842145,-29.296875,-53.22265625,-19.53125,-70.80078125,0.0,0,0
1772022414.050741,1772022413.988104,10.25390625,-12.6953125,4.8828125,74.70703125,0.0,0,0
1772022414.050965,1772022413.9919937,-0.48828125,-0.9765625,-12.6953125,98.14453125,0.0,0,0
1772022414.0510159,1772022413.9958832,-46.875,-22.94921875,-53.7109375,-48.33984375,0.0,0,0
1772022414.05106,1772022413.9997728,-73.2421875,-35.15625,-68.359375,-182.12890625,0.0,0,0
1772022414.051104,1772022414.0036623,-48.33984375,-26.85546875,-23.4375,-119.140625,0.0,0,0
1772022414.051146,1772022414.007552,5.37109375,-21.97265625,13.18359375,57.12890625,0.0,0,0
1772022414.05119,1772022414.0114412,22.94921875,-11.71875,3.90625,115.234375,0.0,0,0
1772022414.051232,1772022414.0153308,-36.62109375,-23.4375,-43.9453125,-24.90234375,0.0,0,0
1772022414.051274,1772022414.0192204,-81.54296875,-42.48046875,-68.359375,-170.8984375,0.0,0,0
1772022414.051316,1772022414.02311,-42.96875,-54.19921875,-28.80859375,-137.6953125,0.0,0,0
1772022414.051351,1772022414.0269995,-2.9296875,-43.45703125,12.6953125,36.1328125,0.0,0,0
1772022414.1257,1772022414.031187,-9.765625,-19.53125,1.953125,113.76953125,0.0,0,0
1772022414.125877,1772022414.0350766,-46.38671875,-27.83203125,-49.31640625,-9.765625,0.0,0,0
1772022414.126001,1772022414.0389662,-81.54296875,-40.0390625,-72.265625,-166.015625,0.0,0,0
1772022414.126101,1772022414.0428557,-62.98828125,-52.24609375,-42.96875,-163.57421875,0.0,0,0
1772022414.126167,1772022414.0467453,-9.27734375,-40.52734375,3.41796875,13.671875,0.0,0,0
1772022414.1262279,1772022414.050635,4.8828125,-20.99609375,3.90625,116.2109375,0.0,0,0
1772022414.126307,1772022414.0545247,-37.59765625,-28.80859375,-41.015625,8.30078125,0.0,0,0
1772022414.126367,1772022414.0584142,-79.58984375,-32.71484375,-57.12890625,-136.71875,0.0,0,0
1772022414.126425,1772022414.0623038,-70.3125,-33.69140625,-39.55078125,-156.73828125,0.0,0,0
1772022414.126483,1772022414.0661933,-26.85546875,-33.69140625,0.9765625,1.953125,0.0,0,0
1772022414.1265411,1772022414.0700831,-7.32421875,-14.6484375,12.6953125,124.0234375,0.0,0,0
1772022414.1266,1772022414.0739727,-31.25,-20.5078125,-33.69140625,42.96875,0.0,0,0
1772022414.156068,1772022414.0781367,-67.87109375,-42.96875,-64.94140625,-120.1171875,0.0,0,0
1772022414.156257,1772022414.0820265,-64.453125,-40.52734375,-48.828125,-166.50390625,0.0,0,0
1772022414.156308,1772022414.085916,-23.92578125,-27.83203125,-4.39453125,-9.27734375,0.0,0,0
1772022414.156354,1772022414.0898058,0.9765625,-26.3671875,8.7890625,117.67578125,0.0,0,0
1772022414.156506,1772022414.0936954,-23.4375,-33.203125,-19.53125,58.59375,0.0,0,0
1772022414.156558,1772022414.0975852,-69.82421875,-39.0625,-47.8515625,-94.7265625,0.0,0,0
1772022414.1566021,1772022414.1014748,-76.66015625,-35.64453125,-46.38671875,-162.109375,0.0,0,0
1772022414.1566458,1772022414.1053646,-31.73828125,-21.484375,1.46484375,-25.390625,0.0,0,0
1772022414.156689,1772022414.1092541,-6.8359375,-14.6484375,24.4140625,119.140625,0.0,0,0
1772022414.1567318,1772022414.113144,-39.55078125,-30.76171875,-13.671875,86.42578125,0.0,0,0
1772022414.156775,1772022414.1170335,-84.47265625,-47.36328125,-57.12890625,-85.44921875,0.0,0,0
1772022414.15682,1772022414.1209233,-94.7265625,-40.52734375,-61.5234375,-190.4296875,0.0,0,0
1772022414.199659,1772022414.124945,-58.10546875,-25.390625,-6.34765625,-57.6171875,0.0,0,0
1772022414.199855,1772022414.1288347,-9.765625,-24.90234375,25.390625,113.28125,0.0,0,0
1772022414.199915,1772022414.1327245,-13.18359375,-44.921875,-1.953125,115.72265625,0.0,0,0
1772022414.1999738,1772022414.136614,-62.5,-58.10546875,-51.7578125,-63.4765625,0.0,0,0
1772022414.200031,1772022414.140504,-75.68359375,-34.66796875,-62.01171875,-187.01171875,0.0,0,0
1772022414.200091,1772022414.1443934,-37.109375,-4.8828125,-7.32421875,-78.125,0.0,0,0
1772022414.200149,1772022414.1482832,-6.8359375,-10.25390625,19.53125,81.0546875,0.0,0,0
1772022414.200212,1772022414.152173,2.9296875,-28.80859375,-1.46484375,105.46875,0.0,0,0
1772022414.2002702,1772022414.1560626,-54.6875,-31.25,-44.43359375,-53.22265625,0.0,0,0
1772022414.2003279,1772022414.1599524,-99.609375,-24.4140625,-65.4296875,-189.453125,0.0,0,0
1772022414.200386,1772022414.1638422,-68.359375,-17.578125,-26.3671875,-109.86328125,0.0,0,0
1772022414.200444,1772022414.1677318,-13.18359375,-14.16015625,8.7890625,64.94140625,0.0,0,0
1772022414.2762308,1772022414.1717355,-0.48828125,-20.99609375,0.9765625,119.140625,0.0,0,0
1772022414.276394,1772022414.175625,-55.6640625,-35.15625,-40.52734375,-28.3203125,0.0,0,0
1772022414.2764428,1772022414.179515,-77.63671875,-32.71484375,-61.5234375,-182.6171875,0.0,0,0
1772022414.276489,1772022414.1834047,-33.69140625,-29.78515625,-28.3203125,-133.7890625,0.0,0,0
1772022414.276532,1772022414.1872945,6.34765625,-31.73828125,9.765625,60.546875,0.0,0,0
1772022414.276576,1772022414.191184,0.9765625,-17.578125,7.8125,139.16015625,0.0,0,0
1772022414.276618,1772022414.1950738,-38.57421875,-7.8125,-38.0859375,-4.8828125,0.0,0,0
1772022414.276662,1772022414.1989636,-65.4296875,-19.04296875,-64.94140625,-177.24609375,0.0,0,0
1772022414.276705,1772022414.2028534,-63.4765625,-26.3671875,-36.1328125,-175.29296875,0.0,0,0
1772022414.276747,1772022414.206743,-8.7890625,-15.625,10.7421875,30.76171875,0.0,0,0
1772022414.276789,1772022414.2106328,9.27734375,-15.13671875,13.18359375,148.92578125,0.0,0,0
1772022414.276832,1772022414.2145226,-44.921875,-31.73828125,-40.52734375,9.27734375,0.0,0,0
1772022414.291958,1772022414.2186494,-76.66015625,-39.0625,-68.84765625,-158.69140625,0.0,0,0
1772022414.2920918,1772022414.2225392,-63.4765625,-41.9921875,-42.48046875,-178.22265625,0.0,0,0
1772022414.292141,1772022414.226429,-2.44140625,-37.109375,6.8359375,9.27734375,0.0,0,0
1772022414.292222,1772022414.2303188,27.34375,-28.3203125,19.53125,157.2265625,0.0,0,0
1772022414.292286,1772022414.2342086,-14.6484375,-22.4609375,-33.203125,53.22265625,0.0,0,0
1772022414.292331,1772022414.2380984,-75.1953125,-27.34375,-72.265625,-145.5078125,0.0,0,0
1772022414.2923741,1772022414.2419882,-66.40625,-27.83203125,-52.734375,-189.453125,0.0,0,0
1772022414.292418,1772022414.245878,5.37109375,-14.6484375,-0.48828125,3.90625,0.0,0,0
1772022414.29246,1772022414.2497678,35.15625,-19.53125,17.578125,149.4140625,0.0,0,0
1772022414.292501,1772022414.2536576,-4.39453125,-30.76171875,-25.87890625,67.87109375,0.0,0,0
1772022414.292544,1772022414.2575474,-59.5703125,-20.99609375,-67.87109375,-120.1171875,0.0,0,0
1772022414.292586,1772022414.2614372,-58.10546875,-1.953125,-61.03515625,-198.2421875,0.0,0,0
1772022414.3367941,1772022414.2655458,0.9765625,8.30078125,-2.9296875,-28.80859375,0.0,0,0
1772022414.3369532,1772022414.2694356,35.15625,5.859375,26.3671875,137.20703125,0.0,0,0
1772022414.337,1772022414.2733254,2.44140625,-13.18359375,-13.671875,102.5390625,0.0,0,0
1772022414.337046,1772022414.2772152,-63.96484375,-29.78515625,-62.98828125,-92.7734375,0.0,0,0
1772022414.337091,1772022414.281105,-80.078125,-29.296875,-62.5,-204.58984375,0.0,0,0
1772022414.337141,1772022414.284995,-25.87890625,-12.6953125,-4.39453125,-54.6875,0.0,0,0
1772022414.337184,1772022414.2888849,19.53125,-15.625,19.04296875,120.1171875,0.0,0,0
1772022414.337229,1772022414.2927747,5.37109375,-39.0625,-16.11328125,116.2109375,0.0,0,0
1772022414.337271,1772022414.2966645,-63.4765625,-49.31640625,-64.94140625,-81.0546875,0.0,0,0
1772022414.337315,1772022414.3005543,-96.6796875,-44.921875,-67.87109375,-216.30859375,0.0,0,0
1772022414.337358,1772022414.3044443,-39.0625,-32.2265625,-12.20703125,-87.890625,0.0,0,0
1772022414.3374112,1772022414.308334,16.6015625,-8.30078125,11.23046875,92.7734375,0.0,0,0
1772022414.3944829,1772022414.3124168,-2.44140625,-7.32421875,-10.25390625,126.953125,0.0,0,0
1772022414.394666,1772022414.3163066,-68.359375,-25.390625,-50.29296875,-54.19921875,0.0,0,0
1772022414.394733,1772022414.3201964,-81.54296875,-34.66796875,-62.5,-207.03125,0.0,0,0
1772022414.394794,1772022414.3240864,-44.921875,-31.73828125,-13.671875,-107.421875,0.0,0,0
1772022414.394855,1772022414.3279762,-9.765625,-25.390625,20.01953125,90.33203125,0.0,0,0
1772022414.394915,1772022414.3318663,-16.11328125,-31.73828125,4.39453125,133.7890625,0.0,0,0
1772022414.394974,1772022414.335756,-65.91796875,-58.59375,-43.45703125,-40.52734375,0.0,0,0
1772022414.395217,1772022414.3396459,-106.4453125,-59.5703125,-64.453125,-187.5,0.0,0,0
1772022414.395264,1772022414.343536,-80.56640625,-48.33984375,-24.4140625,-134.27734375,0.0,0,0
1772022414.395308,1772022414.3474257,-10.7421875,-39.0625,15.13671875,47.36328125,0.0,0,0
1772022414.3953521,1772022414.3513157,-11.23046875,-37.109375,9.27734375,126.953125,0.0,0,0
1772022414.395394,1772022414.3552055,-67.3828125,-43.45703125,-38.57421875,-18.5546875,0.0,0,0
1772022414.425719,1772022414.3592706,-94.23828125,-44.43359375,-61.03515625,-175.29296875,0.0,0,0
1772022414.425866,1772022414.3631604,-80.078125,-44.43359375,-32.71484375,-147.4609375,0.0,0,0
1772022414.425914,1772022414.3670504,-30.76171875,-40.0390625,9.27734375,43.45703125,0.0,0,0
1772022414.425958,1772022414.3709404,-0.48828125,-48.828125,16.6015625,138.671875,0.0,0,0
1772022414.426003,1772022414.3748302,-58.10546875,-65.91796875,-33.203125,2.9296875,0.0,0,0
1772022414.426046,1772022414.3787203,-110.3515625,-66.89453125,-60.05859375,-150.87890625,0.0,0,0
1772022414.426089,1772022414.38261,-78.125,-36.62109375,-32.71484375,-155.2734375,0.0,0,0
1772022414.426131,1772022414.3865001,-25.87890625,-44.921875,4.8828125,20.99609375,0.0,0,0
1772022414.426172,1772022414.3903902,2.9296875,-71.77734375,10.25390625,141.6015625,0.0,0,0
1772022414.426215,1772022414.39428,-40.52734375,-60.05859375,-41.015625,30.2734375,0.0,0,0
1772022414.426257,1772022414.39817,-88.8671875,-36.1328125,-70.80078125,-143.06640625,0.0,0,0
1772022414.4262989,1772022414.4020598,-81.54296875,-32.2265625,-47.8515625,-182.6171875,0.0,0,0
1772022414.471222,1772022414.406111,-36.62109375,-31.73828125,-0.9765625,-10.25390625,0.0,0,0
1772022414.47139,1772022414.410001,-12.20703125,-13.671875,15.13671875,132.32421875,0.0,0,0
1772022414.4714382,1772022414.413891,-41.015625,-6.8359375,-29.78515625,49.31640625,0.0,0,0
1772022414.471482,1772022414.4177809,-81.54296875,-26.3671875,-64.94140625,-126.953125,0.0,0,0
1772022414.471526,1772022414.421671,-88.37890625,-46.875,-55.6640625,-194.3359375,0.0,0,0
1772022414.4715688,1772022414.425561,-43.9453125,-29.78515625,-4.39453125,-32.2265625,0.0,0,0
1772022414.471623,1772022414.4294508,-8.30078125,-25.87890625,14.16015625,114.74609375,0.0,0,0
1772022414.4716659,1772022414.4333408,-25.390625,-42.48046875,-30.2734375,54.6875,0.0,0,0
1772022414.471709,1772022414.4372308,-75.1953125,-45.41015625,-71.77734375,-112.79296875,0.0,0,0
1772022414.471752,1772022414.4411209,-86.42578125,-36.1328125,-66.40625,-193.359375,0.0,0,0
1772022414.471793,1772022414.4450107,-30.76171875,-20.01953125,-9.765625,-41.9921875,0.0,0,0
1772022414.4718342,1772022414.4489007,10.7421875,-26.85546875,15.625,128.41796875,0.0,0,0
1772022414.516674,1772022414.4529338,-16.11328125,-52.734375,-14.6484375,99.12109375,0.0,0,0
1772022414.5169358,1772022414.4568238,-71.77734375,-60.546875,-51.26953125,-83.984375,0.0,0,0
1772022414.517012,1772022414.4607139,-79.1015625,-38.0859375,-48.828125,-183.59375,0.0,0,0
1772022414.517076,1772022414.464604,-29.296875,-11.71875,-2.9296875,-58.59375,0.0,0,0
1772022414.517138,1772022414.468494,10.25390625,-6.34765625,18.06640625,111.328125,0.0,0,0
1772022414.5171971,1772022414.472384,6.8359375,-13.671875,-2.44140625,115.234375,0.0,0,0
1772022414.5172548,1772022414.4762738,-48.33984375,-30.2734375,-48.828125,-68.359375,0.0,0,0
1772022414.517314,1772022414.4801638,-71.2890625,-41.015625,-67.87109375,-214.35546875,0.0,0,0
1772022414.517366,1772022414.4840539,-12.6953125,-44.921875,-12.6953125,-89.84375,0.0,0,0
1772022414.517408,1772022414.487944,43.45703125,-50.29296875,25.87890625,116.69921875,0.0,0,0
1772022414.51745,1772022414.491834,17.578125,-42.48046875,3.90625,140.625,0.0,0,0
1772022414.517492,1772022414.495724,-56.15234375,-44.43359375,-52.734375,-48.33984375,0.0,0,0
1772022414.574435,1772022414.499743,-78.61328125,-40.0390625,-76.66015625,-208.0078125,0.0,0,0
1772022414.57465,1772022414.503633,-45.41015625,-3.41796875,-23.4375,-121.09375,0.0,0,0
1772022414.574718,1772022414.507523,-1.953125,4.39453125,20.01953125,85.9375,0.0,0,0
1772022414.5747788,1772022414.511413,-0.48828125,-12.20703125,3.90625,147.94921875,0.0,0,0
1772022414.57484,1772022414.5153031,-46.875,-41.50390625,-54.6875,-30.76171875,0.0,0,0
1772022414.574898,1772022414.5191932,-67.87109375,-48.828125,-74.70703125,-198.73046875,0.0,0,0
1772022414.5749571,1772022414.5230832,-48.828125,-29.78515625,-27.34375,-149.90234375,0.0,0,0
1772022414.5750148,1772022414.5269732,-10.7421875,-28.80859375,15.625,52.734375,0.0,0,0
1772022414.575073,1772022414.5308633,21.97265625,-20.01953125,8.30078125,147.94921875,0.0,0,0
1772022414.575131,1772022414.5347533,-20.5078125,-15.13671875,-45.41015625,-12.20703125,0.0,0,0
1772022414.57519,1772022414.5386434,-85.44921875,-23.4375,-77.1484375,-190.91796875,0.0,0,0
1772022414.575247,1772022414.5425334,-69.82421875,-23.92578125,-48.828125,-181.640625,0.0,0,0
1772022414.6358202,1772022414.5467844,-1.953125,-26.3671875,2.9296875,20.01953125,0.0,0,0
1772022414.635974,1772022414.5506747,18.06640625,-33.203125,8.30078125,141.11328125,0.0,0,0
1772022414.636079,1772022414.5545647,-28.3203125,-28.3203125,-41.9921875,4.39453125,0.0,0,0
1772022414.6361291,1772022414.5584548,-71.2890625,-32.2265625,-69.3359375,-173.828125,0.0,0,0
1772022414.636173,1772022414.562345,-56.640625,-41.9921875,-42.96875,-182.12890625,0.0,0,0
1772022414.6362162,1772022414.566235,-2.9296875,-20.01953125,9.765625,14.16015625,0.0,0,0
1772022414.636262,1772022414.5701253,24.90234375,4.39453125,16.11328125,147.4609375,0.0,0,0
1772022414.6363049,1772022414.5740154,-19.04296875,-26.85546875,-37.59765625,38.57421875,0.0,0,0
1772022414.636349,1772022414.5779054,-72.265625,-55.6640625,-68.359375,-153.3203125,0.0,0,0
1772022414.636391,1772022414.5817957,-78.125,-38.57421875,-50.78125,-196.2890625,0.0,0,0
1772022414.636432,1772022414.5856857,-36.1328125,-24.4140625,-8.30078125,-20.5078125,0.0,0,0
1772022414.6364748,1772022414.589576,1.46484375,-22.94921875,7.8125,129.39453125,0.0,0,0
1772022414.666754,1772022414.593688,-16.6015625,-16.6015625,-32.71484375,52.24609375,0.0,0,0
1772022414.666944,1772022414.5975783,-76.171875,-30.76171875,-65.91796875,-143.06640625,0.0,0,0
1772022414.66701,1772022414.6014683,-86.9140625,-39.55078125,-51.26953125,-206.54296875,0.0,0,0
1772022414.6670709,1772022414.6053586,-33.69140625,-27.83203125,-6.34765625,-47.36328125,0.0,0,0
1772022414.667211,1772022414.6092486,-4.39453125,-26.85546875,16.6015625,113.76953125,0.0,0,0
1772022414.667305,1772022414.613139,-26.85546875,-47.36328125,-20.99609375,74.70703125,0.0,0,0
1772022414.667375,1772022414.6170292,-77.1484375,-69.82421875,-65.91796875,-113.76953125,0.0,0,0
1772022414.6674209,1772022414.6209192,-100.5859375,-48.828125,-70.80078125,-217.7734375,0.0,0,0
1772022414.667464,1772022414.6248095,-57.6171875,-13.671875,-21.97265625,-67.3828125,0.0,0,0
1772022414.667506,1772022414.6286995,-10.7421875,-8.7890625,9.27734375,104.4921875,0.0,0,0
1772022414.667549,1772022414.6325898,-12.6953125,-20.99609375,-16.11328125,89.35546875,0.0,0,0
1772022414.6675909,1772022414.63648,-71.77734375,-30.76171875,-62.98828125,-96.6796875,0.0,0,0
1772022414.7106402,1772022414.6405733,-104.98046875,-45.8984375,-75.68359375,-217.28515625,0.0,0,0
1772022414.710793,1772022414.6444633,-73.2421875,-40.0390625,-20.5078125,-85.44921875,0.0,0,0
1772022414.7108412,1772022414.6483536,-24.4140625,-14.16015625,13.18359375,94.23828125,0.0,0,0
1772022414.710887,1772022414.6522439,-16.6015625,-15.13671875,-11.71875,122.55859375,0.0,0,0
1772022414.710932,1772022414.6561341,-68.84765625,-36.1328125,-59.5703125,-55.6640625,0.0,0,0
1772022414.710976,1772022414.6600244,-91.796875,-37.59765625,-66.40625,-211.9140625,0.0,0,0
1772022414.711019,1772022414.6639144,-48.33984375,-27.83203125,-17.578125,-114.74609375,0.0,0,0
1772022414.7110631,1772022414.6678047,3.41796875,-20.99609375,13.18359375,90.8203125,0.0,0,0
1772022414.711106,1772022414.671695,7.8125,-44.43359375,-2.9296875,150.390625,0.0,0,0
1772022414.711148,1772022414.6755853,-51.26953125,-57.12890625,-53.22265625,-35.64453125,0.0,0,0
1772022414.711205,1772022414.6794755,-80.078125,-27.83203125,-77.1484375,-218.26171875,0.0,0,0
1772022414.71136,1772022414.6833656,-48.828125,-26.85546875,-24.4140625,-143.5546875,0.0,0,0
1772022414.755423,1772022414.6874435,-2.44140625,-21.484375,21.97265625,82.03125,0.0,0,0
1772022414.755583,1772022414.6913338,9.27734375,-17.08984375,4.8828125,153.80859375,0.0,0,0
1772022414.7556322,1772022414.695224,-38.0859375,-29.296875,-56.640625,-32.71484375,0.0,0,0
1772022414.7556748,1772022414.6991143,-89.84375,-21.97265625,-86.9140625,-223.14453125,0.0,0,0
1772022414.755719,1772022414.7030046,-74.21875,-15.625,-37.59765625,-187.5,0.0,0,0
1772022414.7557602,1772022414.7068949,-11.71875,-19.04296875,19.53125,49.8046875,0.0,0,0
1772022414.7558022,1772022414.7107852,0.48828125,-20.99609375,23.4375,182.6171875,0.0,0,0
1772022414.755848,1772022414.7146754,-49.8046875,-39.0625,-37.109375,22.4609375,0.0,0,0
1772022414.75589,1772022414.7185657,-80.56640625,-59.08203125,-75.68359375,-181.15234375,0.0,0,0
1772022414.7559319,1772022414.722456,-69.82421875,-38.0859375,-41.015625,-180.17578125,0.0,0,0
1772022414.755979,1772022414.7263463,-10.7421875,-21.484375,16.11328125,33.203125,0.0,0,0
1772022414.756021,1772022414.7302365,23.4375,-20.5078125,23.4375,180.6640625,0.0,0,0
1772022414.801703,1772022414.7342973,-30.2734375,-33.203125,-30.76171875,55.17578125,0.0,0,0
1772022414.8018591,1772022414.7381876,-74.70703125,-46.38671875,-68.84765625,-150.87890625,0.0,0,0
1772022414.8019252,1772022414.7420778,-53.7109375,-34.66796875,-53.7109375,-191.89453125,0.0,0,0
1772022414.801986,1772022414.745968,6.34765625,-16.6015625,4.8828125,26.85546875,0.0,0,0
1772022414.802046,1772022414.7498584,34.1796875,-13.18359375,26.85546875,197.265625,0.0,0,0
1772022414.8021052,1772022414.753749,-5.859375,-27.83203125,-24.4140625,84.47265625,0.0,0,0
1772022414.802163,1772022414.7576392,-60.05859375,-34.66796875,-68.359375,-148.4375,0.0,0,0
1772022414.8022249,1772022414.7615294,-59.5703125,-40.0390625,-58.59375,-226.07421875,0.0,0,0
1772022414.802283,1772022414.7654197,10.25390625,-33.69140625,-2.44140625,-22.4609375,0.0,0,0
1772022414.80234,1772022414.76931,39.0625,-16.11328125,22.94921875,163.0859375,0.0,0,0
1772022414.802397,1772022414.7732003,-14.16015625,-29.296875,-22.94921875,96.6796875,0.0,0,0
1772022414.802453,1772022414.7770908,-72.75390625,-37.109375,-73.2421875,-119.62890625,0.0,0,0
1772022414.845563,1772022414.7811375,-83.0078125,-31.25,-62.01171875,-230.46875,0.0,0,0
1772022414.845729,1772022414.7850277,-33.69140625,-19.04296875,-0.48828125,-58.59375,0.0,0,0
1772022414.845778,1772022414.7889183,4.8828125,-9.765625,20.5078125,145.5078125,0.0,0,0
1772022414.8458319,1772022414.7928085,2.44140625,-23.4375,-17.08984375,127.44140625,0.0,0,0
1772022414.845876,1772022414.7966988,-75.1953125,-41.9921875,-67.3828125,-93.26171875,0.0,0,0
1772022414.845919,1772022414.800589,-107.421875,-34.1796875,-73.73046875,-239.2578125,0.0,0,0
1772022414.845962,1772022414.8044796,-49.8046875,-23.4375,-14.16015625,-65.4296875,0.0,0,0
1772022414.846004,1772022414.8083699,-1.953125,-18.5546875,21.97265625,158.69140625,0.0,0,0
1772022414.846047,1772022414.8122602,-14.16015625,-20.5078125,-9.27734375,163.0859375,0.0,0,0
1772022414.846089,1772022414.8161507,-78.125,-41.9921875,-64.453125,-73.2421875,0.0,0,0
1772022414.846134,1772022414.820041,-104.98046875,-41.015625,-76.66015625,-247.55859375,0.0,0,0
1772022414.846177,1772022414.8239312,-63.4765625,-24.4140625,-20.01953125,-109.375,0.0,0,0
1772022414.890296,1772022414.8279636,-16.6015625,-18.06640625,19.04296875,112.3046875,0.0,0,0
1772022414.890431,1772022414.8318539,-19.04296875,-19.53125,-0.9765625,154.78515625,0.0,0,0
1772022414.8904681,1772022414.8357444,-74.70703125,-34.66796875,-55.17578125,-56.640625,0.0,0,0
1772022414.890504,1772022414.8396347,-114.74609375,-52.24609375,-74.70703125,-227.5390625,0.0,0,0
1772022414.8905401,1772022414.8435252,-83.0078125,-44.43359375,-16.11328125,-118.1640625,0.0,0,0
1772022414.890574,1772022414.8474154,-19.04296875,-15.625,31.73828125,110.3515625,0.0,0,0
1772022414.890608,1772022414.8513057,-15.625,-12.6953125,8.7890625,175.29296875,0.0,0,0
1772022414.890645,1772022414.8551962,-83.984375,-38.0859375,-54.19921875,-26.3671875,0.0,0,0
1772022414.890678,1772022414.8590865,-106.93359375,-32.71484375,-87.890625,-231.93359375,0.0,0,0
1772022414.890711,1772022414.862977,-80.078125,-20.01953125,-44.43359375,-187.5,0.0,0,0
1772022414.890753,1772022414.8668673,-39.55078125,-9.27734375,9.765625,62.01171875,0.0,0,0
1772022414.890795,1772022414.8707578,-9.765625,-5.859375,1.46484375,186.03515625,0.0,0,0
1772022414.95033,1772022414.8747797,-54.19921875,-21.97265625,-55.17578125,7.32421875,0.0,0,0
1772022414.950531,1772022414.87867,-113.76953125,-26.3671875,-83.984375,-193.359375,0.0,0,0
1772022414.950599,1772022414.8825605,-94.23828125,-8.30078125,-51.26953125,-183.59375,0.0,0,0
1772022414.950659,1772022414.886451,-36.1328125,2.44140625,2.9296875,43.45703125,0.0,0,0
1772022414.9507189,1772022414.8903413,-16.11328125,-13.18359375,7.8125,182.12890625,0.0,0,0
1772022414.9508638,1772022414.8942318,-51.7578125,-28.80859375,-47.36328125,23.4375,0.0,0,0
1772022414.950925,1772022414.898122,-92.28515625,-35.64453125,-75.1953125,-179.6875,0.0,0,0
1772022414.9509702,1772022414.9020126,-75.1953125,-28.3203125,-49.8046875,-202.1484375,0.0,0,0
1772022414.9510138,1772022414.9059029,-13.671875,-10.25390625,9.27734375,32.71484375,0.0,0,0
1772022414.9510558,1772022414.9097934,13.671875,-4.8828125,26.85546875,212.890625,0.0,0,0
1772022414.951097,1772022414.913684,-38.0859375,-15.625,-32.71484375,83.0078125,0.0,0,0
1772022414.9511402,1772022414.9175742,-80.56640625,-29.78515625,-71.2890625,-154.296875,0.0,0,0
1772022414.9956858,1772022414.921575,-68.359375,-28.80859375,-54.6875,-221.19140625,0.0,0,0
1772022414.995886,1772022414.9254653,-27.34375,-10.7421875,7.8125,3.41796875,0.0,0,0
1772022414.995955,1772022414.9293559,1.953125,3.41796875,28.3203125,188.4765625,0.0,0,0
1772022414.996001,1772022414.9332464,-21.484375,-17.08984375,-25.390625,95.21484375,0.0,0,0
1772022414.996046,1772022414.9371367,-83.49609375,-50.78125,-65.91796875,-134.27734375,0.0,0,0
1772022414.9960902,1772022414.9410272,-97.16796875,-41.9921875,-59.5703125,-234.86328125,0.0,0,0
1772022414.9961338,1772022414.9449177,-40.52734375,-16.6015625,-8.30078125,-27.83203125,0.0,0,0
1772022414.996177,1772022414.948808,-11.23046875,-5.37109375,18.5546875,176.26953125,0.0,0,0
1772022414.9962199,1772022414.9526985,-38.57421875,-20.99609375,-26.3671875,117.67578125,0.0,0,0
1772022414.996275,1772022414.956589,-87.40234375,-47.8515625,-77.63671875,-115.234375,0.0,0,0
1772022414.996317,1772022414.9604793,-92.7734375,-43.9453125,-72.265625,-248.53515625,0.0,0,0
1772022414.9963598,1772022414.9643698,-34.1796875,-19.04296875,-3.41796875,-59.5703125,0.0,0,0
1772022415.0407171,1772022414.9684782,14.6484375,-12.6953125,25.390625,153.3203125,0.0,0,0
1772022415.040871,1772022414.9723687,-1.46484375,-28.3203125,-8.30078125,146.484375,0.0,0,0
1772022415.040921,1772022414.9762592,-53.7109375,-43.45703125,-56.640625,-79.58984375,0.0,0,0
1772022415.0409658,1772022414.9801497,-59.08203125,-52.24609375,-70.3125,-241.69921875,0.0,0,0
1772022415.041014,1772022414.9840403,-9.27734375,-35.64453125,-11.71875,-86.9140625,0.0,0,0
1772022415.041057,1772022414.9879308,20.01953125,-18.5546875,20.5078125,126.46484375,0.0,0,0
1772022415.0411,1772022414.9918213,23.4375,-28.80859375,-1.46484375,167.48046875,0.0,0,0
1772022415.041143,1772022414.9957118,-35.15625,-40.52734375,-61.03515625,-49.31640625,0.0,0,0
1772022415.041186,1772022414.9996023,-93.75,-17.578125,-88.37890625,-262.20703125,0.0,0,0
1772022415.041228,1772022415.0034926,-49.8046875,3.41796875,-28.80859375,-145.01953125,0.0,0,0
1772022415.041271,1772022415.007383,2.9296875,2.9296875,16.6015625,104.4921875,0.0,0,0
1772022415.041313,1772022415.0112736,-2.9296875,-3.90625,5.859375,171.875,0.0,0,0
1772022415.087032,1772022415.0153682,-48.33984375,-23.4375,-49.31640625,-29.78515625,0.0,0,0
1772022415.08722,1772022415.0192587,-90.33203125,-30.76171875,-78.125,-235.3515625,0.0,0,0
1772022415.087285,1772022415.0231493,-64.453125,-25.390625,-27.34375,-164.55078125,0.0,0,0
1772022415.0873442,1772022415.0270398,2.9296875,-22.94921875,20.5078125,86.9140625,0.0,0,0
1772022415.0875552,1772022415.0309303,-0.48828125,-22.4609375,7.8125,188.96484375,0.0,0,0
1772022415.0876212,1772022415.0348208,-66.89453125,-32.71484375,-49.8046875,1.46484375,0.0,0,0
1772022415.08768,1772022415.0387115,-106.93359375,-55.17578125,-79.1015625,-219.23828125,0.0,0,0
1772022415.087739,1772022415.042602,-84.9609375,-44.43359375,-42.96875,-200.68359375,0.0,0,0
1772022415.087797,1772022415.0464926,-16.11328125,-22.4609375,12.20703125,57.12890625,0.0,0,0
1772022415.087855,1772022415.050383,15.625,-14.6484375,24.90234375,207.03125,0.0,0,0
1772022415.087911,1772022415.0542736,-31.25,-23.92578125,-36.1328125,28.3203125,0.0,0,0
1772022415.087967,1772022415.0581641,-82.51953125,-35.64453125,-75.68359375,-206.0546875,0.0,0,0
1772022415.1312041,1772022415.0622416,-62.98828125,-33.69140625,-46.38671875,-215.8203125,0.0,0,0
1772022415.131372,1772022415.066132,-8.30078125,-33.203125,9.765625,37.59765625,0.0,0,0
1772022415.131423,1772022415.0700228,0.9765625,-23.92578125,19.04296875,209.9609375,0.0,0,0
1772022415.131469,1772022415.0739133,-31.25,-26.85546875,-35.15625,55.6640625,0.0,0,0
1772022415.131513,1772022415.0778039,-79.1015625,-33.69140625,-80.078125,-201.171875,0.0,0,0
1772022415.131556,1772022415.0816944,-73.73046875,-21.484375,-61.5234375,-257.8125,0.0,0,0
1772022415.131598,1772022415.085585,-6.34765625,-13.18359375,8.30078125,1.46484375,0.0,0,0
1772022415.1316411,1772022415.0894756,32.2265625,-36.62109375,28.80859375,205.56640625,0.0,0,0
1772022415.131685,1772022415.0933661,4.8828125,-59.5703125,-22.4609375,97.65625,0.0,0,0
1772022415.131729,1772022415.097257,-59.5703125,-51.26953125,-72.265625,-152.83203125,0.0,0,0
1772022415.1317708,1772022415.1011474,-75.1953125,-39.55078125,-57.6171875,-239.74609375,0.0,0,0
1772022415.131814,1772022415.105038,-5.859375,-29.78515625,10.25390625,-15.625,0.0,0,0
1772022415.175662,1772022415.1090991,25.390625,-0.48828125,27.83203125,189.94140625,0.0,0,0
1772022415.175824,1772022415.1129897,-12.6953125,4.39453125,-29.296875,116.69921875,0.0,0,0
1772022415.175873,1772022415.1168804,-60.546875,-6.34765625,-73.2421875,-127.9296875,0.0,0,0
1772022415.175918,1772022415.120771,-63.96484375,-13.18359375,-63.4765625,-245.1171875,0.0,0,0
1772022415.175961,1772022415.1246614,-17.578125,-20.01953125,-4.39453125,-58.59375,0.0,0,0
1772022415.1760051,1772022415.1285522,14.6484375,-12.6953125,25.87890625,146.97265625,0.0,0,0
1772022415.176057,1772022415.1324427,3.90625,-18.5546875,-6.34765625,133.7890625,0.0,0,0
1772022415.1761,1772022415.1363335,-53.7109375,-49.31640625,-56.15234375,-100.5859375,0.0,0,0
1772022415.176142,1772022415.140224,-89.35546875,-70.80078125,-63.96484375,-248.046875,0.0,0,0
1772022415.1761851,1772022415.1441147,-34.66796875,-36.62109375,-7.32421875,-76.171875,0.0,0,0
1772022415.1762261,1772022415.1480052,26.85546875,-11.71875,22.94921875,137.20703125,0.0,0,0
1772022415.176268,1772022415.1518958,13.671875,-20.01953125,-2.44140625,149.90234375,0.0,0,0
1772022415.2362628,1772022415.15606,-51.26953125,-33.69140625,-61.5234375,-73.73046875,0.0,0,0
1772022415.236437,1772022415.1599507,-74.70703125,-39.0625,-79.58984375,-250.0,0.0,0,0
1772022415.236483,1772022415.1638412,-26.85546875,-19.53125,-15.13671875,-116.2109375,0.0,0,0
1772022415.2365272,1772022415.167732,9.27734375,-9.765625,28.80859375,116.69921875,0.0,0,0
1772022415.2365708,1772022415.1716228,7.32421875,-24.90234375,1.953125,164.0625,0.0,0,0
1772022415.236613,1772022415.1755135,-44.921875,-28.80859375,-53.22265625,-41.015625,0.0,0,0
1772022415.2366562,1772022415.179404,-93.75,-27.34375,-73.73046875,-232.421875,0.0,0,0
1772022415.2366972,1772022415.1832948,-50.78125,-49.31640625,-28.80859375,-143.5546875,0.0,0,0
1772022415.2367392,1772022415.1871855,9.27734375,-52.734375,16.6015625,93.75,0.0,0,0
1772022415.236786,1772022415.191076,-0.9765625,-29.78515625,8.30078125,180.17578125,0.0,0,0
1772022415.236829,1772022415.1949668,-57.6171875,-30.2734375,-46.38671875,-7.8125,0.0,0,0
1772022415.2368698,1772022415.1988575,-92.7734375,-34.1796875,-76.66015625,-212.890625,0.0,0,0
1772022415.265781,1772022415.2028878,-48.33984375,-19.53125,-35.15625,-167.96875,0.0,0,0
1772022415.265934,1772022415.2067785,8.30078125,-7.32421875,16.11328125,74.21875,0.0,0,0
1772022415.26598,1772022415.210669,6.8359375,-8.30078125,4.8828125,182.6171875,0.0,0,0
1772022415.266023,1772022415.2145598,-40.52734375,-20.99609375,-49.8046875,6.8359375,0.0,0,0
1772022415.2660658,1772022415.2184505,-84.47265625,-25.87890625,-79.58984375,-205.078125,0.0,0,0
1772022415.2661161,1772022415.2223413,-73.73046875,-11.23046875,-45.8984375,-204.1015625,0.0,0,0
1772022415.266159,1772022415.226232,-21.97265625,-10.7421875,9.27734375,40.0390625,0.0,0,0
1772022415.2662022,1772022415.2301228,0.48828125,-22.94921875,9.765625,196.77734375,0.0,0,0
1772022415.2662451,1772022415.2340133,-35.64453125,-29.78515625,-38.57421875,48.828125,0.0,0,0
1772022415.266326,1772022415.237904,-77.1484375,-45.41015625,-71.77734375,-181.640625,0.0,0,0
1772022415.266377,1772022415.2417948,-73.2421875,-54.19921875,-52.734375,-223.6328125,0.0,0,0
1772022415.266437,1772022415.2456856,-29.78515625,-36.1328125,11.23046875,11.23046875,0.0,0,0
1772022415.324756,1772022415.2496989,-5.859375,-24.90234375,23.4375,184.5703125,0.0,0,0
1772022415.324939,1772022415.2535896,-45.8984375,-33.203125,-35.64453125,57.6171875,0.0,0,0
1772022415.325008,1772022415.2574804,-86.9140625,-32.2265625,-74.21875,-160.64453125,0.0,0,0
1772022415.325069,1772022415.2613711,-90.8203125,-26.3671875,-64.453125,-225.09765625,0.0,0,0
1772022415.325129,1772022415.265262,-45.41015625,-25.390625,-8.7890625,-27.34375,0.0,0,0
1772022415.325196,1772022415.2691526,-10.25390625,-20.5078125,21.97265625,167.96875,0.0,0,0
1772022415.325255,1772022415.2730434,-48.828125,-35.64453125,-29.78515625,94.7265625,0.0,0,0
1772022415.3253179,1772022415.2769341,-86.9140625,-45.8984375,-75.1953125,-139.16015625,0.0,0,0
1772022415.325377,1772022415.280825,-81.0546875,-34.1796875,-60.546875,-241.2109375,0.0,0,0
1772022415.3254359,1772022415.2847157,-31.73828125,-19.04296875,-0.48828125,-41.50390625,0.0,0,0
1772022415.325496,1772022415.2886064,18.06640625,-16.6015625,26.85546875,171.38671875,0.0,0,0
1772022415.325554,1772022415.2924972,0.48828125,-23.92578125,-12.6953125,131.34765625,0.0,0,0
1772022415.371295,1772022415.296493,-64.453125,-41.50390625,-61.03515625,-103.515625,0.0,0,0
1772022415.371476,1772022415.3003838,-82.51953125,-56.15234375,-69.82421875,-241.2109375,0.0,0,0
1772022415.371526,1772022415.3042746,-37.59765625,-34.1796875,-15.625,-71.2890625,0.0,0,0
1772022415.3715708,1772022415.3081653,-5.859375,-13.671875,22.94921875,143.06640625,0.0,0,0
1772022415.371614,1772022415.312056,-15.13671875,-23.92578125,-5.859375,149.4140625,0.0,0,0
1772022415.371656,1772022415.3159468,-72.265625,-43.9453125,-57.6171875,-82.03125,0.0,0,0
1772022415.371698,1772022415.3198376,-112.79296875,-45.8984375,-74.70703125,-249.51171875,0.0,0,0
1772022415.3717399,1772022415.3237283,-70.3125,-46.875,-27.83203125,-105.46875,0.0,0,0
1772022415.371781,1772022415.327619,-10.7421875,-33.69140625,13.18359375,112.79296875,0.0,0,0
1772022415.371826,1772022415.3315098,1.46484375,-19.53125,1.953125,154.78515625,0.0,0,0
1772022415.371868,1772022415.3354006,-56.640625,-28.3203125,-56.640625,-57.6171875,0.0,0,0
1772022415.3719091,1772022415.3392913,-94.7265625,-36.62109375,-78.125,-250.9765625,0.0,0,0
1772022415.430418,1772022415.3435123,-52.24609375,-28.3203125,-20.01953125,-139.6484375,0.0,0,0
1772022415.430534,1772022415.347403,-1.46484375,-5.37109375,15.625,96.19140625,0.0,0,0
1772022415.4305751,1772022415.3512938,-9.765625,-4.8828125,1.46484375,165.52734375,0.0,0,0
1772022415.430639,1772022415.3551848,-66.40625,-34.66796875,-53.22265625,-28.3203125,0.0,0,0
1772022415.4306839,1772022415.3590755,-104.00390625,-37.59765625,-76.66015625,-228.515625,0.0,0,0
1772022415.4307141,1772022415.3629663,-68.359375,-14.16015625,-28.80859375,-176.26953125,0.0,0,0
1772022415.430762,1772022415.3668573,-3.90625,-11.23046875,14.16015625,62.98828125,0.0,0,0
1772022415.4308102,1772022415.370748,3.41796875,-18.5546875,13.671875,182.6171875,0.0,0,0
1772022415.430923,1772022415.374639,-52.24609375,-41.9921875,-41.50390625,5.859375,0.0,0,0
1772022415.430954,1772022415.3785298,-93.26171875,-61.5234375,-79.1015625,-202.1484375,0.0,0,0
1772022415.4309828,1772022415.3824205,-73.73046875,-37.59765625,-42.48046875,-182.12890625,0.0,0,0
1772022415.4310122,1772022415.3863115,-18.06640625,-14.6484375,9.765625,60.05859375,0.0,0,0
1772022415.460974,1772022415.3904002,6.8359375,-25.87890625,15.625,204.1015625,0.0,0,0
1772022415.461138,1772022415.3942912,-50.78125,-41.9921875,-40.52734375,41.015625,0.0,0,0
1772022415.461185,1772022415.398182,-100.09765625,-40.52734375,-74.70703125,-188.4765625,0.0,0,0
1772022415.461231,1772022415.402073,-88.8671875,-27.34375,-43.9453125,-206.0546875,0.0,0,0
1772022415.4612741,1772022415.4059637,-38.57421875,-7.32421875,13.671875,35.64453125,0.0,0,0
1772022415.4613178,1772022415.4098547,-12.20703125,0.9765625,20.99609375,186.5234375,0.0,0,0
1772022415.461361,1772022415.4137454,-57.6171875,-25.87890625,-41.50390625,52.734375,0.0,0,0
1772022415.461403,1772022415.4176364,-110.3515625,-44.43359375,-80.56640625,-161.1328125,0.0,0,0
1772022415.461445,1772022415.4215274,-93.26171875,-44.921875,-63.96484375,-227.05078125,0.0,0,0
1772022415.461608,1772022415.4254181,-25.390625,-31.73828125,-1.46484375,-13.671875,0.0,0,0
1772022415.461688,1772022415.4293091,7.8125,-14.6484375,27.34375,175.29296875,0.0,0,0
1772022415.461735,1772022415.4332,-20.5078125,-28.80859375,-20.99609375,91.30859375,0.0,0,0
1772022415.5356858,1772022415.4375079,-79.58984375,-43.45703125,-62.01171875,-140.13671875,0.0,0,0
1772022415.5358589,1772022415.4413989,-111.81640625,-32.2265625,-50.78125,-241.69921875,0.0,0,0
1772022415.535907,1772022415.4452899,-55.17578125,-15.13671875,4.39453125,-31.73828125,0.0,0,0
1772022415.5359511,1772022415.4491806,-3.41796875,-9.765625,30.2734375,179.6875,0.0,0,0
1772022415.535994,1772022415.4530716,-37.109375,-20.99609375,-5.859375,130.859375,0.0,0,0
1772022415.5360372,1772022415.4569626,-93.26171875,-33.69140625,-48.828125,-102.5390625,0.0,0,0
1772022415.5360792,1772022415.4608536,-115.72265625,-33.203125,-53.7109375,-234.86328125,0.0,0,0
1772022415.536224,1772022415.4647446,-83.0078125,-30.76171875,1.953125,-49.8046875,0.0,0,0
1772022415.53629,1772022415.4686356,-42.96875,-37.109375,35.64453125,163.0859375,0.0,0,0
1772022415.5363379,1772022415.4725266,-57.6171875,-41.50390625,-6.8359375,144.53125,0.0,0,0
1772022415.536383,1772022415.4764175,-123.046875,-36.1328125,-67.87109375,-92.7734375,0.0,0,0
1772022415.536427,1772022415.4803085,-155.76171875,-22.94921875,-71.77734375,-246.58203125,0.0,0,0
1772022415.552306,1772022415.4843743,-122.0703125,-9.765625,-18.06640625,-91.30859375,0.0,0,0
1772022415.552468,1772022415.4882653,-73.2421875,-29.78515625,16.11328125,132.8125,0.0,0,0
1772022415.552516,1772022415.4921565,-73.73046875,-49.31640625,5.859375,166.9921875,0.0,0,0
1772022415.55256,1772022415.4960475,-126.953125,-56.15234375,-47.8515625,-68.359375,0.0,0,0
1772022415.5526028,1772022415.4999385,-166.50390625,-36.1328125,-75.1953125,-262.6953125,0.0,0,0
1772022415.552651,1772022415.5038295,-122.55859375,-11.71875,-18.5546875,-140.13671875,0.0,0,0
1772022415.552694,1772022415.5077205,-45.41015625,-29.78515625,24.4140625,102.5390625,0.0,0,0
1772022415.552736,1772022415.5116115,-71.77734375,-40.0390625,2.44140625,164.55078125,0.0,0,0
1772022415.552778,1772022415.5155025,-144.53125,-54.6875,-55.17578125,-51.26953125,0.0,0,0
1772022415.55282,1772022415.5193934,-160.64453125,-63.96484375,-77.63671875,-248.046875,0.0,0,0
1772022415.552862,1772022415.5232847,-114.74609375,-64.94140625,-30.76171875,-167.48046875,0.0,0,0
1772022415.5529048,1772022415.5271757,-47.36328125,-27.83203125,16.6015625,80.56640625,0.0,0,0
1772022415.595406,1772022415.531216,-44.43359375,5.37109375,6.34765625,184.08203125,0.0,0,0
1772022415.5955799,1772022415.5351071,-104.4921875,-29.296875,-57.12890625,-25.87890625,0.0,0,0
1772022415.595629,1772022415.5389981,-152.83203125,-26.85546875,-78.125,-234.86328125,0.0,0,0
1772022415.595673,1772022415.542889,-151.3671875,3.41796875,-38.57421875,-189.453125,0.0,0,0
1772022415.595728,1772022415.54678,-94.23828125,5.859375,7.32421875,57.6171875,0.0,0,0
1772022415.5957708,1772022415.5506713,-66.89453125,11.23046875,12.6953125,189.453125,0.0,0,0
1772022415.595813,1772022415.5545623,-106.93359375,-20.01953125,-44.43359375,14.6484375,0.0,0,0
1772022415.595856,1772022415.5584533,-145.99609375,-54.19921875,-76.171875,-208.984375,0.0,0,0
1772022415.5958982,1772022415.5623443,-131.34765625,-48.33984375,-41.50390625,-218.75,0.0,0,0
1772022415.5959392,1772022415.5662355,-71.77734375,-18.06640625,2.9296875,19.04296875,0.0,0,0
1772022415.5959811,1772022415.5701265,-56.15234375,-1.953125,12.6953125,186.03515625,0.0,0,0
1772022415.596023,1772022415.5740175,-118.1640625,-13.671875,-35.64453125,44.921875,0.0,0,0
1772022415.641717,1772022415.5780423,-167.48046875,-29.296875,-71.2890625,-181.640625,0.0,0,0
1772022415.6418931,1772022415.5819333,-151.3671875,-37.109375,-47.8515625,-221.19140625,0.0,0,0
1772022415.642037,1772022415.5858243,-89.84375,-21.97265625,8.30078125,7.32421875,0.0,0,0
1772022415.6421142,1772022415.5897155,-57.12890625,-30.2734375,22.4609375,190.91796875,0.0,0,0
1772022415.6421602,1772022415.5936065,-73.2421875,-57.12890625,-35.64453125,85.44921875,0.0,0,0
1772022415.6422038,1772022415.5974977,-121.58203125,-59.5703125,-74.21875,-146.97265625,0.0,0,0
1772022415.6422741,1772022415.6013887,-133.7890625,-37.109375,-58.59375,-241.2109375,0.0,0,0
1772022415.64232,1772022415.6052797,-60.05859375,-30.76171875,-0.9765625,-27.83203125,0.0,0,0
1772022415.6423628,1772022415.609171,-16.6015625,-42.48046875,30.2734375,191.40625,0.0,0,0
1772022415.642406,1772022415.613062,-63.96484375,-40.52734375,-17.578125,113.76953125,0.0,0,0
1772022415.642449,1772022415.616953,-144.53125,-34.66796875,-74.70703125,-138.671875,0.0,0,0
1772022415.6424901,1772022415.6208441,-158.69140625,-35.64453125,-64.94140625,-245.60546875,0.0,0,0
1772022415.699151,1772022415.6248565,-110.83984375,-21.484375,-1.46484375,-43.45703125,0.0,0,0
1772022415.699336,1772022415.6287475,-90.33203125,1.953125,22.4609375,161.62109375,0.0,0,0
1772022415.699402,1772022415.6326387,-111.81640625,-1.46484375,-20.01953125,129.39453125,0.0,0,0
1772022415.699471,1772022415.6365297,-149.4140625,-37.59765625,-68.84765625,-102.05078125,0.0,0,0
1772022415.6995351,1772022415.640421,-181.640625,-54.6875,-70.3125,-253.90625,0.0,0,0
1772022415.6995919,1772022415.644312,-141.6015625,-17.578125,-6.34765625,-86.9140625,0.0,0,0
1772022415.699651,1772022415.6482031,-78.125,-12.6953125,29.78515625,153.80859375,0.0,0,0
1772022415.699712,1772022415.6520941,-90.8203125,-42.48046875,-4.8828125,161.62109375,0.0,0,0
1772022415.69978,1772022415.655985,-157.71484375,-55.17578125,-56.640625,-86.42578125,0.0,0,0
1772022415.6998558,1772022415.6598763,-189.453125,-59.08203125,-72.265625,-264.16015625,0.0,0,0
1772022415.699924,1772022415.6637673,-144.53125,-34.66796875,-18.06640625,-117.1875,0.0,0,0
1772022415.700001,1772022415.6676586,-89.84375,-17.08984375,20.99609375,125.0,0.0,0,0
1772022415.7453818,1772022415.6716506,-96.6796875,-18.06640625,0.0,172.36328125,0.0,0,0
1772022415.745485,1772022415.6755419,-148.92578125,-25.87890625,-62.01171875,-50.78125,0.0,0,0
1772022415.745534,1772022415.6794329,-174.8046875,-30.2734375,-91.30859375,-250.48828125,0.0,0,0
1772022415.745579,1772022415.683324,-126.46484375,-39.0625,-33.203125,-139.6484375,0.0,0,0
1772022415.745622,1772022415.6872153,-55.6640625,-52.24609375,19.04296875,113.76953125,0.0,0,0
1772022415.745665,1772022415.6911063,-34.1796875,-43.45703125,8.7890625,195.3125,0.0,0,0
1772022415.745708,1772022415.6949975,-104.00390625,-21.484375,-54.19921875,-23.92578125,0.0,0,0
1772022415.7457511,1772022415.6988885,-172.8515625,-6.8359375,-88.37890625,-240.234375,0.0,0,0
1772022415.745794,1772022415.7027798,-135.25390625,-3.41796875,-41.9921875,-175.78125,0.0,0,0
1772022415.745837,1772022415.7066708,-54.6875,-21.484375,11.71875,75.68359375,0.0,0,0
1772022415.745879,1772022415.710562,-54.6875,-20.01953125,8.30078125,188.96484375,0.0,0,0
1772022415.7460191,1772022415.7144532,-121.09375,-18.06640625,-54.19921875,-6.34765625,0.0,0,0
1772022415.791008,1772022415.718551,-160.64453125,-28.3203125,-86.42578125,-223.14453125,0.0,0,0
1772022415.791144,1772022415.7224422,-130.859375,-37.59765625,-45.8984375,-200.1953125,0.0,0,0
1772022415.791181,1772022415.7263334,-56.640625,-32.71484375,15.13671875,59.5703125,0.0,0,0
1772022415.7912152,1772022415.7302246,-48.33984375,-14.16015625,20.99609375,204.1015625,0.0,0,0
1772022415.7912488,1772022415.7341156,-112.3046875,-26.3671875,-41.9921875,28.3203125,0.0,0,0
1772022415.791283,1772022415.7380068,-142.578125,-38.0859375,-71.2890625,-188.4765625,0.0,0,0
1772022415.791316,1772022415.741898,-112.79296875,-37.109375,-42.96875,-207.03125,0.0,0,0
1772022415.7913501,1772022415.7457893,-62.01171875,-24.90234375,11.23046875,24.4140625,0.0,0,0
1772022415.791383,1772022415.7496805,-43.45703125,-2.9296875,22.4609375,193.84765625,0.0,0,0
1772022415.791415,1772022415.7535715,-76.171875,-7.8125,-39.55078125,57.6171875,0.0,0,0
1772022415.791448,1772022415.7574627,-126.953125,-20.99609375,-80.56640625,-180.17578125,0.0,0,0
1772022415.791481,1772022415.761354,-118.1640625,-12.6953125,-53.22265625,-237.3046875,0.0,0,0
1772022415.835273,1772022415.765437,-41.9921875,-2.44140625,1.46484375,-6.34765625,0.0,0,0
1772022415.835422,1772022415.769328,-9.765625,-15.13671875,17.08984375,184.5703125,0.0,0,0
1772022415.835467,1772022415.7732193,-41.50390625,-33.69140625,-31.25,93.75,0.0,0,0
1772022415.835509,1772022415.7771106,-95.703125,-41.50390625,-80.56640625,-140.13671875,0.0,0,0
1772022415.8355541,1772022415.7810018,-105.95703125,-35.64453125,-70.80078125,-242.1875,0.0,0,0
1772022415.835606,1772022415.784893,-59.5703125,-14.6484375,0.0,-35.64453125,0.0,0,0
1772022415.835658,1772022415.7887843,-24.4140625,-0.48828125,29.296875,176.26953125,0.0,0,0
1772022415.8357,1772022415.7926755,-51.7578125,-17.578125,-17.578125,124.0234375,0.0,0,0
1772022415.835743,1772022415.7965667,-114.2578125,-40.0390625,-71.77734375,-122.55859375,0.0,0,0
1772022415.835794,1772022415.800458,-130.37109375,-36.62109375,-71.77734375,-260.25390625,0.0,0,0
1772022415.8358452,1772022415.8043492,-71.77734375,-15.625,-1.46484375,-66.89453125,0.0,0,0
1772022415.835907,1772022415.8082404,-18.5546875,-10.25390625,31.25,149.4140625,0.0,0,0
1772022415.880447,1772022415.8123102,-30.2734375,-40.0390625,-9.765625,128.41796875,0.0,0,0
1772022415.88061,1772022415.8162014,-91.796875,-61.5234375,-60.05859375,-94.7265625,0.0,0,0
1772022415.880658,1772022415.8200927,-114.2578125,-30.76171875,-68.359375,-239.74609375,0.0,0,0
1772022415.880703,1772022415.823984,-78.61328125,-1.953125,-13.18359375,-86.42578125,0.0,0,0
1772022415.880746,1772022415.8278751,-41.9921875,-7.32421875,23.4375,135.25390625,0.0,0,0
1772022415.880789,1772022415.8317666,-33.203125,-11.71875,1.953125,166.9921875,0.0,0,0
1772022415.880833,1772022415.8356578,-94.7265625,-17.578125,-55.6640625,-66.89453125,0.0,0,0
1772022415.880893,1772022415.839549,-116.2109375,-21.484375,-75.68359375,-253.41796875,0.0,0,0
1772022415.8809652,1772022415.8434403,-53.7109375,-16.6015625,-19.04296875,-124.0234375,0.0,0,0
1772022415.8810072,1772022415.8473315,-10.25390625,-19.53125,15.625,103.02734375,0.0,0,0
1772022415.8810492,1772022415.8512228,-8.30078125,-33.69140625,3.90625,165.52734375,0.0,0,0
1772022415.88111,1772022415.855114,-58.10546875,-48.33984375,-42.48046875,-41.9921875,0.0,0,0
1772022415.9267552,1772022415.8591678,-91.30859375,-48.828125,-68.359375,-240.72265625,0.0,0,0
1772022415.926941,1772022415.8630593,-52.734375,-33.203125,-21.97265625,-157.71484375,0.0,0,0
1772022415.9270039,1772022415.8669505,-15.13671875,-17.08984375,16.11328125,78.61328125,0.0,0,0
1772022415.927063,1772022415.8708417,-3.90625,-14.16015625,0.9765625,170.41015625,0.0,0,0
1772022415.927128,1772022415.874733,-40.52734375,-32.71484375,-54.6875,-14.6484375,0.0,0,0
1772022415.927194,1772022415.8786244,-71.2890625,-46.875,-73.2421875,-209.47265625,0.0,0,0
1772022415.927253,1772022415.8825157,-41.50390625,-42.96875,-24.4140625,-170.41015625,0.0,0,0
1772022415.9273238,1772022415.886407,2.9296875,-28.3203125,18.06640625,61.03515625,0.0,0,0
1772022415.927399,1772022415.8902984,19.53125,-18.06640625,8.7890625,177.24609375,0.0,0,0
1772022415.927475,1772022415.8941896,-30.2734375,-20.01953125,-49.8046875,9.765625,0.0,0,0
1772022415.927535,1772022415.8980808,-75.68359375,-38.57421875,-78.125,-199.70703125,0.0,0,0
1772022415.9276102,1772022415.901972,-50.78125,-44.43359375,-41.9921875,-203.125,0.0,0,0
1772022415.970886,1772022415.9060125,7.32421875,-36.62109375,11.23046875,29.78515625,0.0,0,0
1772022415.971052,1772022415.9099038,21.484375,-36.1328125,17.08984375,175.78125,0.0,0,0
1772022415.971099,1772022415.9137952,-26.3671875,-32.71484375,-39.55078125,43.9453125,0.0,0,0
1772022415.971143,1772022415.9176865,-62.98828125,-47.36328125,-76.171875,-174.31640625,0.0,0,0
1772022415.971189,1772022415.921578,-60.05859375,-43.9453125,-55.17578125,-229.4921875,0.0,0,0
1772022415.971231,1772022415.9254692,4.8828125,-7.8125,1.46484375,-6.8359375,0.0,0,0
1772022415.971273,1772022415.9293604,42.48046875,-20.99609375,19.53125,167.96875,0.0,0,0
1772022415.971317,1772022415.9332519,-8.7890625,-48.828125,-29.296875,63.96484375,0.0,0,0
1772022415.971358,1772022415.937143,-76.66015625,-36.62109375,-72.75390625,-166.015625,0.0,0,0
1772022415.971401,1772022415.9410346,-78.61328125,-24.90234375,-65.4296875,-248.53515625,0.0,0,0
1772022415.971445,1772022415.9449258,8.30078125,-17.578125,0.0,-31.73828125,0.0,0,0
1772022415.9714859,1772022415.9488173,44.43359375,-13.18359375,29.296875,168.45703125,0.0,0,0
1772022416.015473,1772022415.952841,11.71875,-22.94921875,-15.625,104.4921875,0.0,0,0
1772022416.015692,1772022415.9567323,-41.015625,-20.5078125,-62.01171875,-127.9296875,0.0,0,0
1772022416.0157928,1772022415.9606237,-75.68359375,-19.53125,-62.5,-245.60546875,0.0,0,0
1772022416.015842,1772022415.964515,-18.5546875,-18.06640625,-5.37109375,-56.15234375,0.0,0,0
1772022416.015887,1772022415.9684064,25.87890625,-7.8125,26.3671875,147.94921875,0.0,0,0
1772022416.0159302,1772022415.9722977,11.71875,-9.765625,-5.859375,123.046875,0.0,0,0
1772022416.015979,1772022415.9761891,-47.8515625,-51.26953125,-57.12890625,-99.609375,0.0,0,0
1772022416.016022,1772022415.9800804,-84.47265625,-70.3125,-68.84765625,-247.55859375,0.0,0,0
1772022416.0160692,1772022415.9839718,-12.20703125,-34.66796875,-7.8125,-83.49609375,0.0,0,0
1772022416.0161312,1772022415.987863,35.64453125,-29.296875,29.78515625,132.8125,0.0,0,0
1772022416.016174,1772022415.9917545,9.765625,-25.87890625,-1.46484375,143.5546875,0.0,0,0
1772022416.016216,1772022415.995646,-45.8984375,-14.16015625,-56.640625,-66.89453125,0.0,0,0
1772022416.0745862,1772022415.9996579,-80.56640625,-12.20703125,-71.77734375,-235.83984375,0.0,0,0
1772022416.074775,1772022416.003549,-40.52734375,-11.71875,-17.08984375,-114.2578125,0.0,0,0
1772022416.074841,1772022416.0074406,12.20703125,-13.18359375,22.94921875,109.86328125,0.0,0,0
1772022416.074903,1772022416.011332,9.27734375,-20.01953125,-0.48828125,156.73828125,0.0,0,0
1772022416.074968,1772022416.0152233,-51.7578125,-35.15625,-57.12890625,-45.8984375,0.0,0,0
1772022416.075027,1772022416.0191147,-84.47265625,-35.15625,-72.265625,-223.14453125,0.0,0,0
1772022416.0750852,1772022416.0230062,-35.64453125,-24.90234375,-25.390625,-127.44140625,0.0,0,0
1772022416.075144,1772022416.0268974,19.53125,-23.92578125,12.6953125,95.703125,0.0,0,0
1772022416.075202,1772022416.030789,34.1796875,-33.203125,7.8125,176.26953125,0.0,0,0
1772022416.075258,1772022416.0346804,-9.27734375,-45.8984375,-43.9453125,-9.765625,0.0,0,0
1772022416.075315,1772022416.0385716,-59.5703125,-41.015625,-75.68359375,-208.984375,0.0,0,0
1772022416.0753732,1772022416.042463,-41.9921875,-28.3203125,-33.69140625,-159.66796875,0.0,0,0
1772022416.1355789,1772022416.0466874,12.6953125,-16.11328125,9.27734375,63.4765625,0.0,0,0
1772022416.1357281,1772022416.0505788,21.484375,-14.16015625,0.48828125,172.8515625,0.0,0,0
1772022416.135777,1772022416.0544703,-38.0859375,-30.2734375,-52.734375,7.32421875,0.0,0,0
1772022416.135937,1772022416.0583618,-73.73046875,-54.19921875,-83.0078125,-197.265625,0.0,0,0
1772022416.1359842,1772022416.0622532,-46.38671875,-33.69140625,-53.7109375,-185.546875,0.0,0,0
1772022416.1360278,1772022416.0661447,-5.859375,-0.48828125,-4.8828125,41.015625,0.0,0,0
1772022416.136071,1772022416.0700362,16.6015625,-1.46484375,7.32421875,171.38671875,0.0,0,0
1772022416.136113,1772022416.0739276,-16.6015625,-19.53125,-40.52734375,22.94921875,0.0,0,0
1772022416.1361542,1772022416.077819,-60.05859375,-32.2265625,-67.3828125,-182.12890625,0.0,0,0
1772022416.136197,1772022416.0817106,-45.41015625,-40.52734375,-41.015625,-209.9609375,0.0,0,0
1772022416.136239,1772022416.085602,14.6484375,-28.80859375,11.23046875,5.859375,0.0,0,0
1772022416.136281,1772022416.0894935,36.62109375,-15.13671875,24.4140625,167.48046875,0.0,0,0
1772022416.1657732,1772022416.0935888,-2.9296875,-29.78515625,-30.2734375,57.6171875,0.0,0,0
1772022416.165924,1772022416.0974803,-53.22265625,-42.48046875,-67.3828125,-143.5546875,0.0,0,0
1772022416.165972,1772022416.101372,-55.17578125,-39.55078125,-57.6171875,-203.61328125,0.0,0,0
1772022416.166019,1772022416.1052635,-12.6953125,-20.5078125,-1.46484375,-6.8359375,0.0,0,0
1772022416.166062,1772022416.109155,19.53125,-6.34765625,23.4375,174.8046875,0.0,0,0
1772022416.16611,1772022416.1130464,-1.953125,-26.3671875,-23.4375,98.6328125,0.0,0,0
1772022416.166152,1772022416.1169379,-70.3125,-47.36328125,-69.3359375,-128.41796875,0.0,0,0
1772022416.166195,1772022416.1208293,-89.35546875,-30.2734375,-61.5234375,-226.07421875,0.0,0,0
1772022416.166317,1772022416.1247208,-17.08984375,-13.671875,-1.46484375,-38.0859375,0.0,0,0
1772022416.1663868,1772022416.1286123,27.34375,-23.4375,26.3671875,160.15625,0.0,0,0
1772022416.166427,1772022416.132504,-12.6953125,-30.76171875,-12.6953125,117.1875,0.0,0,0
1772022416.166461,1772022416.1363955,-67.3828125,-30.76171875,-66.89453125,-113.76953125,0.0,0,0
1772022416.21137,1772022416.1404765,-80.56640625,-33.69140625,-72.75390625,-238.76953125,0.0,0,0
1772022416.211576,1772022416.144368,-46.38671875,-22.94921875,-14.16015625,-66.40625,0.0,0,0
1772022416.2116401,1772022416.1482594,1.46484375,-18.06640625,20.5078125,140.625,0.0,0,0
1772022416.2116868,1772022416.1521509,-3.90625,-31.73828125,-12.6953125,133.30078125,0.0,0,0
1772022416.21173,1772022416.1560426,-68.359375,-40.52734375,-65.4296875,-81.54296875,0.0,0,0
1772022416.2117739,1772022416.159934,-96.6796875,-30.76171875,-69.82421875,-233.3984375,0.0,0,0
1772022416.211817,1772022416.1638255,-46.38671875,-16.11328125,-13.18359375,-92.28515625,0.0,0,0
1772022416.211859,1772022416.1677172,11.23046875,-12.20703125,21.484375,124.0234375,0.0,0,0
1772022416.211901,1772022416.1716087,6.34765625,-34.66796875,-1.953125,153.80859375,0.0,0,0
1772022416.211943,1772022416.1755002,-56.640625,-68.359375,-59.08203125,-61.5234375,0.0,0,0
1772022416.2119858,1772022416.1793919,-77.1484375,-52.734375,-80.078125,-237.79296875,0.0,0,0
1772022416.2120278,1772022416.1832833,-35.15625,-39.0625,-24.4140625,-121.09375,0.0,0,0
1772022416.255392,1772022416.1873474,8.7890625,-41.015625,17.08984375,112.79296875,0.0,0,0
1772022416.255554,1772022416.191239,10.25390625,-15.625,0.0,176.26953125,0.0,0,0
1772022416.2556002,1772022416.1951306,-50.29296875,-2.9296875,-62.01171875,-38.0859375,0.0,0,0
1772022416.255646,1772022416.1990223,-77.63671875,-19.04296875,-85.44921875,-226.07421875,0.0,0,0
1772022416.255691,1772022416.2029138,-46.875,-17.578125,-24.4140625,-136.71875,0.0,0,0
1772022416.255734,1772022416.2068055,-1.953125,-15.13671875,26.85546875,99.12109375,0.0,0,0
1772022416.255776,1772022416.210697,18.06640625,-27.83203125,20.99609375,196.77734375,0.0,0,0
1772022416.255836,1772022416.2145884,-30.76171875,-45.8984375,-39.0625,10.25390625,0.0,0,0
1772022416.255879,1772022416.21848,-86.9140625,-52.734375,-75.68359375,-201.171875,0.0,0,0
1772022416.2559218,1772022416.2223716,-62.01171875,-34.66796875,-36.62109375,-174.8046875,0.0,0,0
1772022416.255955,1772022416.2262633,9.765625,-20.99609375,14.6484375,65.4296875,0.0,0,0
1772022416.255988,1772022416.2301548,35.15625,-23.4375,20.01953125,193.84765625,0.0,0,0
1772022416.3010938,1772022416.2342064,-16.6015625,-33.69140625,-37.59765625,20.5078125,0.0,0,0
1772022416.30125,1772022416.2380981,-65.4296875,-42.96875,-78.61328125,-191.40625,0.0,0,0
1772022416.3012989,1772022416.2419899,-48.33984375,-33.69140625,-48.828125,-200.1953125,0.0,0,0
1772022416.301345,1772022416.2458813,4.39453125,-25.390625,4.8828125,27.83203125,0.0,0,0
1772022416.301388,1772022416.249773,27.34375,-34.66796875,17.578125,188.4765625,0.0,0,0
1772022416.301431,1772022416.2536645,-4.8828125,-49.8046875,-37.59765625,52.24609375,0.0,0,0
1772022416.301474,1772022416.2575562,-55.6640625,-33.203125,-74.21875,-168.45703125,0.0,0,0
1772022416.301517,1772022416.261448,-73.73046875,-21.97265625,-53.7109375,-217.7734375,0.0,0,0
1772022416.301561,1772022416.2653394,-10.7421875,-27.83203125,0.48828125,-3.90625,0.0,0,0
1772022416.301604,1772022416.269231,35.64453125,-10.7421875,24.4140625,178.7109375,0.0,0,0
1772022416.301646,1772022416.2731225,-8.30078125,-19.53125,-20.99609375,78.61328125,0.0,0,0
1772022416.301708,1772022416.2770143,-55.17578125,-45.41015625,-60.05859375,-142.08984375,0.0,0,0
1772022416.3458319,1772022416.2810512,-47.8515625,-57.12890625,-52.24609375,-220.21484375,0.0,0,0
1772022416.346001,1772022416.2849429,8.30078125,-45.8984375,5.859375,-15.625,0.0,0,0
1772022416.34605,1772022416.2888346,31.73828125,-20.5078125,32.71484375,183.59375,0.0,0,0
1772022416.3460941,1772022416.292726,-3.41796875,-24.90234375,-20.01953125,121.58203125,0.0,0,0
1772022416.346138,1772022416.2966177,-62.01171875,-35.64453125,-71.2890625,-118.65234375,0.0,0,0
1772022416.3461819,1772022416.3005095,-75.68359375,-36.62109375,-68.84765625,-232.91015625,0.0,0,0
1772022416.346226,1772022416.3044012,-11.23046875,-24.90234375,-9.765625,-44.921875,0.0,0,0
1772022416.346268,1772022416.3082926,31.25,-30.2734375,20.99609375,160.15625,0.0,0,0
1772022416.34631,1772022416.3121843,8.30078125,-47.8515625,-7.32421875,144.04296875,0.0,0,0
1772022416.3463528,1772022416.316076,-41.015625,-50.78125,-55.17578125,-84.47265625,0.0,0,0
1772022416.346405,1772022416.3199677,-57.12890625,-46.38671875,-68.359375,-232.91015625,0.0,0,0
1772022416.346448,1772022416.3238592,-20.01953125,-16.6015625,-10.25390625,-77.1484375,0.0,0,0
1772022416.434412,1772022416.3278823,16.11328125,4.8828125,27.34375,138.18359375,0.0,0,0
1772022416.434627,1772022416.3317738,10.7421875,-5.37109375,-0.48828125,155.2734375,0.0,0,0
1772022416.4348001,1772022416.3356655,-41.9921875,-29.78515625,-51.26953125,-62.01171875,0.0,0,0
1772022416.4349,1772022416.3395572,-74.70703125,-25.87890625,-68.359375,-233.88671875,0.0,0,0
1772022416.434965,1772022416.3434489,-31.25,-12.20703125,-18.06640625,-109.375,0.0,0,0
1772022416.4350238,1772022416.3473406,33.203125,-8.30078125,27.34375,118.1640625,0.0,0,0
1772022416.435083,1772022416.3512323,40.52734375,-26.85546875,7.32421875,168.45703125,0.0,0,0
1772022416.4351418,1772022416.355124,-14.16015625,-68.84765625,-55.17578125,-38.0859375,0.0,0,0
1772022416.4352052,1772022416.3590155,-51.7578125,-66.40625,-73.2421875,-220.21484375,0.0,0,0
1772022416.435263,1772022416.3629072,-27.83203125,-13.671875,-20.99609375,-130.859375,0.0,0,0
1772022416.4353201,1772022416.3667989,23.92578125,8.7890625,19.04296875,92.28515625,0.0,0,0
1772022416.435379,1772022416.3706906,33.69140625,-20.01953125,6.8359375,170.41015625,0.0,0,0
1772022416.451415,1772022416.3748188,-21.484375,-38.0859375,-51.7578125,-19.53125,0.0,0,0
1772022416.45155,1772022416.3787105,-66.40625,-31.25,-78.61328125,-213.37890625,0.0,0,0
1772022416.451597,1772022416.3826022,-35.15625,-27.34375,-25.390625,-156.25,0.0,0,0
1772022416.4516401,1772022416.3864942,27.83203125,-20.01953125,28.3203125,77.63671875,0.0,0,0
1772022416.451683,1772022416.3903859,36.1328125,-22.4609375,16.6015625,180.6640625,0.0,0,0
1772022416.4517262,1772022416.3942776,-20.5078125,-29.296875,-41.50390625,3.90625,0.0,0,0
1772022416.451769,1772022416.3981693,-72.265625,-43.45703125,-74.70703125,-202.63671875,0.0,0,0
1772022416.451925,1772022416.402061,-60.546875,-38.57421875,-39.0625,-187.98828125,0.0,0,0
1772022416.451971,1772022416.4059527,1.46484375,0.48828125,24.4140625,52.24609375,0.0,0,0
1772022416.452013,1772022416.4098444,28.3203125,-4.39453125,27.34375,193.359375,0.0,0,0
1772022416.452055,1772022416.413736,-11.71875,-41.015625,-43.45703125,36.62109375,0.0,0,0
1772022416.452097,1772022416.4176278,-73.73046875,-73.73046875,-80.56640625,-186.03515625,0.0,0,0
1772022416.497041,1772022416.4217343,-74.21875,-53.22265625,-48.33984375,-210.9375,0.0,0,0
1772022416.497227,1772022416.425626,-10.7421875,-17.08984375,5.859375,14.16015625,0.0,0,0
1772022416.497292,1772022416.429518,27.83203125,-7.32421875,23.4375,181.15234375,0.0,0,0
1772022416.497353,1772022416.4334097,-15.13671875,-8.30078125,-31.25,66.40625,0.0,0,0
1772022416.4974132,1772022416.4373014,-81.0546875,-20.99609375,-74.21875,-154.78515625,0.0,0,0
1772022416.497472,1772022416.4411933,-71.2890625,-28.80859375,-53.22265625,-221.19140625,0.0,0,0
1772022416.4975328,1772022416.445085,-1.953125,-13.18359375,5.37109375,-13.18359375,0.0,0,0
1772022416.497605,1772022416.4489768,33.203125,-12.20703125,25.390625,168.9453125,0.0,0,0
1772022416.497663,1772022416.4528685,7.8125,-15.625,-23.92578125,86.42578125,0.0,0,0
1772022416.49772,1772022416.4567604,-36.1328125,-47.8515625,-74.70703125,-134.765625,0.0,0,0
1772022416.497778,1772022416.460652,-64.453125,-67.87109375,-70.80078125,-234.375,0.0,0,0
1772022416.497836,1772022416.4645438,-10.7421875,-20.99609375,-8.30078125,-39.55078125,0.0,0,0
1772022416.5404742,1772022416.4686334,29.78515625,-9.765625,22.4609375,161.1328125,0.0,0,0
1772022416.540643,1772022416.4725254,-9.765625,-17.08984375,-20.01953125,112.3046875,0.0,0,0
1772022416.540694,1772022416.476417,-71.77734375,-12.20703125,-73.73046875,-121.09375,0.0,0,0
1772022416.540738,1772022416.480309,-83.984375,-29.78515625,-71.2890625,-248.53515625,0.0,0,0
1772022416.540781,1772022416.4842007,-26.85546875,-31.73828125,-5.859375,-67.87109375,0.0,0,0
1772022416.5408242,1772022416.4880927,16.11328125,-8.30078125,24.90234375,135.7421875,0.0,0,0
1772022416.540867,1772022416.4919844,-2.44140625,-13.671875,-10.7421875,134.27734375,0.0,0,0
1772022416.540909,1772022416.495876,-62.01171875,-35.15625,-66.89453125,-84.9609375,0.0,0,0
1772022416.54095,1772022416.499768,-84.9609375,-34.1796875,-77.63671875,-236.81640625,0.0,0,0
1772022416.540992,1772022416.5036597,-35.64453125,-25.390625,-9.27734375,-86.42578125,0.0,0,0
1772022416.541034,1772022416.5075517,10.25390625,-13.18359375,29.296875,128.90625,0.0,0,0
1772022416.541076,1772022416.5114434,3.90625,-22.4609375,1.46484375,159.66796875,0.0,0,0
1772022416.5860312,1772022416.5155203,-41.9921875,-52.734375,-58.59375,-56.15234375,0.0,0,0
1772022416.586197,1772022416.5194123,-69.3359375,-44.43359375,-77.63671875,-228.02734375,0.0,0,0
1772022416.586247,1772022416.5233042,-39.0625,-11.23046875,-16.6015625,-112.3046875,0.0,0,0
1772022416.586292,1772022416.527196,11.71875,4.39453125,22.4609375,114.2578125,0.0,0,0
1772022416.586336,1772022416.5310879,16.6015625,-3.41796875,9.27734375,179.19921875,0.0,0,0
1772022416.58638,1772022416.5349796,-43.45703125,-20.99609375,-48.828125,-23.4375,0.0,0,0
1772022416.586422,1772022416.5388715,-85.44921875,-26.3671875,-77.1484375,-220.703125,0.0,0,0
1772022416.586464,1772022416.5427635,-44.43359375,-16.6015625,-40.52734375,-173.828125,0.0,0,0
1772022416.586506,1772022416.5466552,19.53125,-27.83203125,0.0,54.6875,0.0,0,0
1772022416.586546,1772022416.5505471,16.6015625,-41.015625,16.11328125,172.36328125,0.0,0,0
1772022416.586587,1772022416.554439,-55.6640625,-49.31640625,-29.296875,-1.46484375,0.0,0,0
1772022416.5866292,1772022416.5583308,-99.609375,-59.08203125,-62.01171875,-208.49609375,0.0,0,0
1772022416.632054,1772022416.562394,-78.61328125,-53.7109375,-19.53125,-186.5234375,0.0,0,0
1772022416.632242,1772022416.5662858,-25.390625,-51.7578125,32.71484375,51.7578125,0.0,0,0
1772022416.632307,1772022416.5701776,-13.18359375,-62.01171875,36.62109375,186.5234375,0.0,0,0
1772022416.632452,1772022416.5740695,-73.73046875,-92.7734375,-17.08984375,30.2734375,0.0,0,0
1772022416.632531,1772022416.5779614,-121.09375,-90.8203125,-45.8984375,-168.9453125,0.0,0,0
1772022416.632593,1772022416.5818534,-103.515625,-61.03515625,-6.34765625,-179.19921875,0.0,0,0
1772022416.632652,1772022416.585745,-41.9921875,-60.546875,43.9453125,55.6640625,0.0,0,0
1772022416.63271,1772022416.589637,-25.87890625,-69.82421875,48.33984375,217.28515625,0.0,0,0
1772022416.632768,1772022416.593529,-71.2890625,-103.02734375,-7.32421875,82.03125,0.0,0,0
1772022416.632826,1772022416.597421,-117.67578125,-120.1171875,-46.875,-132.8125,0.0,0,0
1772022416.6328828,1772022416.6013126,-125.48828125,-89.35546875,-25.390625,-175.29296875,0.0,0,0
1772022416.632942,1772022416.6052046,-57.12890625,-79.58984375,44.43359375,50.29296875,0.0,0,0
1772022416.675638,1772022416.6092513,-10.7421875,-96.6796875,71.2890625,243.1640625,0.0,0,0
1772022416.675787,1772022416.6131432,-57.6171875,-98.6328125,15.13671875,145.5078125,0.0,0,0
1772022416.6758342,1772022416.6170352,-118.1640625,-90.8203125,-36.62109375,-87.890625,0.0,0,0
1772022416.67588,1772022416.620927,-117.67578125,-79.1015625,-33.69140625,-183.10546875,0.0,0,0
1772022416.675924,1772022416.624819,-60.546875,-59.08203125,29.296875,20.01953125,0.0,0,0
1772022416.675966,1772022416.628711,-13.18359375,-49.31640625,57.12890625,223.14453125,0.0,0,0
1772022416.676009,1772022416.632603,-30.2734375,-64.94140625,2.9296875,153.80859375,0.0,0,0
1772022416.67605,1772022416.6364949,-95.703125,-87.40234375,-53.7109375,-93.26171875,0.0,0,0
1772022416.6760929,1772022416.6403866,-104.4921875,-93.75,-48.33984375,-206.0546875,0.0,0,0
1772022416.6761348,1772022416.6442785,-41.9921875,-83.0078125,14.6484375,-8.30078125,0.0,0,0
1772022416.6761768,1772022416.6481705,4.8828125,-69.3359375,45.8984375,198.73046875,0.0,0,0
1772022416.676219,1772022416.6520624,-9.765625,-68.359375,8.30078125,181.640625,0.0,0,0
1772022416.735917,1772022416.6562078,-55.17578125,-74.21875,-53.22265625,-53.22265625,0.0,0,0
1772022416.736094,1772022416.6600997,-80.56640625,-97.65625,-60.546875,-210.9375,0.0,0,0
1772022416.7361548,1772022416.663992,-39.0625,-62.01171875,9.765625,-39.55078125,0.0,0,0
1772022416.7361999,1772022416.6678839,19.53125,1.46484375,45.8984375,179.19921875,0.0,0,0
1772022416.736244,1772022416.6717758,12.6953125,0.0,17.08984375,190.4296875,0.0,0,0
1772022416.736286,1772022416.6756678,-53.7109375,-20.5078125,-41.015625,-36.1328125,0.0,0,0
1772022416.736329,1772022416.6795597,-87.40234375,-36.62109375,-62.98828125,-213.37890625,0.0,0,0
1772022416.736372,1772022416.6834517,-27.83203125,-43.9453125,-6.34765625,-78.61328125,0.0,0,0
1772022416.736415,1772022416.6873436,34.1796875,-37.59765625,33.203125,150.87890625,0.0,0,0
1772022416.736456,1772022416.6912355,33.69140625,-35.64453125,9.27734375,194.3359375,0.0,0,0
1772022416.7365062,1772022416.6951277,-33.69140625,-44.921875,-51.26953125,-13.671875,0.0,0,0
1772022416.7365491,1772022416.6990197,-71.2890625,-53.7109375,-75.1953125,-204.58984375,0.0,0,0
1772022416.766262,1772022416.7030385,-41.50390625,-44.43359375,-20.99609375,-117.67578125,0.0,0,0
1772022416.766419,1772022416.7069306,11.71875,-37.109375,27.83203125,125.0,0.0,0,0
1772022416.766467,1772022416.7108226,18.06640625,-57.6171875,13.671875,208.49609375,0.0,0,0
1772022416.7665122,1772022416.7147145,-42.48046875,-72.265625,-46.875,5.859375,0.0,0,0
1772022416.7665558,1772022416.7186065,-90.8203125,-53.7109375,-78.61328125,-197.265625,0.0,0,0
1772022416.766599,1772022416.7224984,-62.98828125,-28.80859375,-34.66796875,-154.296875,0.0,0,0
1772022416.766641,1772022416.7263906,11.71875,-19.53125,18.5546875,75.68359375,0.0,0,0
1772022416.7666829,1772022416.7302825,24.90234375,-30.76171875,9.27734375,195.3125,0.0,0,0
1772022416.7667332,1772022416.7341745,-42.96875,-47.8515625,-59.08203125,16.6015625,0.0,0,0
1772022416.7667751,1772022416.7380664,-90.8203125,-45.41015625,-83.49609375,-195.3125,0.0,0,0
1772022416.766835,1772022416.7419586,-74.21875,-41.9921875,-42.48046875,-184.5703125,0.0,0,0
1772022416.766897,1772022416.7458506,-7.32421875,-42.96875,10.25390625,49.31640625,0.0,0,0
1772022416.825613,1772022416.7499647,24.90234375,-36.62109375,17.08984375,190.4296875,0.0,0,0
1772022416.825758,1772022416.7538567,-18.06640625,-38.57421875,-38.57421875,49.31640625,0.0,0,0
1772022416.8258078,1772022416.7577488,-58.59375,-30.76171875,-68.84765625,-161.62109375,0.0,0,0
1772022416.825854,1772022416.7616408,-54.6875,-46.875,-46.38671875,-205.56640625,0.0,0,0
1772022416.825897,1772022416.7655327,13.18359375,-49.31640625,8.7890625,22.94921875,0.0,0,0
1772022416.8260171,1772022416.769425,43.9453125,-14.6484375,31.25,193.359375,0.0,0,0
1772022416.8261209,1772022416.7733169,-9.27734375,-25.87890625,-24.4140625,67.87109375,0.0,0,0
1772022416.8261938,1772022416.777209,-68.84765625,-40.52734375,-68.359375,-147.94921875,0.0,0,0
1772022416.8262432,1772022416.781101,-79.1015625,-40.52734375,-48.828125,-216.796875,0.0,0,0
1772022416.8262882,1772022416.7849932,-14.16015625,-32.2265625,13.671875,-4.39453125,0.0,0,0
1772022416.826331,1772022416.788885,31.25,-15.13671875,37.109375,194.82421875,0.0,0,0
1772022416.826373,1772022416.792777,-3.90625,-30.2734375,-17.578125,104.98046875,0.0,0,0
1772022416.871118,1772022416.7967658,-70.80078125,-47.8515625,-69.3359375,-133.7890625,0.0,0,0
1772022416.871275,1772022416.800658,-81.0546875,-37.109375,-61.5234375,-233.3984375,0.0,0,0
1772022416.8713238,1772022416.80455,-14.16015625,-17.578125,1.953125,-30.76171875,0.0,0,0
1772022416.871369,1772022416.808442,22.4609375,-9.765625,25.390625,178.7109375,0.0,0,0
1772022416.8714108,1772022416.812334,-12.6953125,-18.06640625,-17.578125,128.41796875,0.0,0,0
1772022416.871456,1772022416.8162262,-88.8671875,-33.203125,-67.3828125,-111.328125,0.0,0,0
1772022416.871497,1772022416.8201182,-98.6328125,-29.78515625,-67.3828125,-247.55859375,0.0,0,0
1772022416.87154,1772022416.8240104,-32.2265625,-14.16015625,-5.859375,-74.70703125,0.0,0,0
1772022416.871582,1772022416.8279023,15.625,-8.30078125,24.90234375,134.27734375,0.0,0,0
1772022416.871624,1772022416.8317945,20.5078125,-30.76171875,0.0,142.578125,0.0,0,0
1772022416.871664,1772022416.8356867,-28.80859375,-51.7578125,-55.17578125,-58.59375,0.0,0,0
1772022416.871705,1772022416.8395786,-75.1953125,-35.64453125,-79.1015625,-240.234375,0.0,0,0
1772022416.916065,1772022416.8436658,-57.12890625,-20.99609375,-23.92578125,-128.90625,0.0,0,0
1772022416.916219,1772022416.8475578,-9.765625,-17.578125,18.06640625,93.75,0.0,0,0
1772022416.916266,1772022416.85145,-5.37109375,-14.16015625,-9.765625,123.046875,0.0,0,0
1772022416.916311,1772022416.8553421,-60.546875,-30.2734375,-64.453125,-95.21484375,0.0,0,0
1772022416.916394,1772022416.8592343,-104.00390625,-37.109375,-79.1015625,-262.6953125,0.0,0,0
1772022416.916459,1772022416.8631263,-62.01171875,-17.578125,-23.92578125,-142.578125,0.0,0,0
1772022416.916506,1772022416.8670185,20.5078125,-16.11328125,19.53125,93.26171875,0.0,0,0
1772022416.91655,1772022416.8709106,26.85546875,-22.4609375,5.37109375,161.1328125,0.0,0,0
1772022416.9166431,1772022416.8748026,-46.38671875,-37.109375,-57.12890625,-35.15625,0.0,0,0
1772022416.9167218,1772022416.8786948,-89.35546875,-57.6171875,-88.8671875,-228.515625,0.0,0,0
1772022416.9167721,1772022416.882587,-55.17578125,-41.015625,-38.0859375,-168.9453125,0.0,0,0
1772022416.9168158,1772022416.886479,5.859375,-19.53125,20.01953125,77.1484375,0.0,0,0
1772022416.960577,1772022416.8905506,25.390625,-24.4140625,11.23046875,187.01171875,0.0,0,0
1772022416.9607491,1772022416.8944426,-38.0859375,-26.85546875,-57.6171875,-19.04296875,0.0,0,0
1772022416.960798,1772022416.8983347,-99.609375,-29.78515625,-89.35546875,-231.4453125,0.0,0,0
1772022416.960844,1772022416.902227,-74.70703125,-24.90234375,-51.26953125,-199.21875,0.0,0,0
1772022416.96089,1772022416.906119,-4.8828125,-6.34765625,4.8828125,43.9453125,0.0,0,0
1772022416.960938,1772022416.9100113,33.203125,-2.9296875,11.71875,184.08203125,0.0,0,0
1772022416.960983,1772022416.9139035,-22.4609375,-17.08984375,-47.8515625,12.20703125,0.0,0,0
1772022416.961034,1772022416.9177954,-80.078125,-36.62109375,-82.03125,-206.54296875,0.0,0,0
1772022416.961078,1772022416.9216876,-62.5,-38.57421875,-52.734375,-206.0546875,0.0,0,0
1772022416.961128,1772022416.9255798,13.18359375,-26.3671875,5.37109375,23.92578125,0.0,0,0
1772022416.961175,1772022416.929472,49.8046875,-25.87890625,17.578125,177.734375,0.0,0,0
1772022416.961238,1772022416.9333642,-17.08984375,-28.80859375,-42.96875,43.45703125,0.0,0,0
1772022417.035867,1772022416.9376407,-77.1484375,-33.69140625,-80.56640625,-167.48046875,0.0,0,0
1772022417.0360188,1772022416.941533,-64.94140625,-27.34375,-57.12890625,-209.9609375,0.0,0,0
