timestamp,lsl_timestamp,TP9,AF7,AF8,TP10,Right AUX,keypress_A,keypress_B
1771947784.511918,1771947784.443713,-1000.0,-1000.0,-1000.0,-907.71484375,0.0,0,0
1771947784.5121129,1771947784.4476097,235.3515625,-813.96484375,-966.30859375,404.78515625,0.0,0,0
1771947784.512148,1771947784.4515064,-863.76953125,550.29296875,291.9921875,-843.75,0.0,0,0
1771947784.512177,1771947784.4554033,679.6875,-799.8046875,-773.4375,593.26171875,0.0,0,0
1771947784.512206,1771947784.4593,-605.95703125,155.76171875,237.3046875,-732.91015625,0.0,0,0
1771947784.512234,1771947784.463197,-1000.0,-1000.0,-994.62890625,-1000.0,0.0,0,0
1771947784.5122602,1771947784.4670937,-33.69140625,-1000.0,-1000.0,105.95703125,0.0,0,0
1771947784.5122938,1771947784.4709907,-914.55078125,111.328125,0.9765625,-865.234375,0.0,0,0
1771947784.5123231,1771947784.4748874,831.0546875,-761.71875,-783.203125,727.05078125,0.0,0,0
1771947784.512351,1771947784.478784,-425.78125,208.0078125,378.41796875,-574.70703125,0.0,0,0
1771947784.512379,1771947784.482681,-1000.0,-1000.0,-928.22265625,-1000.0,0.0,0,0
1771947784.512405,1771947784.4865777,-111.81640625,-1000.0,-1000.0,-6.8359375,0.0,0,0
1771947784.556899,1771947784.4905984,-988.28125,-50.29296875,-150.87890625,-936.03515625,0.0,0,0
1771947784.557037,1771947784.4944952,-991.69921875,-786.62109375,-849.12109375,938.4765625,0.0,0,0
1771947784.557076,1771947784.498392,-89.35546875,405.76171875,609.86328125,-211.9140625,0.0,0,0
1771947784.557112,1771947784.5022888,-1000.0,-920.41015625,-759.27734375,-1000.0,0.0,0,0
1771947784.557146,1771947784.5061858,-255.859375,-1000.0,-1000.0,-145.01953125,0.0,0,0
1771947784.557185,1771947784.5100825,964.35546875,-160.64453125,-189.453125,-929.6875,0.0,0,0
1771947784.5572212,1771947784.5139794,993.65234375,-857.91015625,-942.3828125,897.94921875,0.0,0,0
1771947784.557255,1771947784.5178761,-125.0,654.78515625,893.5546875,-293.45703125,0.0,0,0
1771947784.557288,1771947784.521773,-1000.0,-723.6328125,-401.85546875,-1000.0,0.0,0,0
1771947784.5573199,1771947784.5256698,-312.01171875,-1000.0,-1000.0,-211.42578125,0.0,0,0
1771947784.5573509,1771947784.5295668,916.9921875,-201.66015625,-177.24609375,-982.91015625,0.0,0,0
1771947784.5573928,1771947784.5334635,-938.96484375,-942.87109375,-986.328125,995.60546875,0.0,0,0
1771947784.6021261,1771947784.5374708,41.50390625,890.625,-975.5859375,-118.65234375,0.0,0,0
1771947784.60222,1771947784.5413675,-1000.0,-424.31640625,-128.90625,-1000.0,0.0,0,0
1771947784.6022599,1771947784.5452645,-419.43359375,-1000.0,-1000.0,-287.59765625,0.0,0,0
1771947784.602296,1771947784.5491614,816.89453125,-167.48046875,-250.0,939.453125,0.0,0,0
1771947784.6023319,1771947784.5530581,-885.25390625,996.58203125,965.8203125,-899.90234375,0.0,0,0
1771947784.602369,1771947784.556955,287.109375,-947.265625,-919.921875,238.76953125,0.0,0,0
1771947784.602405,1771947784.5608518,-1000.0,-19.04296875,104.00390625,-1000.0,0.0,0,0
1771947784.602439,1771947784.5647488,-617.67578125,-1000.0,-1000.0,-484.375,0.0,0,0
1771947784.602488,1771947784.5686455,697.265625,-390.625,-499.51171875,865.72265625,0.0,0,0
1771947784.602525,1771947784.5725424,-868.1640625,915.52734375,851.07421875,-875.48828125,0.0,0,0
1771947784.60256,1771947784.5764394,298.828125,-896.97265625,-868.65234375,203.61328125,0.0,0,0
1771947784.6025941,1771947784.580336,-1000.0,84.9609375,179.19921875,-1000.0,0.0,0,0
1771947784.647944,1771947784.584334,-839.84375,-1000.0,-1000.0,-727.05078125,0.0,0,0
1771947784.648061,1771947784.5882308,478.515625,-517.578125,-729.00390625,612.79296875,0.0,0,0
1771947784.648093,1771947784.5921278,-834.47265625,843.75,642.578125,-825.1953125,0.0,0,0
1771947784.648122,1771947784.5960245,411.1328125,-860.3515625,-819.82421875,283.203125,0.0,0,0
1771947784.6481779,1771947784.5999215,-909.66796875,183.59375,163.0859375,-1000.0,0.0,0,0
1771947784.6482072,1771947784.6038184,-986.328125,-1000.0,-1000.0,-893.06640625,0.0,0,0
1771947784.648234,1771947784.6077151,281.25,-899.90234375,-980.95703125,404.296875,0.0,0,0
1771947784.64826,1771947784.611612,-838.37890625,425.78125,267.08984375,-806.15234375,0.0,0,0
1771947784.648287,1771947784.615509,527.83203125,-784.66796875,-771.97265625,363.76953125,0.0,0,0
1771947784.648315,1771947784.6194057,-739.74609375,146.97265625,197.75390625,-933.59375,0.0,0,0
1771947784.6483421,1771947784.6233027,-1000.0,-1000.0,-1000.0,-1000.0,0.0,0,0
1771947784.6483672,1771947784.6271996,-31.73828125,-1000.0,-1000.0,76.66015625,0.0,0,0
1771947784.6919591,1771947784.6311867,-918.45703125,104.98046875,-13.18359375,-871.09375,0.0,0,0
1771947784.6920772,1771947784.6350837,852.05078125,-765.13671875,-783.69140625,742.67578125,0.0,0,0
1771947784.692117,1771947784.6389804,-383.30078125,229.00390625,378.41796875,-548.828125,0.0,0,0
1771947784.692152,1771947784.6428773,-1000.0,-1000.0,-931.640625,-1000.0,0.0,0,0
1771947784.692218,1771947784.6467743,-144.53125,-1000.0,-1000.0,-41.015625,0.0,0,0
1771947784.692251,1771947784.6506712,-946.77734375,76.66015625,-137.6953125,-877.9296875,0.0,0,0
1771947784.6922839,1771947784.654568,879.39453125,-775.87890625,-848.14453125,744.140625,0.0,0,0
1771947784.692317,1771947784.658465,-331.54296875,440.91796875,616.69921875,-544.43359375,0.0,0,0
1771947784.69235,1771947784.6623619,-1000.0,-875.48828125,-747.55859375,-1000.0,0.0,0,0
1771947784.692381,1771947784.6662586,-237.3046875,-1000.0,-1000.0,-137.6953125,0.0,0,0
1771947784.692412,1771947784.6701555,945.80078125,-233.3984375,-211.9140625,-967.28515625,0.0,0,0
1771947784.6924438,1771947784.6740525,-952.63671875,-859.375,-919.43359375,975.09765625,0.0,0,0
1771947784.767634,1771947784.6782095,-19.53125,581.0546875,809.5703125,-155.2734375,0.0,0,0
1771947784.767794,1771947784.6821065,-1000.0,-816.89453125,-532.2265625,-1000.0,0.0,0,0
1771947784.767841,1771947784.6860034,-316.40625,-1000.0,-1000.0,-208.984375,0.0,0,0
1771947784.7678862,1771947784.6899004,887.6953125,-177.24609375,-197.75390625,974.12109375,0.0,0,0
1771947784.767931,1771947784.6937973,-894.04296875,992.67578125,995.60546875,-913.0859375,0.0,0,0
1771947784.7679749,1771947784.6976943,225.09765625,-942.3828125,-961.9140625,192.3828125,0.0,0,0
1771947784.768018,1771947784.701591,-1000.0,-48.828125,-87.890625,-1000.0,0.0,0,0
1771947784.768057,1771947784.705488,-473.14453125,-1000.0,-1000.0,-342.7734375,0.0,0,0
1771947784.768097,1771947784.709385,801.7578125,-208.0078125,-330.078125,952.1484375,0.0,0,0
1771947784.768138,1771947784.7132819,-883.30078125,-979.4921875,943.359375,-905.76171875,0.0,0,0
1771947784.76818,1771947784.7171788,219.23828125,-968.26171875,-916.50390625,155.76171875,0.0,0,0
1771947784.7682219,1771947784.7210758,-1000.0,-120.60546875,32.71484375,-1000.0,0.0,0,0
1771947784.782659,1771947784.7250483,-560.546875,-1000.0,-1000.0,-438.96484375,0.0,0,0
1771947784.782822,1771947784.7289453,716.30859375,-375.9765625,-532.2265625,873.046875,0.0,0,0
1771947784.7828548,1771947784.7328422,-877.9296875,911.62109375,815.4296875,-880.859375,0.0,0,0
1771947784.7828841,1771947784.7367392,392.08984375,-895.5078125,-858.88671875,331.54296875,0.0,0,0
1771947784.782915,1771947784.740636,-1000.0,69.3359375,150.87890625,-1000.0,0.0,0,0
1771947784.7829409,1771947784.744533,-802.734375,-1000.0,-1000.0,-685.05859375,0.0,0,0
1771947784.782967,1771947784.74843,533.203125,-811.5234375,-854.00390625,690.91796875,0.0,0,0
1771947784.782994,1771947784.752327,-850.5859375,547.36328125,500.9765625,-840.8203125,0.0,0,0
1771947784.78302,1771947784.756224,472.65625,-858.88671875,-852.5390625,344.23828125,0.0,0,0
1771947784.783048,1771947784.7601209,-834.9609375,77.1484375,68.84765625,-957.51953125,0.0,0,0
1771947784.7830741,1771947784.7640178,-1000.0,-1000.0,-1000.0,-1000.0,0.0,0,0
1771947784.7830982,1771947784.7679148,60.05859375,-889.16015625,-1000.0,138.18359375,0.0,0,0
1771947784.841986,1771947784.7718682,-864.74609375,437.01171875,224.12109375,-826.66015625,0.0,0,0
1771947784.8421068,1771947784.7757652,698.73046875,-788.57421875,-770.5078125,552.24609375,0.0,0,0
1771947784.842189,1771947784.7796621,-615.72265625,154.78515625,200.1953125,-804.19921875,0.0,0,0
1771947784.842289,1771947784.783559,-1000.0,-1000.0,-1000.0,-1000.0,0.0,0,0
1771947784.842613,1771947784.787456,6.8359375,-1000.0,-1000.0,142.08984375,0.0,0,0
1771947784.842647,1771947784.791353,-866.2109375,210.9375,6.8359375,-807.6171875,0.0,0,0
1771947784.842676,1771947784.79525,634.27734375,-762.20703125,-779.78515625,465.8203125,0.0,0,0
1771947784.842705,1771947784.799147,-641.6015625,189.453125,366.2109375,-858.3984375,0.0,0,0
1771947784.842732,1771947784.8030438,-1000.0,-1000.0,-930.6640625,-1000.0,0.0,0,0
1771947784.842758,1771947784.8069408,-104.00390625,-1000.0,-1000.0,0.0,0.0,0,0
1771947784.842783,1771947784.8108377,-986.328125,-88.8671875,-171.38671875,-931.15234375,0.0,0,0
1771947784.8428102,1771947784.8147347,-999.0234375,-795.8984375,-858.3984375,919.43359375,0.0,0,0
1771947784.887372,1771947784.8186772,-98.6328125,441.40625,634.27734375,-250.0,0.0,0,0
1771947784.887551,1771947784.8225741,-1000.0,-899.90234375,-735.3515625,-1000.0,0.0,0,0
1771947784.8876128,1771947784.826471,-261.71875,-1000.0,-1000.0,-168.45703125,0.0,0,0
1771947784.88767,1771947784.830368,959.47265625,-188.4765625,-198.2421875,-948.73046875,0.0,0,0
1771947784.88774,1771947784.834265,-976.07421875,-905.2734375,-945.3125,931.15234375,0.0,0,0
1771947784.887799,1771947784.838162,-59.08203125,794.43359375,896.484375,-232.421875,0.0,0,0
1771947784.8878562,1771947784.842059,-1000.0,-555.6640625,-397.4609375,-1000.0,0.0,0,0
1771947784.887912,1771947784.8459558,-288.57421875,-1000.0,-1000.0,-204.1015625,0.0,0,0
1771947784.887973,1771947784.8498528,926.26953125,-194.3359375,-195.80078125,998.53515625,0.0,0,0
1771947784.888033,1771947784.8537498,-916.9921875,-949.21875,-991.2109375,-950.1953125,0.0,0,0
1771947784.888075,1771947784.8576467,119.140625,919.43359375,-975.5859375,27.34375,0.0,0,0
1771947784.888126,1771947784.8615437,-1000.0,-376.46484375,-136.23046875,-1000.0,0.0,0,0
1771947784.977291,1771947784.8658235,-364.74609375,-1000.0,-1000.0,-262.20703125,0.0,0,0
1771947784.977437,1771947784.8697205,893.06640625,-165.52734375,-271.97265625,998.046875,0.0,0,0
1771947784.977485,1771947784.8736176,-958.49609375,994.140625,956.0546875,-979.00390625,0.0,0,0
1771947784.97753,1771947784.8775146,133.7890625,-945.80078125,-916.50390625,45.8984375,0.0,0,0
1771947784.9775748,1771947784.8814116,-1000.0,15.13671875,104.00390625,-1000.0,0.0,0,0
1771947784.9776158,1771947784.8853085,-590.8203125,-1000.0,-1000.0,-433.10546875,0.0,0,0
1771947784.977657,1771947784.8892057,661.1328125,-529.296875,-583.49609375,878.41796875,0.0,0,0
1771947784.977699,1771947784.8931026,-878.41796875,840.33203125,781.25,-879.8828125,0.0,0,0
1771947784.977757,1771947784.8969996,340.8203125,-869.62890625,-851.07421875,229.4921875,0.0,0,0
1771947784.9778,1771947784.9008968,-1000.0,77.63671875,167.48046875,-1000.0,0.0,0,0
1771947784.977839,1771947784.9047937,-878.90625,-1000.0,-1000.0,-780.76171875,0.0,0,0
1771947784.977879,1771947784.9086907,423.828125,-617.67578125,-786.1328125,550.29296875,0.0,0,0
1771947784.979962,1771947784.9127197,-831.54296875,754.39453125,569.3359375,-815.91796875,0.0,0,0
1771947784.9800372,1771947784.916617,410.64453125,-839.35546875,-808.10546875,270.01953125,0.0,0,0
1771947784.980074,1771947784.9205139,-893.5546875,177.24609375,159.1796875,-1000.0,0.0,0,0
1771947784.980108,1771947784.924411,-1000.0,-1000.0,-1000.0,-941.89453125,0.0,0,0
1771947784.9801412,1771947784.928308,190.4296875,-906.73828125,-998.046875,319.82421875,0.0,0,0
1771947784.980175,1771947784.932205,-839.84375,415.0390625,230.95703125,-799.8046875,0.0,0,0
1771947784.9802089,1771947784.9361022,521.97265625,-782.71484375,-770.01953125,340.33203125,0.0,0,0
1771947784.980243,1771947784.939999,-753.90625,145.01953125,219.7265625,-962.890625,0.0,0,0
1771947784.9802759,1771947784.943896,-1000.0,-1000.0,-1000.0,-1000.0,0.0,0,0
1771947784.9803069,1771947784.9477932,25.390625,-1000.0,-1000.0,136.23046875,0.0,0,0
1771947784.980339,1771947784.9516902,-916.50390625,80.56640625,-31.25,-862.3046875,0.0,0,0
1771947784.980371,1771947784.9555874,822.75390625,-762.20703125,-785.15625,682.12890625,0.0,0,0
1771947785.022649,1771947784.9595838,-378.41796875,192.87109375,363.76953125,-570.3125,0.0,0,0
1771947785.02283,1771947784.9634807,-1000.0,-1000.0,-934.5703125,-1000.0,0.0,0,0
1771947785.022891,1771947784.967378,-153.3203125,-1000.0,-1000.0,-94.7265625,0.0,0,0
1771947785.0229352,1771947784.9712749,992.67578125,-156.73828125,-190.4296875,-971.6796875,0.0,0,0
1771947785.0229802,1771947784.975172,-944.82421875,-832.51953125,-865.72265625,998.53515625,0.0,0,0
1771947785.0230231,1771947784.979069,51.7578125,586.42578125,649.90234375,-58.59375,0.0,0,0
1771947785.023066,1771947784.9829662,-1000.0,-793.9453125,-722.65625,-1000.0,0.0,0,0
1771947785.023167,1771947784.9868631,-237.3046875,-1000.0,-1000.0,-180.6640625,0.0,0,0
1771947785.023214,1771947784.9907603,982.91015625,-209.47265625,-210.9375,-972.65625,0.0,0,0
1771947785.0233788,1771947784.9946573,-936.5234375,-854.4921875,-918.9453125,-976.5625,0.0,0,0
1771947785.023606,1771947784.9985542,54.19921875,572.75390625,805.6640625,-35.64453125,0.0,0,0
1771947785.023649,1771947785.0024514,-1000.0,-822.265625,-534.1796875,-1000.0,0.0,0,0
1771947785.0675762,1771947785.006438,-359.375,-1000.0,-1000.0,-245.1171875,0.0,0,0
1771947785.06774,1771947785.010335,874.0234375,-203.125,-220.703125,980.95703125,0.0,0,0
1771947785.0677881,1771947785.0142322,-892.08984375,-950.1953125,-997.55859375,-926.26953125,0.0,0,0
1771947785.0678458,1771947785.018129,171.875,909.66796875,-985.83984375,112.3046875,0.0,0,0
1771947785.06789,1771947785.0220263,-1000.0,-385.25390625,-168.45703125,-1000.0,0.0,0,0
1771947785.067942,1771947785.0259233,-409.1796875,-1000.0,-1000.0,-277.83203125,0.0,0,0
1771947785.067992,1771947785.0298204,824.21875,-235.83984375,-350.5859375,974.609375,0.0,0,0
1771947785.068034,1771947785.0337174,-895.99609375,995.60546875,928.22265625,-916.015625,0.0,0,0
1771947785.068095,1771947785.0376146,231.93359375,-972.16796875,-912.109375,159.66796875,0.0,0,0
1771947785.068139,1771947785.0415115,-1000.0,-148.92578125,24.4140625,-1000.0,0.0,0,0
1771947785.06818,1771947785.0454087,-635.25390625,-1000.0,-1000.0,-498.046875,0.0,0,0
1771947785.06822,1771947785.0493057,660.64453125,-421.875,-550.29296875,833.984375,0.0,0,0
1771947785.1121778,1771947785.0532794,-860.3515625,888.18359375,798.828125,-869.140625,0.0,0,0
1771947785.1123142,1771947785.0571764,281.73828125,-890.13671875,-855.46875,205.078125,0.0,0,0
1771947785.1123588,1771947785.0610735,-1000.0,67.3828125,160.64453125,-1000.0,0.0,0,0
1771947785.1123998,1771947785.0649707,-802.734375,-1000.0,-1000.0,-665.52734375,0.0,0,0
1771947785.112441,1771947785.0688677,496.09375,-606.93359375,-783.203125,680.6640625,0.0,0,0
1771947785.112484,1771947785.0727649,-847.65625,762.6953125,571.77734375,-840.8203125,0.0,0,0
1771947785.112538,1771947785.0766618,471.19140625,-840.8203125,-808.10546875,358.3984375,0.0,0,0
1771947785.112593,1771947785.080559,-905.2734375,177.734375,158.69140625,-1000.0,0.0,0,0
1771947785.112643,1771947785.084456,-949.70703125,-1000.0,-1000.0,-855.46875,0.0,0,0
1771947785.1127071,1771947785.0883532,356.93359375,-905.2734375,-1000.0,496.58203125,0.0,0,0
1771947785.112747,1771947785.09225,-860.3515625,417.48046875,229.00390625,-830.078125,0.0,0,0
1771947785.11279,1771947785.0961473,608.88671875,-783.203125,-770.01953125,472.16796875,0.0,0,0
1771947785.15747,1771947785.1001098,-671.38671875,145.01953125,199.21875,-841.30859375,0.0,0,0
1771947785.157585,1771947785.1040068,-1000.0,-1000.0,-1000.0,-1000.0,0.0,0,0
1771947785.15763,1771947785.107904,-48.33984375,-1000.0,-1000.0,72.75390625,0.0,0,0
1771947785.157671,1771947785.111801,-890.625,81.54296875,-18.5546875,-833.49609375,0.0,0,0
1771947785.1577148,1771947785.115698,728.02734375,-761.71875,-784.1796875,574.70703125,0.0,0,0
1771947785.1577642,1771947785.119595,-537.59765625,210.9375,385.25390625,-734.375,0.0,0,0
1771947785.157805,1771947785.1234922,-1000.0,-996.58203125,-921.38671875,-1000.0,0.0,0,0
1771947785.157856,1771947785.1273894,-156.73828125,-1000.0,-1000.0,-87.890625,0.0,0,0
1771947785.157901,1771947785.1312864,-994.140625,-155.76171875,-189.94140625,-961.9140625,0.0,0,0
1771947785.158188,1771947785.1351836,-978.515625,-803.22265625,-847.65625,985.83984375,0.0,0,0
1771947785.1582348,1771947785.1390805,-88.8671875,357.91015625,568.359375,-158.69140625,0.0,0,0
1771947785.158278,1771947785.1429777,-1000.0,-951.171875,-807.6171875,-1000.0,0.0,0,0
1771947785.2024372,1771947785.1469314,-253.90625,-1000.0,-1000.0,-163.57421875,0.0,0,0
1771947785.2025962,1771947785.1508284,948.73046875,-230.46875,-206.54296875,-961.42578125,0.0,0,0
1771947785.202646,1771947785.1547256,-950.68359375,-888.671875,-941.89453125,980.95703125,0.0,0,0
1771947785.202691,1771947785.1586225,-8.30078125,718.26171875,883.7890625,-135.25390625,0.0,0,0
1771947785.2027361,1771947785.1625197,-1000.0,-662.59765625,-421.38671875,-1000.0,0.0,0,0
1771947785.202788,1771947785.166417,-336.42578125,-1000.0,-1000.0,-208.984375,0.0,0,0
1771947785.20283,1771947785.1703138,886.71875,-193.84765625,-177.24609375,-986.328125,0.0,0,0
1771947785.202873,1771947785.174211,-925.78125,-956.0546875,-986.328125,-977.05078125,0.0,0,0
1771947785.202935,1771947785.1781082,67.87109375,933.10546875,-979.4921875,-40.0390625,0.0,0,0
1771947785.2029781,1771947785.1820052,-1000.0,-346.19140625,-128.90625,-1000.0,0.0,0,0
1771947785.203038,1771947785.1859024,-441.40625,-1000.0,-1000.0,-313.96484375,0.0,0,0
1771947785.2030761,1771947785.1897995,817.3828125,-212.890625,-321.77734375,943.359375,0.0,0,0
1771947785.277229,1771947785.1939132,-884.27734375,997.55859375,938.96484375,-904.78515625,0.0,0,0
1771947785.277384,1771947785.1978104,232.91015625,-961.9140625,-911.62109375,154.78515625,0.0,0,0
1771947785.2774332,1771947785.2017076,-1000.0,-106.93359375,66.89453125,-1000.0,0.0,0,0
1771947785.277476,1771947785.2056046,-611.81640625,-1000.0,-1000.0,-460.9375,0.0,0,0
1771947785.277519,1771947785.2095017,686.03515625,-432.6171875,-544.921875,874.0234375,0.0,0,0
1771947785.2775738,1771947785.213399,-871.58203125,890.625,808.59375,-878.90625,0.0,0,0
1771947785.277616,1771947785.2172961,266.11328125,-893.5546875,-857.91015625,157.2265625,0.0,0,0
1771947785.277659,1771947785.221193,-1000.0,38.0859375,169.43359375,-1000.0,0.0,0,0
1771947785.2777019,1771947785.2250903,-879.39453125,-1000.0,-1000.0,-770.99609375,0.0,0,0
1771947785.277744,1771947785.2289875,385.7421875,-552.734375,-771.484375,534.1796875,0.0,0,0
1771947785.277786,1771947785.2328846,-841.30859375,811.5234375,588.8671875,-827.1484375,0.0,0,0
1771947785.277828,1771947785.2367818,533.69140625,-849.12109375,-810.546875,435.546875,0.0,0,0
1771947785.307703,1771947785.2407985,-843.26171875,161.1328125,158.203125,-961.42578125,0.0,0,0
1771947785.307869,1771947785.2446957,-1000.0,-1000.0,-1000.0,-927.734375,0.0,0,0
1771947785.307929,1771947785.2485929,293.45703125,-979.98046875,-1000.0,417.96875,0.0,0,0
1771947785.3079731,1771947785.25249,-854.4921875,282.71484375,213.37890625,-821.2890625,0.0,0,0
1771947785.308016,1771947785.256387,591.796875,-773.4375,-770.5078125,454.58984375,0.0,0,0
1771947785.308059,1771947785.2602842,-679.6875,188.4765625,256.34765625,-853.515625,0.0,0,0
1771947785.308105,1771947785.2641814,-1000.0,-1000.0,-993.1640625,-1000.0,0.0,0,0
1771947785.308144,1771947785.2680786,-30.76171875,-1000.0,-1000.0,75.1953125,0.0,0,0
1771947785.3081868,1771947785.2719758,-943.84765625,188.4765625,17.578125,-904.78515625,0.0,0,0
1771947785.30823,1771947785.275873,930.17578125,-763.671875,-784.1796875,854.98046875,0.0,0,0
1771947785.3082721,1771947785.2797701,-251.46484375,273.92578125,413.57421875,-381.34765625,0.0,0,0
1771947785.3083148,1771947785.283667,-1000.0,-981.93359375,-907.2265625,-1000.0,0.0,0,0
1771947785.352117,1771947785.2876723,-155.2734375,-1000.0,-1000.0,-57.12890625,0.0,0,0
1771947785.3522298,1771947785.2915695,-979.4921875,-7.8125,-141.11328125,-925.78125,0.0,0,0
1771947785.352263,1771947785.2954667,972.16796875,-806.15234375,-871.09375,898.92578125,0.0,0,0
1771947785.3522959,1771947785.2993639,-152.34375,559.08203125,699.70703125,-286.1328125,0.0,0,0
1771947785.352324,1771947785.303261,-1000.0,-794.921875,-656.25,-1000.0,0.0,0,0
1771947785.352467,1771947785.3071582,-249.0234375,-1000.0,-1000.0,-150.390625,0.0,0,0
1771947785.3525171,1771947785.3110554,943.359375,-194.82421875,-192.3828125,-992.1875,0.0,0,0
1771947785.3525481,1771947785.3149526,-918.45703125,-868.1640625,-946.77734375,-953.61328125,0.0,0,0
1771947785.352577,1771947785.3188498,97.16796875,647.4609375,906.73828125,45.8984375,0.0,0,0
1771947785.3526049,1771947785.3227468,-1000.0,-742.67578125,-383.30078125,-1000.0,0.0,0,0
1771947785.352632,1771947785.326644,-323.73046875,-1000.0,-1000.0,-207.03125,0.0,0,0
1771947785.3526678,1771947785.3305411,884.765625,-205.56640625,-173.828125,999.51171875,0.0,0,0
1771947785.397074,1771947785.3345342,-899.90234375,-932.6171875,-992.1875,-924.8046875,0.0,0,0
1771947785.397228,1771947785.3384314,174.31640625,857.421875,-960.44921875,139.6484375,0.0,0,0
1771947785.397276,1771947785.3423285,-1000.0,-474.12109375,-86.42578125,-1000.0,0.0,0,0
1771947785.3973079,1771947785.3462257,-389.16015625,-1000.0,-1000.0,-261.23046875,0.0,0,0
1771947785.397335,1771947785.350123,834.9609375,-169.921875,-230.46875,975.09765625,0.0,0,0
1771947785.397362,1771947785.35402,-896.484375,999.51171875,969.7265625,-912.109375,0.0,0,0
1771947785.3973901,1771947785.3579173,292.48046875,-953.125,-914.0625,240.72265625,0.0,0,0
1771947785.397417,1771947785.3618145,-1000.0,-52.24609375,166.50390625,-1000.0,0.0,0,0
1771947785.3974452,1771947785.3657117,-623.53515625,-1000.0,-1000.0,-475.5859375,0.0,0,0
1771947785.397471,1771947785.3696089,676.7578125,-355.46875,-432.12890625,861.81640625,0.0,0,0
1771947785.3974981,1771947785.373506,-873.53515625,915.52734375,901.85546875,-878.41796875,0.0,0,0
1771947785.397526,1771947785.3774033,419.921875,-891.6015625,-883.7890625,342.7734375,0.0,0,0
1771947785.442361,1771947785.3813863,-970.703125,199.21875,210.9375,-1000.0,0.0,0,0
1771947785.442477,1771947785.3852835,-916.50390625,-1000.0,-1000.0,-816.89453125,0.0,0,0
1771947785.4425101,1771947785.3891807,393.5546875,-651.85546875,-675.29296875,537.59765625,0.0,0,0
1771947785.44254,1771947785.3930779,-828.61328125,743.65234375,709.47265625,-816.89453125,0.0,0,0
1771947785.4425678,1771947785.396975,426.26953125,-837.890625,-833.0078125,318.84765625,0.0,0,0
1771947785.4425972,1771947785.4008722,-884.27734375,174.8046875,199.21875,-1000.0,0.0,0,0
1771947785.442623,1771947785.4047694,-1000.0,-1000.0,-1000.0,-984.375,0.0,0,0
1771947785.4426482,1771947785.4086666,136.23046875,-919.921875,-917.48046875,269.04296875,0.0,0,0
1771947785.4426749,1771947785.4125638,-880.859375,394.53125,378.90625,-852.05078125,0.0,0,0
1771947785.442703,1771947785.416461,760.25390625,-783.203125,-785.15625,656.25,0.0,0,0
1771947785.442729,1771947785.4203582,-524.90234375,153.3203125,289.55078125,-666.50390625,0.0,0,0
1771947785.4427562,1771947785.4242554,-1000.0,-1000.0,-994.62890625,-1000.0,0.0,0,0
1771947785.487957,1771947785.4282274,11.71875,-1000.0,-1000.0,130.859375,0.0,0,0
1771947785.4880798,1771947785.4321246,-930.17578125,190.4296875,152.34375,-891.11328125,0.0,0,0
1771947785.4881139,1771947785.4360218,895.99609375,-763.671875,-794.921875,828.125,0.0,0,0
1771947785.488144,1771947785.439919,-296.875,244.140625,523.92578125,-417.96875,0.0,0,0
1771947785.488171,1771947785.4438164,-1000.0,-1000.0,-825.1953125,-1000.0,0.0,0,0
1771947785.488197,1771947785.4477136,-127.9296875,-1000.0,-1000.0,12.6953125,0.0,0,0
1771947785.488223,1771947785.4516108,966.30859375,82.03125,-2.44140625,-988.76953125,0.0,0,0
1771947785.48825,1771947785.455508,-915.52734375,-781.73828125,-887.20703125,-931.640625,0.0,0,0
1771947785.488277,1771947785.4594052,171.875,487.3046875,827.1484375,187.01171875,0.0,0,0
1771947785.4883041,1771947785.4633024,-1000.0,-846.19140625,-461.9140625,-1000.0,0.0,0,0
1771947785.488331,1771947785.4671996,-287.109375,-1000.0,-1000.0,-184.5703125,0.0,0,0
1771947785.488356,1771947785.4710968,935.05859375,-218.75,-157.2265625,-973.6328125,0.0,0,0
1771947785.5317602,1771947785.4750574,-912.59765625,-889.16015625,-971.19140625,-943.359375,0.0,0,0
1771947785.531821,1771947785.4789546,111.328125,706.0546875,998.53515625,74.70703125,0.0,0,0
1771947785.5319371,1771947785.4828517,-1000.0,-677.734375,-202.63671875,-1000.0,0.0,0,0
1771947785.531957,1771947785.4867492,-305.6640625,-1000.0,-1000.0,-187.98828125,0.0,0,0
1771947785.5319738,1771947785.4906464,891.11328125,-197.265625,-169.921875,998.046875,0.0,0,0
1771947785.531992,1771947785.4945436,-897.4609375,-949.70703125,998.53515625,-916.50390625,0.0,0,0
1771947785.532009,1771947785.4984407,223.14453125,913.57421875,-930.6640625,210.44921875,0.0,0,0
1771947785.532026,1771947785.502338,-1000.0,-383.30078125,31.25,-1000.0,0.0,0,0
1771947785.532043,1771947785.5062351,-430.17578125,-1000.0,-1000.0,-287.59765625,0.0,0,0
1771947785.53206,1771947785.5101323,791.015625,-198.73046875,-208.0078125,968.26171875,0.0,0,0
1771947785.532077,1771947785.5140297,-895.99609375,991.69921875,983.88671875,-911.62109375,0.0,0,0
1771947785.532094,1771947785.517927,318.84765625,-946.2890625,-913.0859375,279.78515625,0.0,0,0
1771947785.589976,1771947785.521876,-1000.0,-49.31640625,216.796875,-1000.0,0.0,0,0
1771947785.590047,1771947785.5257733,-721.19140625,-1000.0,-1000.0,-601.07421875,0.0,0,0
1771947785.590074,1771947785.5296705,614.2578125,-329.1015625,-368.1640625,764.6484375,0.0,0,0
1771947785.5900931,1771947785.5335677,-848.6328125,928.7109375,939.94140625,-857.421875,0.0,0,0
1771947785.590111,1771947785.537465,392.08984375,-896.97265625,-897.4609375,366.69921875,0.0,0,0
1771947785.5901282,1771947785.5413623,-960.9375,199.70703125,222.16796875,-1000.0,0.0,0,0
1771947785.590144,1771947785.5452595,-974.609375,-1000.0,-1000.0,-907.71484375,0.0,0,0
1771947785.5901608,1771947785.5491567,305.17578125,-543.9453125,-555.6640625,413.57421875,0.0,0,0
1771947785.590178,1771947785.5530539,-831.54296875,845.703125,824.21875,-822.75390625,0.0,0,0
1771947785.590195,1771947785.5569513,541.50390625,-862.3046875,-859.375,472.65625,0.0,0,0
1771947785.5902112,1771947785.5608485,-844.7265625,192.87109375,251.46484375,-939.94140625,0.0,0,0
1771947785.590228,1771947785.5647457,-998.53515625,-1000.0,-1000.0,-917.96875,0.0,0,0
1771947785.635335,1771947785.568684,311.03515625,-798.828125,-803.7109375,446.77734375,0.0,0,0
1771947785.635377,1771947785.5725813,-869.62890625,561.03515625,547.36328125,-844.7265625,0.0,0,0
1771947785.63539,1771947785.5764785,694.82421875,-808.10546875,-816.89453125,587.890625,0.0,0,0
1771947785.635401,1771947785.5803757,-610.83984375,250.0,442.87109375,-739.2578125,0.0,0,0
1771947785.63544,1771947785.584273,-1000.0,-1000.0,-942.3828125,-1000.0,0.0,0,0
1771947785.635486,1771947785.5881703,26.85546875,-894.04296875,-1000.0,80.56640625,0.0,0,0
1771947785.635545,1771947785.5920675,-917.96875,435.05859375,294.43359375,-883.30078125,0.0,0,0
1771947785.635565,1771947785.5959647,852.5390625,-787.59765625,-819.82421875,766.11328125,0.0,0,0
1771947785.6355772,1771947785.5998619,-353.515625,332.51953125,607.421875,-491.2109375,0.0,0,0
1771947785.6355882,1771947785.6037593,-1000.0,-941.89453125,-734.86328125,-1000.0,0.0,0,0
1771947785.635633,1771947785.6076565,-145.5078125,-1000.0,-1000.0,-137.6953125,0.0,0,0
1771947785.635669,1771947785.6115537,-963.37890625,-35.64453125,1.46484375,-933.59375,0.0,0,0
1771947785.681364,1771947785.6155655,973.6328125,-809.5703125,-884.27734375,887.20703125,0.0,0,0
1771947785.6814022,1771947785.6194627,-161.1328125,549.8046875,817.87109375,-336.9140625,0.0,0,0
1771947785.681414,1771947785.62336,-1000.0,-816.40625,-474.12109375,-1000.0,0.0,0,0
1771947785.681424,1771947785.6272573,-226.07421875,-1000.0,-1000.0,-203.125,0.0,0,0
1771947785.6814342,1771947785.6311545,-970.21484375,-129.8828125,-159.1796875,-941.40625,0.0,0,0
1771947785.6814442,1771947785.6350517,954.58984375,-919.921875,-963.8671875,895.5078125,0.0,0,0
1771947785.6814542,1771947785.638949,-214.84375,868.1640625,979.00390625,-349.609375,0.0,0,0
1771947785.681464,1771947785.6428463,-1000.0,-435.05859375,-244.140625,-1000.0,0.0,0,0
1771947785.681473,1771947785.6467435,-365.72265625,-1000.0,-1000.0,-347.65625,0.0,0,0
1771947785.681483,1771947785.6506407,942.87109375,-182.12890625,-177.24609375,976.5625,0.0,0,0
1771947785.681493,1771947785.6545382,-976.5625,-974.609375,-987.3046875,959.47265625,0.0,0,0
1771947785.6815019,1771947785.6584353,-67.3828125,-998.53515625,-963.37890625,-267.578125,0.0,0,0
1771947785.72644,1771947785.662437,-1000.0,-222.65625,-83.984375,-1000.0,0.0,0,0
1771947785.726476,1771947785.6663342,-495.60546875,-1000.0,-1000.0,-455.56640625,0.0,0,0
1771947785.726488,1771947785.6702313,813.4765625,-190.91796875,-307.12890625,852.05078125,0.0,0,0
1771947785.7264981,1771947785.6741288,-876.46484375,976.5625,944.3359375,-897.4609375,0.0,0,0
1771947785.726509,1771947785.678026,184.5703125,-920.41015625,-910.64453125,30.76171875,0.0,0,0
1771947785.726519,1771947785.6819232,-1000.0,131.34765625,106.93359375,-1000.0,0.0,0,0
1771947785.726528,1771947785.6858206,-757.32421875,-1000.0,-1000.0,-760.25390625,0.0,0,0
1771947785.726538,1771947785.6897178,563.96484375,-402.83203125,-574.70703125,550.29296875,0.0,0,0
1771947785.726548,1771947785.693615,-836.9140625,918.9453125,794.43359375,-818.359375,0.0,0,0
1771947785.726558,1771947785.6975124,251.46484375,-891.11328125,-851.07421875,72.265625,0.0,0,0
1771947785.726567,1771947785.7014096,-987.79296875,174.8046875,116.69921875,-1000.0,0.0,0,0
1771947785.7265768,1771947785.705307,-962.890625,-1000.0,-1000.0,-1000.0,0.0,0,0
1771947785.7713861,1771947785.709298,279.296875,-535.64453125,-981.4453125,127.44140625,0.0,0,0
1771947785.7714272,1771947785.713195,-847.16796875,847.16796875,266.6015625,-793.45703125,0.0,0,0
1771947785.771441,1771947785.7170925,353.515625,-864.74609375,-773.92578125,-0.48828125,0.0,0,0
1771947785.771456,1771947785.7209897,-782.71484375,203.61328125,62.5,-1000.0,0.0,0,0
1771947785.771469,1771947785.7248871,-1000.0,-1000.0,-1000.0,-1000.0,0.0,0,0
1771947785.77148,1771947785.7287843,-71.2890625,-681.15234375,-1000.0,-329.1015625,0.0,0,0
1771947785.771492,1771947785.7326818,-823.2421875,716.30859375,-78.125,-858.3984375,0.0,0,0
1771947785.7715049,1771947785.736579,135.25390625,-823.2421875,313.4765625,71.2890625,0.0,0,0
1771947785.771518,1771947785.7404761,-1000.0,139.6484375,-1000.0,-1000.0,0.0,0,0
1771947785.771529,1771947785.7443736,-1000.0,-1000.0,-1000.0,-1000.0,0.0,0,0
1771947785.77154,1771947785.7482708,-259.765625,-1000.0,-960.44921875,-591.30859375,0.0,0,0
1771947785.771552,1771947785.7521682,-943.84765625,-53.22265625,-1000.0,-975.09765625,0.0,0,0
1771947785.8164082,1771947785.756149,465.33203125,-780.2734375,-1000.0,203.125,0.0,0,0
1771947785.81643,1771947785.7600462,-644.53125,146.484375,-1000.0,-1000.0,0.0,0,0
1771947785.8164449,1771947785.7639437,-1000.0,-1000.0,-1000.0,-1000.0,0.0,0,0
1771947785.8164601,1771947785.7678409,-202.1484375,-1000.0,-1000.0,-584.9609375,0.0,0,0
1771947785.816475,1771947785.771738,-905.2734375,-254.39453125,-1000.0,986.81640625,0.0,0,0
1771947785.816489,1771947785.7756355,532.71484375,-824.70703125,-1000.0,274.90234375,0.0,0,0
1771947785.816504,1771947785.7795327,-572.265625,170.8984375,-1000.0,-1000.0,0.0,0,0
1771947785.81652,1771947785.78343,-1000.0,-1000.0,-1000.0,-1000.0,0.0,0,0
1771947785.816535,1771947785.7873273,-239.74609375,-1000.0,-1000.0,-506.34765625,0.0,0,0
1771947785.8165681,1771947785.7912247,-893.5546875,-306.15234375,-1000.0,-988.76953125,0.0,0,0
1771947785.816587,1771947785.795122,666.9921875,-839.35546875,-1000.0,507.8125,0.0,0,0
1771947785.816601,1771947785.7990193,-578.61328125,311.03515625,-1000.0,-909.1796875,0.0,0,0
1771947785.876707,1771947785.8030794,-1000.0,-977.5390625,-1000.0,-1000.0,0.0,0,0
1771947785.876769,1771947785.8069768,-175.78125,-1000.0,-1000.0,-222.65625,0.0,0,0
1771947785.876787,1771947785.810874,-945.80078125,-459.47265625,-1000.0,-923.828125,0.0,0,0
1771947785.876805,1771947785.8147714,914.0625,-925.78125,-1000.0,806.640625,0.0,0,0
1771947785.876821,1771947785.8186686,-228.02734375,542.48046875,-1000.0,-507.32421875,0.0,0,0
1771947785.876838,1771947785.822566,-1000.0,-878.90625,-1000.0,-1000.0,0.0,0,0
1771947785.876854,1771947785.8264635,-234.375,-1000.0,-1000.0,-205.56640625,0.0,0,0
1771947785.87687,1771947785.8303607,986.81640625,-574.70703125,-1000.0,991.2109375,0.0,0,0
1771947785.8769972,1771947785.834258,-973.14453125,921.875,-1000.0,-964.35546875,0.0,0,0
1771947785.877016,1771947785.8381553,-17.08984375,847.16796875,-1000.0,-33.69140625,0.0,0,0
1771947785.877033,1771947785.8420527,-1000.0,-638.671875,-1000.0,-1000.0,0.0,0,0
1771947785.877048,1771947785.8459501,-426.7578125,-1000.0,-1000.0,-333.49609375,0.0,0,0
1771947785.907852,1771947785.8499124,838.37890625,-1000.0,-1000.0,935.546875,0.0,0,0
1771947785.907915,1771947785.8538098,-911.1328125,300.29296875,-1000.0,-902.83203125,0.0,0,0
1771947785.907935,1771947785.857707,69.3359375,731.4453125,-1000.0,139.6484375,0.0,0,0
1771947785.9079528,1771947785.8616045,-1000.0,-886.71875,-1000.0,-1000.0,0.0,0,0
1771947785.90797,1771947785.8655019,-615.234375,-1000.0,-928.7109375,-460.44921875,0.0,0,0
1771947785.907988,1771947785.869399,651.3671875,-1000.0,-1000.0,873.53515625,0.0,0,0
1771947785.9080052,1771947785.8732965,-864.74609375,192.3828125,-196.2890625,-876.953125,0.0,0,0
1771947785.908023,1771947785.877194,101.07421875,450.68359375,921.875,174.31640625,0.0,0,0
1771947785.90804,1771947785.881091,-1000.0,-1000.0,-466.796875,-1000.0,0.0,0,0
1771947785.908096,1771947785.8849885,-920.41015625,-938.96484375,-1000.0,-770.01953125,0.0,0,0
1771947785.9081228,1771947785.8888857,195.80078125,-1000.0,-1000.0,563.96484375,0.0,0,0
1771947785.90814,1771947785.8927832,-827.1484375,-226.5625,-303.22265625,-806.640625,0.0,0,0
1771947785.951433,1771947785.8967335,115.72265625,267.08984375,-961.9140625,145.5078125,0.0,0,0
1771947785.9514802,1771947785.900631,-1000.0,-1000.0,-169.921875,-1000.0,0.0,0,0
1771947785.951503,1771947785.9045284,-1000.0,-1000.0,-1000.0,-1000.0,0.0,0,0
1771947785.951521,1771947785.9084256,-326.171875,-958.0078125,-1000.0,-111.328125,0.0,0,0
1771947785.951544,1771947785.912323,-871.58203125,-1000.0,-762.20703125,-814.453125,0.0,0,0
1771947785.9515631,1771947785.9162204,298.33984375,-1000.0,99.609375,355.46875,0.0,0,0
1771947785.951582,1771947785.9201176,-1000.0,-1000.0,-500.48828125,-1000.0,0.0,0,0
1771947785.9516008,1771947785.924015,-993.65234375,-926.26953125,-1000.0,-951.171875,0.0,0,0
1771947785.95162,1771947785.9279122,163.57421875,-1000.0,-1000.0,436.5234375,0.0,0,0
1771947785.951639,1771947785.9318097,-986.81640625,-526.3671875,-302.24609375,-985.83984375,0.0,0,0
1771947785.951659,1771947785.935707,885.7421875,-919.921875,-869.140625,-927.734375,0.0,0,0
1771947785.951679,1771947785.9396043,-204.58984375,212.40234375,641.6015625,148.92578125,0.0,0,0
1771947786.0112572,1771947785.9435432,-1000.0,-1000.0,-773.92578125,-1000.0,0.0,0,0
1771947786.011303,1771947785.9474406,111.328125,-1000.0,-1000.0,322.75390625,0.0,0,0
1771947786.011332,1771947785.951338,970.703125,-333.0078125,28.3203125,-947.75390625,0.0,0,0
1771947786.0113652,1771947785.9552352,-998.53515625,-850.5859375,-931.640625,-936.03515625,0.0,0,0
1771947786.011394,1771947785.9591327,17.578125,385.25390625,935.546875,265.625,0.0,0,0
1771947786.011422,1771947785.96303,-1000.0,-961.9140625,927.24609375,-1000.0,0.0,0,0
1771947786.0114508,1771947785.9669275,-31.73828125,-1000.0,951.171875,129.8828125,0.0,0,0
1771947786.011478,1771947785.9708247,929.6875,-208.0078125,977.5390625,-946.77734375,0.0,0,0
1771947786.0115058,1771947785.9747221,-967.7734375,-975.5859375,969.7265625,-946.2890625,0.0,0,0
1771947786.011534,1771947785.9786196,254.8828125,-995.1171875,972.16796875,481.4453125,0.0,0,0
1771947786.011561,1771947785.9825168,-1000.0,-281.73828125,972.16796875,-1000.0,0.0,0,0
1771947786.011588,1771947785.9864142,-113.28125,-1000.0,972.16796875,-61.03515625,0.0,0,0
1771947786.0704231,1771947785.990426,-972.65625,115.234375,971.6796875,-941.89453125,0.0,0,0
1771947786.070493,1771947785.9943235,-948.73046875,-972.65625,971.6796875,-974.12109375,0.0,0,0
1771947786.070521,1771947785.9982207,489.2578125,-873.046875,971.6796875,708.984375,0.0,0,0
1771947786.070545,1771947786.002118,-1000.0,42.48046875,972.16796875,-862.3046875,0.0,0,0
1771947786.070569,1771947786.0060155,-125.0,-341.796875,971.6796875,-50.29296875,0.0,0,0
1771947786.070592,1771947786.009913,-933.59375,-958.49609375,972.16796875,-886.71875,0.0,0,0
1771947786.0706172,1771947786.0138104,975.09765625,991.2109375,971.6796875,925.78125,0.0,0,0
1771947786.07064,1771947786.0177076,862.79296875,933.59375,971.6796875,-993.65234375,0.0,0,0
1771947786.070664,1771947786.021605,-691.89453125,979.98046875,972.16796875,-504.39453125,0.0,0,0
1771947786.070687,1771947786.0255024,-303.7109375,972.16796875,971.6796875,-297.8515625,0.0,0,0
1771947786.0707111,1771947786.0293999,-924.31640625,971.6796875,971.6796875,-903.3203125,0.0,0,0
1771947786.0707352,1771947786.033297,943.359375,971.6796875,971.6796875,911.1328125,0.0,0,0
1771947786.101334,1771947786.0372977,975.5859375,971.6796875,971.6796875,-895.01953125,0.0,0,0
1771947786.101374,1771947786.041195,-467.7734375,972.16796875,971.6796875,-289.0625,0.0,0,0
1771947786.101391,1771947786.0450923,-475.09765625,972.16796875,972.16796875,-471.19140625,0.0,0,0
1771947786.101409,1771947786.0489898,984.86328125,971.6796875,971.6796875,994.140625,0.0,0,0
1771947786.101425,1771947786.0528872,-951.171875,971.6796875,971.6796875,-951.66015625,0.0,0,0
1771947786.101443,1771947786.0567846,619.62890625,971.6796875,971.6796875,648.92578125,0.0,0,0
1771947786.10146,1771947786.060682,-833.0078125,971.6796875,972.16796875,-820.80078125,0.0,0,0
1771947786.101494,1771947786.0645792,-689.453125,972.16796875,972.16796875,-710.9375,0.0,0,0
1771947786.1015239,1771947786.0684767,769.04296875,971.6796875,971.6796875,756.8359375,0.0,0,0
1771947786.101543,1771947786.072374,-867.1875,971.6796875,971.6796875,-848.14453125,0.0,0,0
1771947786.10156,1771947786.0762715,450.68359375,971.6796875,971.6796875,381.34765625,0.0,0,0
1771947786.1015759,1771947786.080169,-878.41796875,972.16796875,971.6796875,-954.1015625,0.0,0,0
1771947786.176934,1771947786.0843234,-991.69921875,972.16796875,972.16796875,-1000.0,0.0,0,0
1771947786.1769972,1771947786.0882208,279.296875,971.6796875,972.16796875,181.640625,0.0,0,0
1771947786.177023,1771947786.0921183,-833.0078125,971.6796875,971.6796875,-813.96484375,0.0,0,0
1771947786.177044,1771947786.0960157,227.5390625,972.16796875,971.6796875,160.64453125,0.0,0,0
1771947786.177064,1771947786.0999131,-890.625,972.16796875,971.6796875,-1000.0,0.0,0,0
1771947786.177084,1771947786.1038105,-1000.0,972.16796875,972.16796875,-1000.0,0.0,0,0
1771947786.177103,1771947786.107708,-139.6484375,972.16796875,972.16796875,-236.328125,0.0,0,0
1771947786.177122,1771947786.1116054,-828.61328125,972.65625,971.6796875,-847.16796875,0.0,0,0
1771947786.177143,1771947786.1155028,191.40625,907.71484375,910.15625,174.8046875,0.0,0,0
1771947786.177162,1771947786.1194003,-1000.0,-880.859375,-895.01953125,-1000.0,0.0,0,0
1771947786.177181,1771947786.1232977,-987.3046875,240.234375,241.2109375,-932.6171875,0.0,0,0
1771947786.1772,1771947786.1271951,-950.68359375,-1000.0,-1000.0,-1000.0,0.0,0,0
1771947786.20727,1771947786.1312573,443.359375,-76.66015625,-354.4921875,114.74609375,0.0,0,0
1771947786.20732,1771947786.1351547,369.140625,-921.875,-829.1015625,354.00390625,0.0,0,0
1771947786.207341,1771947786.1390522,-1000.0,-982.421875,395.99609375,-1000.0,0.0,0,0
1771947786.207362,1771947786.1429498,-957.51953125,-89.84375,-1000.0,-936.03515625,0.0,0,0
1771947786.207382,1771947786.1468472,-1000.0,-1000.0,-1000.0,-1000.0,0.0,0,0
1771947786.2073998,1771947786.1507447,101.5625,-226.5625,-955.56640625,-73.73046875,0.0,0,0
1771947786.2074208,1771947786.154642,441.40625,-872.0703125,-1000.0,388.671875,0.0,0,0
1771947786.2074418,1771947786.1585395,-1000.0,710.44921875,-1000.0,-1000.0,0.0,0,0
1771947786.207461,1771947786.162437,-980.46875,-713.8671875,-1000.0,-953.61328125,0.0,0,0
1771947786.2074811,1771947786.1663344,-1000.0,-1000.0,-1000.0,-1000.0,0.0,0,0
1771947786.207499,1771947786.1702318,25.390625,-1000.0,-1000.0,-132.8125,0.0,0,0
1771947786.207519,1771947786.1741292,748.53515625,25.390625,-1000.0,720.703125,0.0,0,0
1771947786.2362702,1771947786.1780977,-759.27734375,-128.90625,-1000.0,-798.828125,0.0,0,0
1771947786.2363148,1771947786.1819952,-1000.0,-1000.0,-1000.0,-1000.0,0.0,0,0
1771947786.236466,1771947786.1858926,-1000.0,-898.4375,-1000.0,-1000.0,0.0,0,0
1771947786.236491,1771947786.18979,-18.5546875,-1000.0,-1000.0,-178.22265625,0.0,0,0
1771947786.2365131,1771947786.1936874,-962.890625,-100.09765625,-1000.0,-988.28125,0.0,0,0
1771947786.236536,1771947786.1975849,-361.328125,74.70703125,-1000.0,-414.55078125,0.0,0,0
1771947786.2365582,1771947786.2014825,-1000.0,-1000.0,-1000.0,-1000.0,0.0,0,0
1771947786.2365792,1771947786.20538,-1000.0,-986.81640625,-1000.0,-1000.0,0.0,0,0
1771947786.2366002,1771947786.2092774,-50.78125,-979.98046875,-1000.0,-251.953125,0.0,0,0
1771947786.236622,1771947786.2131748,-875.0,-1000.0,-1000.0,-886.71875,0.0,0,0
1771947786.236643,1771947786.2170722,-41.9921875,-1000.0,-1000.0,-70.80078125,0.0,0,0
1771947786.236664,1771947786.2209697,-1000.0,-1000.0,-1000.0,-1000.0,0.0,0,0
1771947786.282042,1771947786.224929,-905.76171875,-1000.0,-1000.0,-946.2890625,0.0,0,0
1771947786.2821178,1771947786.2288265,237.3046875,-1000.0,-1000.0,171.875,0.0,0,0
1771947786.282159,1771947786.232724,-821.77734375,-1000.0,-1000.0,-802.734375,0.0,0,0
1771947786.2821949,1771947786.2366214,176.7578125,-1000.0,-1000.0,159.1796875,0.0,0,0
1771947786.28223,1771947786.2405188,-1000.0,-1000.0,-1000.0,-1000.0,0.0,0,0
1771947786.282262,1771947786.2444162,-901.3671875,-1000.0,-1000.0,-936.5234375,0.0,0,0
1771947786.2822962,1771947786.248314,191.40625,-1000.0,-1000.0,208.984375,0.0,0,0
1771947786.282331,1771947786.2522113,-905.76171875,-1000.0,-1000.0,-872.55859375,0.0,0,0
1771947786.282366,1771947786.2561088,216.796875,-1000.0,-1000.0,188.96484375,0.0,0,0
1771947786.282399,1771947786.2600062,-996.09375,-1000.0,-1000.0,-1000.0,0.0,0,0
1771947786.282432,1771947786.2639036,-1000.0,-927.24609375,-1000.0,-1000.0,0.0,0,0
1771947786.282481,1771947786.2678013,5.859375,-1000.0,-1000.0,67.87109375,0.0,0,0
1771947786.326707,1771947786.2717507,-882.32421875,-744.140625,-1000.0,-813.96484375,0.0,0,0
1771947786.326804,1771947786.275648,475.5859375,483.88671875,-1000.0,458.49609375,0.0,0,0
1771947786.326835,1771947786.2795455,-872.0703125,-485.3515625,-1000.0,-871.58203125,0.0,0,0
1771947786.3268638,1771947786.2834432,-1000.0,-1000.0,-1000.0,-1000.0,0.0,0,0
1771947786.3268921,1771947786.2873406,-110.83984375,-1000.0,-1000.0,-70.80078125,0.0,0,0
1771947786.326918,1771947786.291238,-916.015625,-234.86328125,-1000.0,-828.125,0.0,0,0
1771947786.326946,1771947786.2951355,518.06640625,911.62109375,-1000.0,524.4140625,0.0,0,0
1771947786.326973,1771947786.2990332,-795.41015625,-544.43359375,-1000.0,-810.546875,0.0,0,0
1771947786.326999,1771947786.3029306,-1000.0,-1000.0,-1000.0,-1000.0,0.0,0,0
1771947786.327025,1771947786.306828,-216.30859375,-877.9296875,-1000.0,-170.41015625,0.0,0,0
1771947786.327054,1771947786.3107255,944.3359375,-1000.0,-1000.0,-961.9140625,0.0,0,0
1771947786.327081,1771947786.3146229,892.578125,22.4609375,-1000.0,912.109375,0.0,0,0
1771947786.3864179,1771947786.3185644,-346.19140625,175.29296875,-1000.0,-336.42578125,0.0,0,0
1771947786.386584,1771947786.322462,-1000.0,-1000.0,-1000.0,-1000.0,0.0,0,0
1771947786.386647,1771947786.3263595,-206.54296875,-1000.0,-1000.0,-189.94140625,0.0,0,0
1771947786.386705,1771947786.330257,-985.3515625,-491.69921875,-1000.0,-948.2421875,0.0,0,0
1771947786.386764,1771947786.3341544,868.1640625,880.37109375,-1000.0,920.8984375,0.0,0,0
1771947786.386821,1771947786.338052,-216.796875,-888.18359375,-1000.0,-208.49609375,0.0,0,0
1771947786.386873,1771947786.3419495,-1000.0,-118.1640625,-1000.0,-1000.0,0.0,0,0
1771947786.386917,1771947786.345847,-341.796875,-1000.0,-1000.0,-301.7578125,0.0,0,0
1771947786.3869572,1771947786.3497443,929.6875,-1000.0,-1000.0,954.58984375,0.0,0,0
1771947786.386997,1771947786.353642,-943.84765625,-20.99609375,-1000.0,-924.31640625,0.0,0,0
1771947786.387037,1771947786.3575394,-15.625,272.4609375,-1000.0,34.1796875,0.0,0,0
1771947786.387079,1771947786.3614368,-1000.0,-1000.0,-1000.0,-1000.0,0.0,0,0
1771947786.432828,1771947786.3654497,-470.21484375,-943.84765625,-1000.0,-413.0859375,0.0,0,0
1771947786.433001,1771947786.369347,754.8828125,-1000.0,-1000.0,867.1875,0.0,0,0
1771947786.433063,1771947786.3732448,-919.921875,-86.42578125,-1000.0,-895.99609375,0.0,0,0
1771947786.433123,1771947786.3771422,123.046875,261.71875,-1000.0,171.875,0.0,0,0
1771947786.4331782,1771947786.3810396,-1000.0,-1000.0,-1000.0,-1000.0,0.0,0,0
1771947786.433231,1771947786.3849373,-638.671875,-928.7109375,-1000.0,-591.796875,0.0,0,0
1771947786.4333,1771947786.3888347,513.18359375,-1000.0,-1000.0,691.40625,0.0,0,0
1771947786.4333582,1771947786.3927321,-945.3125,-419.43359375,-1000.0,-895.01953125,0.0,0,0
1771947786.433432,1771947786.3966298,199.21875,271.484375,-1000.0,200.68359375,0.0,0,0
1771947786.433488,1771947786.4005272,-1000.0,-977.05078125,-1000.0,-1000.0,0.0,0,0
1771947786.433559,1771947786.4044247,-899.90234375,-1000.0,-999.51171875,-884.765625,0.0,0,0
1771947786.4336221,1771947786.4083223,210.44921875,-1000.0,-1000.0,355.95703125,0.0,0,0
1771947786.477142,1771947786.412325,-913.57421875,-749.0234375,-997.55859375,-842.28515625,0.0,0,0
1771947786.477303,1771947786.4162223,287.109375,12.6953125,-985.83984375,288.0859375,0.0,0,0
1771947786.477368,1771947786.42012,-1000.0,-863.76953125,-1000.0,-1000.0,0.0,0,0
1771947786.4774258,1771947786.4240174,-849.609375,-1000.0,-964.84375,-829.1015625,0.0,0,0
1771947786.477483,1771947786.427915,254.39453125,-1000.0,-1000.0,449.70703125,0.0,0,0
1771947786.477538,1771947786.4318125,989.2578125,-425.78125,-923.828125,-890.13671875,0.0,0,0
1771947786.4776099,1771947786.43571,502.9296875,723.6328125,-4.8828125,515.625,0.0,0,0
1771947786.477668,1771947786.4396076,-880.859375,-635.25390625,-413.57421875,-852.05078125,0.0,0,0
1771947786.4777129,1771947786.443505,-1000.0,-1000.0,-1000.0,-1000.0,0.0,0,0
1771947786.47775,1771947786.4474027,19.53125,-893.5546875,-950.68359375,136.71875,0.0,0,0
1771947786.477791,1771947786.4513001,952.1484375,-1000.0,-1000.0,-931.640625,0.0,0,0
1771947786.47783,1771947786.4551976,856.4453125,135.25390625,312.98828125,865.234375,0.0,0,0
1771947786.522891,1771947786.4591897,-377.9296875,109.86328125,579.58984375,-351.07421875,0.0,0,0
1771947786.523086,1771947786.4630873,-1000.0,-1000.0,-906.73828125,-1000.0,0.0,0,0
1771947786.523147,1771947786.4669847,-187.5,-933.59375,-1000.0,-132.8125,0.0,0,0
1771947786.523345,1771947786.4708824,914.55078125,-1000.0,-1000.0,-993.65234375,0.0,0,0
1771947786.523422,1771947786.4747798,950.1953125,192.87109375,76.66015625,993.1640625,0.0,0,0
1771947786.523486,1771947786.4786775,-217.7734375,306.15234375,-841.30859375,-146.97265625,0.0,0,0
1771947786.523575,1771947786.482575,-1000.0,-1000.0,-53.22265625,-1000.0,0.0,0,0
1771947786.5236192,1771947786.4864724,-202.63671875,-926.7578125,-1000.0,-153.3203125,0.0,0,0
1771947786.523662,1771947786.49037,894.53125,-1000.0,-810.546875,-998.046875,0.0,0,0
1771947786.523703,1771947786.4942675,-974.12109375,-86.42578125,420.41015625,-943.359375,0.0,0,0
1771947786.523745,1771947786.4981651,-7.8125,261.23046875,-792.96875,44.43359375,0.0,0,0
1771947786.523787,1771947786.5020626,-1000.0,-1000.0,251.953125,-1000.0,0.0,0,0
1771947786.568156,1771947786.5060449,-229.00390625,-938.96484375,-1000.0,-203.61328125,0.0,0,0
1771947786.568314,1771947786.5099425,979.4921875,-1000.0,-237.79296875,992.67578125,0.0,0,0
1771947786.5683799,1771947786.51384,-921.875,-405.76171875,-986.328125,-915.0390625,0.0,0,0
1771947786.56844,1771947786.5177376,138.671875,-891.6015625,975.5859375,207.03125,0.0,0,0
1771947786.5684988,1771947786.521635,-1000.0,-9.27734375,913.0859375,-1000.0,0.0,0,0
1771947786.568556,1771947786.5255327,-214.84375,-1000.0,892.08984375,-188.4765625,0.0,0,0
1771947786.568612,1771947786.5294302,771.97265625,-946.2890625,964.35546875,853.515625,0.0,0,0
1771947786.568671,1771947786.5333278,832.51953125,-988.28125,979.00390625,902.83203125,0.0,0,0
1771947786.5687318,1771947786.5372252,112.79296875,-1000.0,966.796875,181.640625,0.0,0,0
1771947786.56879,1771947786.541123,-1000.0,-1000.0,973.14453125,-1000.0,0.0,0,0
1771947786.5688581,1771947786.5450203,-361.328125,-932.12890625,972.16796875,-303.7109375,0.0,0,0
1771947786.569131,1771947786.548918,645.5078125,-1000.0,972.16796875,719.7265625,0.0,0,0
1771947786.612533,1771947786.55289,928.22265625,-162.59765625,971.6796875,927.734375,0.0,0,0
1771947786.612671,1771947786.5567877,211.9140625,231.93359375,971.6796875,233.3984375,0.0,0,0
1771947786.612728,1771947786.5606852,-1000.0,-1000.0,972.16796875,-1000.0,0.0,0,0
1771947786.6127691,1771947786.5645828,-522.4609375,-939.94140625,972.16796875,-453.61328125,0.0,0,0
1771947786.6128142,1771947786.5684805,479.4921875,-1000.0,972.16796875,606.93359375,0.0,0,0
1771947786.612857,1771947786.572378,743.65234375,-135.7421875,970.21484375,690.4296875,0.0,0,0
1771947786.612899,1771947786.5762756,141.6015625,761.71875,947.265625,126.953125,0.0,0,0
1771947786.612942,1771947786.580173,-1000.0,-767.578125,-957.03125,-1000.0,0.0,0,0
1771947786.612982,1771947786.5840707,-976.07421875,-1000.0,556.15234375,-990.72265625,0.0,0,0
1771947786.613023,1771947786.587968,-88.37890625,-930.6640625,188.4765625,-92.28515625,0.0,0,0
1771947786.613065,1771947786.5918658,662.109375,-1000.0,623.046875,525.390625,0.0,0,0
1771947786.6131048,1771947786.5957634,136.71875,-1000.0,688.4765625,71.77734375,0.0,0,0
1771947786.67171,1771947786.5997264,-1000.0,-1000.0,-370.60546875,-1000.0,0.0,0,0
1771947786.671832,1771947786.6036239,-1000.0,-920.8984375,-1000.0,-1000.0,0.0,0,0
1771947786.6718771,1771947786.6075215,-114.2578125,-1000.0,-963.8671875,-140.625,0.0,0,0
1771947786.671922,1771947786.6114192,673.33984375,-482.91015625,-994.62890625,499.0234375,0.0,0,0
1771947786.671968,1771947786.6153166,136.71875,174.8046875,-1000.0,43.45703125,0.0,0,0
1771947786.672009,1771947786.6192143,-951.171875,-966.30859375,-1000.0,-979.00390625,0.0,0,0
1771947786.6720839,1771947786.6231117,-1000.0,-1000.0,-1000.0,-1000.0,0.0,0,0
1771947786.672152,1771947786.6270094,-201.171875,-947.265625,-1000.0,-206.54296875,0.0,0,0
1771947786.672189,1771947786.630907,738.76953125,-1000.0,-1000.0,426.26953125,0.0,0,0
1771947786.672223,1771947786.6348045,168.9453125,-1000.0,-1000.0,-53.22265625,0.0,0,0
1771947786.672255,1771947786.6387022,-849.12109375,-1000.0,-1000.0,-898.92578125,0.0,0,0
1771947786.672287,1771947786.6425996,-1000.0,-1000.0,-1000.0,-1000.0,0.0,0,0
1771947786.702589,1771947786.6465516,-208.0078125,-1000.0,-1000.0,-139.6484375,0.0,0,0
1771947786.70273,1771947786.6504493,766.6015625,-1000.0,-1000.0,375.48828125,0.0,0,0
1771947786.702778,1771947786.6543467,274.90234375,-1000.0,-1000.0,-166.50390625,0.0,0,0
1771947786.702823,1771947786.6582444,-682.6171875,-1000.0,-1000.0,-755.37109375,0.0,0,0
1771947786.702865,1771947786.662142,-1000.0,-1000.0,-1000.0,-1000.0,0.0,0,0
1771947786.702903,1771947786.6660395,-188.4765625,-1000.0,-1000.0,-119.62890625,0.0,0,0
1771947786.702944,1771947786.6699371,570.3125,-1000.0,-1000.0,225.5859375,0.0,0,0
1771947786.702986,1771947786.6738348,290.52734375,-1000.0,-1000.0,-178.22265625,0.0,0,0
1771947786.703027,1771947786.6777322,-398.4375,-1000.0,-1000.0,-575.1953125,0.0,0,0
1771947786.7030668,1771947786.68163,-1000.0,-1000.0,-1000.0,-1000.0,0.0,0,0
1771947786.7031062,1771947786.6855276,-166.015625,-1000.0,-1000.0,-115.72265625,0.0,0,0
1771947786.703145,1771947786.689425,438.4765625,-1000.0,-1000.0,148.4375,0.0,0,0
1771947786.778145,1771947786.693528,362.79296875,-1000.0,-1000.0,-113.28125,0.0,0,0
1771947786.778312,1771947786.6974256,198.2421875,-1000.0,-1000.0,53.7109375,0.0,0,0
1771947786.778375,1771947786.701323,-915.0390625,-1000.0,-1000.0,-1000.0,0.0,0,0
1771947786.778434,1771947786.7052207,-81.54296875,-936.5234375,-1000.0,-26.3671875,0.0,0,0
1771947786.778494,1771947786.7091184,530.76171875,-1000.0,-1000.0,351.5625,0.0,0,0
1771947786.778548,1771947786.713016,471.6796875,-85.44921875,-1000.0,90.8203125,0.0,0,0
1771947786.778604,1771947786.7169135,247.0703125,259.765625,-1000.0,193.359375,0.0,0,0
1771947786.77866,1771947786.7208111,-799.8046875,-1000.0,-1000.0,-666.9921875,0.0,0,0
1771947786.7787142,1771947786.7247088,-176.7578125,-1000.0,-1000.0,-38.57421875,0.0,0,0
1771947786.778783,1771947786.7286065,895.99609375,-959.47265625,-1000.0,853.02734375,0.0,0,0
1771947786.778841,1771947786.7325041,-883.30078125,-976.07421875,-1000.0,-856.4453125,0.0,0,0
1771947786.7788968,1771947786.7364016,182.12890625,-1000.0,-1000.0,112.79296875,0.0,0,0
1771947786.8082309,1771947786.7404206,-351.07421875,-115.72265625,-1000.0,-362.79296875,0.0,0,0
1771947786.808364,1771947786.7443182,-68.359375,-340.33203125,-976.5625,53.7109375,0.0,0,0
1771947786.808414,1771947786.7482157,682.6171875,-672.36328125,-1000.0,675.78125,0.0,0,0
1771947786.808457,1771947786.7521133,-939.453125,914.55078125,-950.1953125,-947.265625,0.0,0,0
1771947786.808502,1771947786.756011,859.86328125,996.09375,-62.98828125,878.90625,0.0,0,0
1771947786.808544,1771947786.7599087,165.0390625,992.67578125,900.87890625,519.04296875,0.0,0,0
1771947786.808587,1771947786.7638063,-711.42578125,-116.2109375,456.0546875,-463.8671875,0.0,0,0
1771947786.808628,1771947786.767704,333.0078125,-1000.0,471.19140625,280.76171875,0.0,0,0
1771947786.808681,1771947786.7716017,-758.30078125,-154.78515625,-946.2890625,-730.46875,0.0,0,0
1771947786.8087318,1771947786.775499,450.1953125,974.609375,953.61328125,472.16796875,0.0,0,0
1771947786.808785,1771947786.7793968,-33.203125,-836.42578125,967.7734375,127.44140625,0.0,0,0
1771947786.8088262,1771947786.7832944,-241.2109375,24.4140625,972.65625,18.5546875,0.0,0,0
1771947786.852609,1771947786.787295,158.203125,-419.921875,971.6796875,164.0625,0.0,0,0
1771947786.852747,1771947786.7911928,-773.92578125,-990.72265625,971.6796875,-782.71484375,0.0,0,0
1771947786.8528142,1771947786.7950904,501.46484375,944.3359375,971.6796875,545.8984375,0.0,0,0
1771947786.852874,1771947786.798988,68.84765625,-875.48828125,971.6796875,146.484375,0.0,0,0
1771947786.8529332,1771947786.8028858,-182.12890625,83.49609375,971.6796875,-24.90234375,0.0,0,0
1771947786.852996,1771947786.8067834,-36.62109375,-230.95703125,971.6796875,-5.859375,0.0,0,0
1771947786.853052,1771947786.810681,-771.97265625,-929.19921875,971.6796875,-774.90234375,0.0,0,0
1771947786.85311,1771947786.8145785,458.984375,912.109375,971.6796875,458.0078125,0.0,0,0
1771947786.853166,1771947786.8184762,-35.15625,-855.46875,971.6796875,-38.0859375,0.0,0,0
1771947786.8532119,1771947786.8223739,-164.55078125,56.15234375,971.6796875,-62.5,0.0,0,0
1771947786.8532531,1771947786.8262715,-156.73828125,-312.01171875,971.6796875,-141.11328125,0.0,0,0
1771947786.853324,1771947786.8301692,-919.921875,-933.10546875,971.6796875,-961.9140625,0.0,0,0
1771947786.8970292,1771947786.8341587,825.1953125,910.64453125,971.6796875,868.1640625,0.0,0,0
1771947786.89715,1771947786.8380563,175.78125,-878.41796875,971.6796875,190.91796875,0.0,0,0
1771947786.897215,1771947786.841954,-363.28125,409.1796875,971.6796875,-314.94140625,0.0,0,0
1771947786.897275,1771947786.8458517,-150.390625,-126.953125,971.6796875,-96.19140625,0.0,0,0
1771947786.8973389,1771947786.8497493,987.3046875,998.53515625,971.6796875,926.26953125,0.0,0,0
1771947786.897398,1771947786.853647,958.49609375,984.375,971.6796875,977.5390625,0.0,0,0
1771947786.897454,1771947786.8575447,175.78125,968.26171875,972.16796875,159.1796875,0.0,0,0
1771947786.897512,1771947786.8614423,-505.37109375,934.5703125,971.6796875,-393.06640625,0.0,0,0
1771947786.8975701,1771947786.86534,-145.01953125,522.94921875,971.6796875,14.6484375,0.0,0,0
1771947786.897619,1771947786.8692377,941.89453125,856.4453125,971.6796875,881.8359375,0.0,0,0
1771947786.89766,1771947786.8731353,-948.73046875,-966.796875,971.6796875,-895.01953125,0.0,0,0
1771947786.89772,1771947786.877033,194.82421875,938.4765625,971.6796875,89.35546875,0.0,0,0
1771947786.9419048,1771947786.8810143,-219.7265625,981.4453125,971.6796875,-39.0625,0.0,0,0
1771947786.942036,1771947786.884912,143.06640625,971.6796875,971.6796875,622.55859375,0.0,0,0
1771947786.942084,1771947786.8888097,837.40234375,971.6796875,971.6796875,815.4296875,0.0,0,0
1771947786.942129,1771947786.8927073,-834.47265625,971.6796875,971.6796875,-810.05859375,0.0,0,0
1771947786.942177,1771947786.896605,129.8828125,972.16796875,971.6796875,95.21484375,0.0,0,0
1771947786.942373,1771947786.9005027,-202.63671875,972.16796875,971.6796875,-75.68359375,0.0,0,0
1771947786.94242,1771947786.9044003,447.75390625,971.6796875,971.6796875,-940.4296875,0.0,0,0
1771947786.942463,1771947786.908298,782.71484375,971.6796875,971.6796875,-955.078125,0.0,0,0
1771947786.942505,1771947786.9121957,766.6015625,971.6796875,971.6796875,449.21875,0.0,0,0
1771947786.94255,1771947786.9160933,339.84375,971.6796875,971.6796875,109.86328125,0.0,0,0
1771947786.942591,1771947786.919991,268.06640625,971.6796875,971.6796875,434.08203125,0.0,0,0
1771947786.942633,1771947786.9238887,494.62890625,971.6796875,971.6796875,809.08203125,0.0,0,0
1771947786.987703,1771947786.9278607,849.609375,971.6796875,971.6796875,-824.70703125,0.0,0,0
1771947786.987863,1771947786.9317584,503.90625,971.6796875,972.16796875,78.125,0.0,0,0
1771947786.987927,1771947786.935656,296.38671875,971.6796875,971.6796875,-155.76171875,0.0,0,0
1771947786.987987,1771947786.9395537,252.9296875,971.6796875,971.6796875,375.48828125,0.0,0,0
1771947786.98803,1771947786.9434514,298.33984375,971.6796875,971.6796875,575.1953125,0.0,0,0
1771947786.988072,1771947786.947349,857.91015625,971.6796875,971.6796875,-790.52734375,0.0,0,0
1771947786.9881148,1771947786.9512467,398.92578125,971.6796875,971.6796875,61.5234375,0.0,0,0
1771947786.988157,1771947786.9551444,98.6328125,971.6796875,972.16796875,-306.640625,0.0,0,0
1771947786.988199,1771947786.959042,233.3984375,971.6796875,971.6796875,229.98046875,0.0,0,0
1771947786.988249,1771947786.96294,322.75390625,971.6796875,971.6796875,622.0703125,0.0,0,0
1771947786.988319,1771947786.9668376,698.73046875,971.6796875,971.6796875,-759.27734375,0.0,0,0
1771947786.9883718,1771947786.9707353,156.73828125,971.6796875,971.6796875,-5.859375,0.0,0,0
1771947787.0764449,1771947786.9746952,139.6484375,971.6796875,971.6796875,-225.09765625,0.0,0,0
1771947787.076611,1771947786.9785929,205.56640625,971.6796875,971.6796875,166.015625,0.0,0,0
1771947787.0766761,1771947786.9824905,-134.765625,971.6796875,971.6796875,169.921875,0.0,0,0
1771947787.076737,1771947786.9863884,675.78125,971.6796875,971.6796875,-879.39453125,0.0,0,0
1771947787.0767958,1771947786.990286,109.375,971.6796875,971.6796875,0.0,0.0,0,0
1771947787.076852,1771947786.9941838,-22.94921875,971.6796875,971.6796875,-447.265625,0.0,0,0
1771947787.0769129,1771947786.9980814,129.39453125,971.6796875,972.16796875,-83.49609375,0.0,0,0
1771947787.076972,1771947787.001979,-349.609375,971.6796875,971.6796875,-89.84375,0.0,0,0
1771947787.0770292,1771947787.0058768,811.5234375,971.6796875,971.6796875,-757.8125,0.0,0,0
1771947787.077086,1771947787.0097744,155.76171875,971.6796875,971.6796875,211.9140625,0.0,0,0
1771947787.0771441,1771947787.013672,-237.79296875,972.16796875,972.16796875,-695.3125,0.0,0,0
1771947787.0772018,1771947787.0175698,241.2109375,972.16796875,971.6796875,-16.11328125,0.0,0,0
1771947787.078923,1771947787.0215344,-133.30078125,971.6796875,971.6796875,2.44140625,0.0,0,0
1771947787.0790029,1771947787.025432,841.796875,971.6796875,971.6796875,-956.54296875,0.0,0,0
1771947787.079054,1771947787.0293298,415.0390625,971.6796875,971.6796875,574.70703125,0.0,0,0
1771947787.0790982,1771947787.0332274,-482.421875,972.16796875,971.6796875,-913.57421875,0.0,0,0
1771947787.0791419,1771947787.037125,-137.6953125,972.16796875,972.16796875,-1000.0,0.0,0,0
1771947787.0791838,1771947787.0410228,201.66015625,971.6796875,971.6796875,8.7890625,0.0,0,0
1771947787.079233,1771947787.0449207,631.8359375,971.6796875,971.6796875,-849.12109375,0.0,0,0
1771947787.0792792,1771947787.0488183,318.84765625,972.16796875,971.6796875,527.83203125,0.0,0,0
1771947787.0793211,1771947787.052716,-447.265625,972.16796875,972.16796875,-812.98828125,0.0,0,0
1771947787.079382,1771947787.0566137,-424.8046875,972.16796875,971.6796875,-1000.0,0.0,0,0
1771947787.0794518,1771947787.0605114,126.953125,971.6796875,971.6796875,-204.58984375,0.0,0,0
1771947787.079494,1771947787.064409,663.57421875,971.6796875,971.6796875,-948.73046875,0.0,0,0
1771947787.136789,1771947787.0683496,617.1875,971.6796875,971.6796875,919.43359375,0.0,0,0
1771947787.136947,1771947787.0722473,-206.54296875,972.16796875,972.16796875,-426.7578125,0.0,0,0
1771947787.137013,1771947787.076145,-410.15625,971.6796875,971.6796875,-1000.0,0.0,0,0
1771947787.1370828,1771947787.0800426,403.3203125,971.6796875,971.6796875,92.7734375,0.0,0,0
1771947787.137141,1771947787.0839405,572.75390625,971.6796875,971.6796875,973.14453125,0.0,0,0
1771947787.137213,1771947787.0878382,694.82421875,971.6796875,971.6796875,-926.26953125,0.0,0,0
1771947787.137271,1771947787.0917358,-81.54296875,971.6796875,971.6796875,-103.515625,0.0,0,0
1771947787.137334,1771947787.0956335,-608.3984375,972.16796875,972.16796875,-1000.0,0.0,0,0
1771947787.137423,1771947787.0995312,344.7265625,971.6796875,971.6796875,145.01953125,0.0,0,0
1771947787.13749,1771947787.1034288,489.2578125,971.6796875,971.6796875,-968.26171875,0.0,0,0
1771947787.1375759,1771947787.1073267,564.453125,971.6796875,971.6796875,973.14453125,0.0,0,0
1771947787.137633,1771947787.1112244,-131.34765625,972.16796875,971.6796875,-99.12109375,0.0,0,0
1771947787.182143,1771947787.1152346,-902.34375,972.16796875,972.16796875,-1000.0,0.0,0,0
1771947787.182274,1771947787.1191323,-262.6953125,971.6796875,971.6796875,-664.55078125,0.0,0,0
1771947787.1823401,1771947787.1230302,457.51953125,971.6796875,972.16796875,660.64453125,0.0,0,0
1771947787.1824,1771947787.1269279,681.640625,971.6796875,971.6796875,-860.3515625,0.0,0,0
1771947787.1824589,1771947787.1308255,-5.37109375,971.6796875,942.87109375,113.28125,0.0,0,0
1771947787.182517,1771947787.1347232,-900.390625,972.16796875,-931.640625,-1000.0,0.0,0,0
1771947787.1825721,1771947787.138621,-861.81640625,972.16796875,524.90234375,-1000.0,0.0,0,0
1771947787.1826282,1771947787.1425188,40.0390625,971.6796875,384.765625,212.890625,0.0,0,0
1771947787.182685,1771947787.1464164,595.21484375,971.6796875,998.046875,963.8671875,0.0,0,0
1771947787.1827462,1771947787.150314,-316.40625,971.6796875,-949.21875,-269.04296875,0.0,0,0
1771947787.182803,1771947787.154212,-1000.0,971.6796875,-71.2890625,-1000.0,0.0,0,0
1771947787.182858,1771947787.1581097,-1000.0,972.16796875,-1000.0,-1000.0,0.0,0,0
1771947787.226933,1771947787.1621096,-138.18359375,973.14453125,-959.47265625,76.171875,0.0,0,0
1771947787.227135,1771947787.1660075,182.12890625,965.8203125,-988.76953125,724.609375,0.0,0,0
1771947787.22721,1771947787.1699052,-548.828125,907.71484375,-1000.0,-650.87890625,0.0,0,0
1771947787.2272599,1771947787.1738029,-792.96875,-812.98828125,-1000.0,-984.375,0.0,0,0
1771947787.22736,1771947787.1777008,-1000.0,-127.44140625,-1000.0,-1000.0,0.0,0,0
1771947787.227427,1771947787.1815984,-83.984375,-417.48046875,-1000.0,-41.9921875,0.0,0,0
1771947787.227471,1771947787.185496,237.79296875,484.86328125,-1000.0,403.3203125,0.0,0,0
1771947787.2275689,1771947787.189394,-712.890625,-902.34375,-1000.0,-908.203125,0.0,0,0
1771947787.2276192,1771947787.1932917,-746.58203125,-1000.0,-1000.0,-902.83203125,0.0,0,0
1771947787.22766,1771947787.1971893,-1000.0,-936.5234375,-1000.0,-1000.0,0.0,0,0
1771947787.2277062,1771947787.2010872,-276.85546875,-1000.0,-1000.0,-84.9609375,0.0,0,0
1771947787.227746,1771947787.204985,-135.7421875,-1000.0,-1000.0,232.421875,0.0,0,0
1771947787.272869,1771947787.2089765,-369.62890625,-1000.0,-1000.0,-469.7265625,0.0,0,0
1771947787.273034,1771947787.2128742,-512.6953125,-1000.0,-1000.0,-534.66796875,0.0,0,0
1771947787.2730958,1771947787.2167718,-1000.0,-1000.0,-1000.0,-1000.0,0.0,0,0
1771947787.273193,1771947787.2206697,-392.578125,-1000.0,-1000.0,-201.171875,0.0,0,0
1771947787.273262,1771947787.2245674,-202.63671875,-1000.0,-1000.0,316.89453125,0.0,0,0
1771947787.2733052,1771947787.228465,-284.1796875,-1000.0,-1000.0,-245.60546875,0.0,0,0
1771947787.2733471,1771947787.232363,-251.46484375,-1000.0,-1000.0,-287.59765625,0.0,0,0
1771947787.273387,1771947787.2362607,-1000.0,-1000.0,-1000.0,-1000.0,0.0,0,0
1771947787.2734249,1771947787.2401586,-551.7578125,-1000.0,-1000.0,-384.27734375,0.0,0,0
1771947787.273466,1771947787.2440562,-315.91796875,-1000.0,-1000.0,196.2890625,0.0,0,0
1771947787.27368,1771947787.247954,-289.0625,-1000.0,-1000.0,-199.70703125,0.0,0,0
1771947787.273725,1771947787.2518518,-162.109375,-1000.0,-1000.0,-160.64453125,0.0,0,0
1771947787.317039,1771947787.255832,-1000.0,-1000.0,-1000.0,-1000.0,0.0,0,0
1771947787.317247,1771947787.2597296,-678.7109375,-1000.0,-1000.0,-612.79296875,0.0,0,0
1771947787.3173,1771947787.2636275,-231.4453125,-1000.0,-1000.0,393.5546875,0.0,0,0
1771947787.317346,1771947787.2675252,-24.90234375,-1000.0,-1000.0,296.875,0.0,0,0
1771947787.317388,1771947787.271423,57.12890625,-1000.0,-1000.0,-6.8359375,0.0,0,0
1771947787.317429,1771947787.2753208,-1000.0,-1000.0,-1000.0,-1000.0,0.0,0,0
1771947787.317467,1771947787.2792184,-687.98828125,-1000.0,-1000.0,-750.48828125,0.0,0,0
1771947787.3175092,1771947787.2831163,113.28125,-1000.0,-1000.0,590.33203125,0.0,0,0
1771947787.317549,1771947787.287014,207.03125,-1000.0,-1000.0,867.67578125,0.0,0,0
1771947787.317589,1771947787.290912,-60.05859375,-1000.0,-1000.0,98.6328125,0.0,0,0
1771947787.3176289,1771947787.2948096,-958.984375,-1000.0,-1000.0,-1000.0,0.0,0,0
1771947787.317667,1771947787.2987075,-172.8515625,-1000.0,-1000.0,-364.74609375,0.0,0,0
1771947787.377196,1771947787.3027575,396.484375,-1000.0,-1000.0,924.8046875,0.0,0,0
1771947787.3773582,1771947787.3066554,610.83984375,-1000.0,-1000.0,-812.5,0.0,0,0
1771947787.377412,1771947787.310553,25.87890625,-1000.0,-1000.0,46.38671875,0.0,0,0
1771947787.3774562,1771947787.314451,-161.1328125,-1000.0,-1000.0,-372.55859375,0.0,0,0
1771947787.3774998,1771947787.3183486,155.2734375,-1000.0,-1000.0,116.69921875,0.0,0,0
1771947787.377541,1771947787.3222466,-147.4609375,-1000.0,-1000.0,-2.9296875,0.0,0,0
1771947787.3775811,1771947787.3261442,911.1328125,-1000.0,-1000.0,-792.96875,0.0,0,0
1771947787.377621,1771947787.3300421,525.390625,-1000.0,-1000.0,434.5703125,0.0,0,0
1771947787.377661,1771947787.3339398,356.93359375,-1000.0,-1000.0,-60.546875,0.0,0,0
1771947787.3777,1771947787.3378377,184.5703125,-985.83984375,-998.046875,123.046875,0.0,0,0
1771947787.377742,1771947787.3417356,-138.18359375,-961.42578125,-949.21875,-26.3671875,0.0,0,0
1771947787.3777862,1771947787.3456333,772.94921875,-1000.0,-1000.0,975.5859375,0.0,0,0
1771947787.407433,1771947787.349593,971.19140625,14.6484375,-249.0234375,999.51171875,0.0,0,0
1771947787.407568,1771947787.3534908,980.95703125,-910.15625,968.26171875,944.3359375,0.0,0,0
1771947787.4076061,1771947787.3573887,233.3984375,926.26953125,969.23828125,-90.33203125,0.0,0,0
1771947787.40764,1771947787.3612864,117.67578125,961.42578125,942.3828125,80.56640625,0.0,0,0
1771947787.4076731,1771947787.3651843,395.01953125,974.12109375,978.515625,670.41015625,0.0,0,0
1771947787.407711,1771947787.369082,872.55859375,971.6796875,971.6796875,906.25,0.0,0,0
1771947787.407754,1771947787.3729799,546.38671875,971.6796875,971.6796875,62.5,0.0,0,0
1771947787.407785,1771947787.3768775,345.703125,971.6796875,972.16796875,-81.54296875,0.0,0,0
1771947787.407812,1771947787.3807755,-230.46875,971.6796875,972.16796875,-190.91796875,0.0,0,0
1771947787.407839,1771947787.3846734,0.48828125,972.16796875,971.6796875,-154.78515625,0.0,0,0
1771947787.407866,1771947787.388571,-975.5859375,971.6796875,971.6796875,-925.78125,0.0,0,0
1771947787.407893,1771947787.392469,725.09765625,985.83984375,971.6796875,390.13671875,0.0,0,0
1771947787.4797282,1771947787.3964186,101.07421875,900.390625,971.6796875,-235.3515625,0.0,0,0
1771947787.479867,1771947787.4003162,-147.4609375,-854.4921875,971.6796875,25.87890625,0.0,0,0
1771947787.479907,1771947787.4042141,-268.5546875,436.5234375,972.16796875,-58.59375,0.0,0,0
1771947787.479938,1771947787.408112,-127.9296875,-71.77734375,971.6796875,-143.06640625,0.0,0,0
1771947787.47999,1771947787.4120097,-931.15234375,997.55859375,971.6796875,901.85546875,0.0,0,0
1771947787.480046,1771947787.4159076,302.24609375,939.453125,971.6796875,176.7578125,0.0,0,0
1771947787.4800751,1771947787.4198053,-451.171875,-871.09375,971.6796875,-433.59375,0.0,0,0
1771947787.4801018,1771947787.4237032,-585.9375,235.3515625,971.6796875,-533.69140625,0.0,0,0
1771947787.480129,1771947787.427601,-91.796875,-208.984375,971.6796875,-83.49609375,0.0,0,0
1771947787.480157,1771947787.4314988,-995.1171875,-966.30859375,971.6796875,872.55859375,0.0,0,0
1771947787.4802308,1771947787.4353967,133.7890625,930.6640625,971.6796875,9.27734375,0.0,0,0
1771947787.480284,1771947787.4392943,-458.0078125,-864.2578125,971.6796875,-386.71875,0.0,0,0
1771947787.512308,1771947787.4433148,-513.671875,84.47265625,971.6796875,-369.140625,0.0,0,0
1771947787.512429,1771947787.4472127,-90.33203125,-280.76171875,971.6796875,-29.78515625,0.0,0,0
1771947787.512473,1771947787.4511104,472.65625,-935.546875,971.6796875,224.12109375,0.0,0,0
1771947787.5125172,1771947787.4550083,20.5078125,932.12890625,971.6796875,-229.00390625,0.0,0,0
1771947787.5125601,1771947787.4589062,-361.328125,-982.91015625,971.6796875,-291.9921875,0.0,0,0
1771947787.5126028,1771947787.4628038,-1000.0,867.67578125,971.6796875,-1000.0,0.0,0,0
1771947787.512644,1771947787.4667017,-140.13671875,13.18359375,972.16796875,-83.49609375,0.0,0,0
1771947787.5126872,1771947787.4705997,396.484375,681.640625,979.98046875,193.84765625,0.0,0,0
1771947787.5127401,1771947787.4744973,91.30859375,-963.37890625,901.85546875,-154.78515625,0.0,0,0
1771947787.512782,1771947787.4783952,-226.5625,-955.56640625,-897.4609375,-117.1875,0.0,0,0
1771947787.512824,1771947787.4822931,-1000.0,216.796875,391.6015625,-1000.0,0.0,0,0
1771947787.512863,1771947787.4861908,-252.9296875,-1000.0,-976.07421875,-236.81640625,0.0,0,0
1771947787.5576792,1771947787.4902,613.76953125,-1000.0,-857.421875,638.18359375,0.0,0,0
1771947787.557836,1771947787.494098,557.6171875,119.62890625,403.3203125,578.61328125,0.0,0,0
1771947787.557902,1771947787.4979959,-175.29296875,311.03515625,721.6796875,-99.12109375,0.0,0,0
1771947787.557963,1771947787.5018935,-1000.0,-1000.0,-553.22265625,-1000.0,0.0,0,0
1771947787.55802,1771947787.5057914,-152.34375,-979.98046875,-1000.0,-105.46875,0.0,0,0
1771947787.5580769,1771947787.5096893,481.4453125,297.36328125,-1000.0,435.05859375,0.0,0,0
1771947787.558133,1771947787.5135872,230.95703125,-772.4609375,-641.11328125,72.75390625,0.0,0,0
1771947787.558191,1771947787.517485,83.49609375,125.48828125,-513.671875,150.390625,0.0,0,0
1771947787.558248,1771947787.5213828,-1000.0,-1000.0,-1000.0,-1000.0,0.0,0,0
1771947787.558301,1771947787.5252807,-377.44140625,-984.375,-1000.0,-361.328125,0.0,0,0
1771947787.5583549,1771947787.5291784,134.765625,-973.14453125,-987.3046875,193.359375,0.0,0,0
1771947787.5584261,1771947787.5330763,1.46484375,-1000.0,-1000.0,-15.13671875,0.0,0,0
1771947787.602962,1771947787.5370753,46.38671875,-1000.0,-1000.0,102.05078125,0.0,0,0
1771947787.603095,1771947787.5409732,-1000.0,-1000.0,-1000.0,-1000.0,0.0,0,0
1771947787.6031628,1771947787.544871,-890.625,-1000.0,-1000.0,-970.21484375,0.0,0,0
1771947787.603225,1771947787.548769,-236.81640625,-1000.0,-1000.0,-213.37890625,0.0,0,0
1771947787.6032908,1771947787.5526667,-293.9453125,-1000.0,-1000.0,-524.4140625,0.0,0,0
1771947787.603347,1771947787.5565646,-462.890625,-1000.0,-1000.0,-781.73828125,0.0,0,0
1771947787.603401,1771947787.5604625,-958.0078125,-1000.0,-1000.0,-920.41015625,0.0,0,0
1771947787.603456,1771947787.5643604,-1000.0,-1000.0,-1000.0,-1000.0,0.0,0,0
1771947787.603507,1771947787.5682583,-992.67578125,-1000.0,-1000.0,-981.4453125,0.0,0,0
1771947787.603582,1771947787.572156,-862.3046875,-1000.0,-1000.0,-1000.0,0.0,0,0
1771947787.603646,1771947787.5760539,-841.796875,-1000.0,-1000.0,-1000.0,0.0,0,0
1771947787.6036968,1771947787.5799518,-1000.0,-1000.0,-1000.0,-1000.0,0.0,0,0
1771947787.676963,1771947787.584098,-999.0234375,-1000.0,-1000.0,-1000.0,0.0,0,0
1771947787.677098,1771947787.587996,-997.0703125,-1000.0,-1000.0,-1000.0,0.0,0,0
1771947787.6771488,1771947787.591894,-1000.0,-1000.0,-1000.0,-1000.0,0.0,0,0
1771947787.677191,1771947787.5957918,-995.60546875,-1000.0,-1000.0,-993.1640625,0.0,0,0
1771947787.677236,1771947787.5996897,-951.66015625,-1000.0,-1000.0,-949.70703125,0.0,0,0
1771947787.677276,1771947787.6035876,-1000.0,-1000.0,-1000.0,-1000.0,0.0,0,0
1771947787.6774778,1771947787.6074855,-217.7734375,-1000.0,-1000.0,-104.00390625,0.0,0,0
1771947787.677523,1771947787.6113834,955.078125,-1000.0,-1000.0,-930.6640625,0.0,0,0
1771947787.6775649,1771947787.6152813,894.53125,-1000.0,-1000.0,911.62109375,0.0,0,0
1771947787.677611,1771947787.6191792,389.6484375,-1000.0,-1000.0,901.85546875,0.0,0,0
1771947787.67765,1771947787.6230772,-488.76953125,-1000.0,-1000.0,5.37109375,0.0,0,0
1771947787.67769,1771947787.626975,152.34375,-1000.0,-1000.0,141.6015625,0.0,0,0
1771947787.70527,1771947787.6309597,-911.1328125,-1000.0,-1000.0,-895.01953125,0.0,0,0
1771947787.7053819,1771947787.6348577,921.38671875,-1000.0,-1000.0,889.16015625,0.0,0,0
1771947787.705427,1771947787.6387556,968.75,-1000.0,-1000.0,-848.6328125,0.0,0,0
1771947787.705486,1771947787.6426535,-258.30078125,-1000.0,-1000.0,20.5078125,0.0,0,0
1771947787.705528,1771947787.6465514,-148.92578125,-1000.0,-1000.0,-181.15234375,0.0,0,0
1771947787.705568,1771947787.6504493,-948.2421875,-1000.0,-1000.0,-967.7734375,0.0,0,0
1771947787.705612,1771947787.6543472,-943.84765625,-1000.0,-1000.0,-912.59765625,0.0,0,0
1771947787.705667,1771947787.658245,340.33203125,-1000.0,-1000.0,333.0078125,0.0,0,0
1771947787.70573,1771947787.662143,-967.28515625,-1000.0,-1000.0,-1000.0,0.0,0,0
1771947787.7057998,1771947787.666041,-181.640625,-1000.0,-938.4765625,-182.6171875,0.0,0,0
1771947787.705875,1771947787.6699388,995.1171875,-1000.0,-1000.0,995.1171875,0.0,0,0
1771947787.705947,1771947787.6738367,-948.2421875,-1000.0,-257.32421875,-939.453125,0.0,0,0
1771947787.737089,1771947787.6778057,502.9296875,-1000.0,-939.453125,484.375,0.0,0,0
1771947787.737226,1771947787.6817036,-932.12890625,-1000.0,966.30859375,-1000.0,0.0,0,0
1771947787.737273,1771947787.6856015,-551.26953125,-1000.0,-354.98046875,-587.890625,0.0,0,0
1771947787.7373178,1771947787.6894994,840.33203125,-1000.0,-21.97265625,832.51953125,0.0,0,0
1771947787.737361,1771947787.6933973,-883.7890625,-1000.0,-873.53515625,-881.8359375,0.0,0,0
1771947787.737403,1771947787.6972952,460.9375,-1000.0,931.15234375,479.4921875,0.0,0,0
1771947787.737451,1771947787.701193,-997.55859375,-1000.0,960.44921875,-1000.0,0.0,0,0
1771947787.737492,1771947787.7050912,-538.0859375,-920.41015625,974.609375,-588.8671875,0.0,0,0
1771947787.7375412,1771947787.7089891,844.23828125,-1000.0,971.6796875,839.84375,0.0,0,0
1771947787.737601,1771947787.712887,-887.20703125,-142.578125,971.6796875,-868.1640625,0.0,0,0
1771947787.737643,1771947787.716785,274.90234375,540.52734375,972.16796875,258.7890625,0.0,0,0
1771947787.737684,1771947787.7206829,-1000.0,-949.70703125,972.16796875,-1000.0,0.0,0,0
1771947787.781982,1771947787.724642,-883.7890625,-1000.0,971.6796875,-955.078125,0.0,0,0
1771947787.782114,1771947787.72854,235.3515625,-896.97265625,972.16796875,228.515625,0.0,0,0
1771947787.782165,1771947787.7324378,941.40625,-1000.0,977.5390625,-965.33203125,0.0,0,0
1771947787.782214,1771947787.7363358,561.5234375,-60.546875,904.78515625,570.80078125,0.0,0,0
1771947787.782272,1771947787.7402337,-715.33203125,40.52734375,-900.87890625,-703.125,0.0,0,0
1771947787.782315,1771947787.7441316,-1000.0,-1000.0,387.6953125,-1000.0,0.0,0,0
1771947787.7823548,1771947787.7480295,-239.74609375,-979.00390625,-1000.0,-240.72265625,0.0,0,0
1771947787.782399,1771947787.7519276,-985.83984375,-984.375,-311.5234375,-939.453125,0.0,0,0
1771947787.78245,1771947787.7558255,435.05859375,-1000.0,990.72265625,498.53515625,0.0,0,0
1771947787.782491,1771947787.7597234,-816.89453125,-1000.0,-928.22265625,-818.84765625,0.0,0,0
1771947787.782531,1771947787.7636213,-1000.0,-1000.0,76.171875,-1000.0,0.0,0,0
1771947787.782599,1771947787.7675192,-231.93359375,-1000.0,-1000.0,-214.35546875,0.0,0,0
1771947787.827625,1771947787.7714696,-982.91015625,-1000.0,-692.87109375,-935.05859375,0.0,0,0
1771947787.827797,1771947787.7753675,678.22265625,-1000.0,652.83203125,788.57421875,0.0,0,0
1771947787.827861,1771947787.7792654,-604.00390625,-1000.0,-853.02734375,-516.11328125,0.0,0,0
1771947787.82792,1771947787.7831635,-1000.0,-990.72265625,-23.92578125,-1000.0,0.0,0,0
1771947787.827976,1771947787.7870615,-270.5078125,-963.8671875,-1000.0,-239.74609375,0.0,0,0
1771947787.828033,1771947787.7909594,971.19140625,-1000.0,-959.9609375,999.51171875,0.0,0,0
1771947787.828089,1771947787.7948573,919.43359375,5.37109375,224.12109375,-997.55859375,0.0,0,0
1771947787.828149,1771947787.7987552,-217.28515625,34.66796875,-783.69140625,-119.140625,0.0,0,0
1771947787.828207,1771947787.802653,-1000.0,-1000.0,93.26171875,-1000.0,0.0,0,0
1771947787.828279,1771947787.806551,-373.046875,-884.27734375,-1000.0,-350.5859375,0.0,0,0
1771947787.828356,1771947787.810449,839.35546875,-1000.0,-1000.0,900.390625,0.0,0,0
1771947787.828421,1771947787.814347,-903.80859375,-292.96875,-58.10546875,-887.6953125,0.0,0,0
1771947787.885968,1771947787.8182886,231.4453125,474.609375,-797.36328125,268.06640625,0.0,0,0
1771947787.886085,1771947787.8221865,-1000.0,-929.19921875,283.203125,-1000.0,0.0,0,0
1771947787.8861172,1771947787.8260844,-601.07421875,-1000.0,-1000.0,-583.984375,0.0,0,0
1771947787.886145,1771947787.8299823,731.93359375,-1000.0,-1000.0,791.9921875,0.0,0,0
1771947787.8861718,1771947787.8338802,-872.0703125,-310.546875,243.1640625,-870.60546875,0.0,0,0
1771947787.8862011,1771947787.837778,372.0703125,933.10546875,-888.671875,455.078125,0.0,0,0
1771947787.886228,1771947787.841676,-1000.0,-463.8671875,873.53515625,-976.07421875,0.0,0,0
1771947787.8862562,1771947787.8455741,-867.67578125,-1000.0,-573.73046875,-858.3984375,0.0,0,0
1771947787.886283,1771947787.849472,496.58203125,-1000.0,-668.45703125,546.38671875,0.0,0,0
1771947787.8863108,1771947787.85337,-824.21875,-290.52734375,858.88671875,-851.5625,0.0,0,0
1771947787.886338,1771947787.8572679,425.78125,-818.359375,979.00390625,583.49609375,0.0,0,0
1771947787.886367,1771947787.8611658,-872.55859375,173.33984375,-950.68359375,-741.69921875,0.0,0,0
1771947787.932462,1771947787.8651748,-1000.0,-1000.0,330.078125,-1000.0,0.0,0,0
1771947787.93261,1771947787.869073,81.54296875,-1000.0,211.42578125,131.34765625,0.0,0,0
1771947787.932662,1771947787.8729708,-846.6796875,-254.8828125,-936.03515625,-842.28515625,0.0,0,0
1771947787.932708,1771947787.8768687,559.5703125,-882.8125,960.9375,689.94140625,0.0,0,0
1771947787.9327512,1771947787.8807666,-749.51171875,710.44921875,958.0078125,-611.81640625,0.0,0,0
1771947787.9327948,1771947787.8846645,-1000.0,-672.8515625,974.12109375,-1000.0,0.0,0,0
1771947787.932836,1771947787.8885627,-163.0859375,-1000.0,971.6796875,-50.78125,0.0,0,0
1771947787.932898,1771947787.8924606,-999.51171875,-191.40625,972.65625,-917.96875,0.0,0,0
1771947787.932939,1771947787.8963585,734.86328125,-963.8671875,965.8203125,887.20703125,0.0,0,0
1771947787.932983,1771947787.9002564,-555.17578125,956.54296875,988.76953125,-343.26171875,0.0,0,0
1771947787.933034,1771947787.9041545,-1000.0,-309.08203125,909.66796875,-1000.0,0.0,0,0
1771947787.933093,1771947787.9080524,-206.0546875,-1000.0,881.8359375,-164.0625,0.0,0,0
1771947787.977684,1771947787.9120507,963.8671875,-169.43359375,984.86328125,-980.95703125,0.0,0,0
1771947787.977851,1771947787.9159489,920.41015625,-999.51171875,953.61328125,-979.4921875,0.0,0,0
1771947787.9779148,1771947787.9198468,-273.4375,-937.98828125,-989.74609375,-102.5390625,0.0,0,0
1771947787.9779751,1771947787.9237447,-1000.0,-29.78515625,860.83984375,-1000.0,0.0,0,0
1771947787.978019,1771947787.9276426,-247.55859375,-1000.0,707.51953125,-226.5625,0.0,0,0
1771947787.978061,1771947787.9315407,963.37890625,-171.38671875,975.5859375,986.81640625,0.0,0,0
1771947787.978109,1771947787.9354386,986.328125,991.69921875,922.36328125,-938.4765625,0.0,0,0
1771947787.9781508,1771947787.9393365,-99.609375,-918.45703125,-939.453125,63.96484375,0.0,0,0
1771947787.978194,1771947787.9432347,-1000.0,199.70703125,730.95703125,-1000.0,0.0,0,0
1771947787.978237,1771947787.9471326,-547.36328125,-1000.0,-631.34765625,-516.6015625,0.0,0,0
1771947787.9782772,1771947787.9510305,792.96875,-356.93359375,153.80859375,827.1484375,0.0,0,0
1771947787.978344,1771947787.9549284,-867.67578125,944.3359375,-939.453125,-863.76953125,0.0,0,0
1771947788.0233228,1771947787.9589171,104.4921875,-895.99609375,999.0234375,179.19921875,0.0,0,0
1771947788.023489,1771947787.9628153,-1000.0,223.6328125,728.515625,-1000.0,0.0,0,0
1771947788.023554,1771947787.9667132,-734.375,-1000.0,-899.4140625,-705.078125,0.0,0,0
1771947788.023616,1771947787.970611,595.703125,-432.6171875,-444.3359375,648.92578125,0.0,0,0
1771947788.023678,1771947787.9745092,-821.77734375,908.203125,975.09765625,-828.125,0.0,0,0
1771947788.0237389,1771947787.9784071,256.34765625,-884.27734375,-967.7734375,278.80859375,0.0,0,0
1771947788.023875,1771947787.982305,-1000.0,258.7890625,755.859375,-1000.0,0.0,0,0
1771947788.02394,1771947787.9862032,-879.39453125,-1000.0,-764.6484375,-877.44140625,0.0,0,0
1771947788.024051,1771947787.990101,466.796875,-815.4296875,-801.7578125,518.06640625,0.0,0,0
1771947788.0241542,1771947787.993999,-930.6640625,535.15625,748.046875,-971.6796875,0.0,0,0
1771947788.0242612,1771947787.9978971,852.5390625,-823.2421875,-983.88671875,-975.5859375,0.0,0,0
1771947788.024367,1771947788.001795,-306.15234375,508.30078125,-977.05078125,-34.66796875,0.0,0,0
1771947788.067422,1771947788.0057738,-1000.0,-1000.0,-325.68359375,-1000.0,0.0,0,0
1771947788.067582,1771947788.009672,297.36328125,-722.65625,-636.23046875,335.9375,0.0,0,0
1771947788.067639,1771947788.0135698,-958.984375,817.87109375,930.6640625,-955.078125,0.0,0,0
1771947788.067692,1771947788.0174677,-944.82421875,976.07421875,979.00390625,-937.5,0.0,0,0
1771947788.067735,1771947788.021366,166.50390625,-901.85546875,-960.9375,225.5859375,0.0,0,0
1771947788.067785,1771947788.0252638,-1000.0,35.64453125,411.1328125,-1000.0,0.0,0,0
1771947788.06783,1771947788.029162,103.515625,-180.17578125,305.17578125,92.28515625,0.0,0,0
1771947788.0678852,1771947788.0330598,-940.91796875,-904.296875,-940.91796875,-937.5,0.0,0,0
1771947788.067934,1771947788.0369577,-944.82421875,899.4140625,959.9609375,-942.87109375,0.0,0,0
1771947788.0679839,1771947788.040856,221.6796875,-850.5859375,960.44921875,237.3046875,0.0,0,0
1771947788.068028,1771947788.0447538,-1000.0,55.6640625,973.6328125,-1000.0,0.0,0,0
1771947788.068074,1771947788.048652,-100.09765625,-284.66796875,972.16796875,-94.7265625,0.0,0,0
1771947788.11225,1771947788.0526197,-979.00390625,-938.96484375,971.6796875,-977.5390625,0.0,0,0
1771947788.1123688,1771947788.0565176,-925.78125,981.93359375,971.6796875,-926.7578125,0.0,0,0
1771947788.112401,1771947788.0604157,338.37890625,937.98828125,971.6796875,376.953125,0.0,0,0
1771947788.1124852,1771947788.0643137,-1000.0,978.515625,972.16796875,-1000.0,0.0,0,0
1771947788.1125271,1771947788.0682118,-202.63671875,972.16796875,971.6796875,-211.42578125,0.0,0,0
1771947788.1125581,1771947788.0721097,-996.58203125,971.6796875,971.6796875,-993.1640625,0.0,0,0
1771947788.112586,1771947788.0760076,-934.5703125,971.6796875,971.6796875,-937.01171875,0.0,0,0
1771947788.112614,1771947788.0799057,522.4609375,971.6796875,971.6796875,579.58984375,0.0,0,0
1771947788.112641,1771947788.0838037,-1000.0,971.6796875,972.16796875,-1000.0,0.0,0,0
1771947788.1126678,1771947788.0877018,-325.68359375,971.6796875,972.16796875,-324.70703125,0.0,0,0
1771947788.112695,1771947788.0915997,994.62890625,984.86328125,971.6796875,-996.58203125,0.0,0,0
1771947788.112722,1771947788.0954978,-941.40625,901.85546875,971.6796875,-949.70703125,0.0,0,0
1771947788.157187,1771947788.099458,529.78515625,-906.25,971.6796875,587.40234375,0.0,0,0
1771947788.1574101,1771947788.103356,-1000.0,728.02734375,971.6796875,-986.328125,0.0,0,0
1771947788.15746,1771947788.107254,-546.875,-274.4140625,972.16796875,-554.6875,0.0,0,0
1771947788.157511,1771947788.111152,908.203125,657.2265625,972.16796875,923.33984375,0.0,0,0
1771947788.15756,1771947788.11505,997.0703125,-940.91796875,968.75,985.3515625,0.0,0,0
1771947788.1576068,1771947788.118948,963.8671875,972.16796875,976.07421875,-999.51171875,0.0,0,0
1771947788.15765,1771947788.122846,-480.95703125,897.4609375,966.796875,-429.19921875,0.0,0,0
1771947788.157692,1771947788.126744,-694.82421875,-137.6953125,927.734375,-727.5390625,0.0,0,0
1771947788.157734,1771947788.130642,865.72265625,537.109375,962.890625,850.09765625,0.0,0,0
1771947788.1577759,1771947788.13454,-959.9609375,-872.55859375,966.796875,-955.078125,0.0,0,0
1771947788.157818,1771947788.138438,856.93359375,900.87890625,971.19140625,867.1875,0.0,0,0
1771947788.157859,1771947788.1423361,-520.5078125,985.83984375,-994.140625,-493.65234375,0.0,0,0
1771947788.202843,1771947788.146287,-957.03125,972.16796875,596.6796875,-1000.0,0.0,0,0
1771947788.202987,1771947788.1501849,590.8203125,971.6796875,717.28515625,533.203125,0.0,0,0
1771947788.203038,1771947788.154083,-982.421875,971.6796875,-960.9375,-973.6328125,0.0,0,0
1771947788.203083,1771947788.157981,-946.2890625,971.6796875,948.2421875,-943.359375,0.0,0,0
1771947788.2031271,1771947788.161879,-34.66796875,971.6796875,975.5859375,-58.10546875,0.0,0,0
1771947788.2031722,1771947788.165777,-1000.0,972.16796875,972.16796875,-990.72265625,0.0,0,0
1771947788.2032142,1771947788.169675,412.109375,972.16796875,972.16796875,476.07421875,0.0,0,0
1771947788.203257,1771947788.173573,-856.4453125,972.65625,971.6796875,-857.421875,0.0,0,0
1771947788.2033,1771947788.1774712,747.0703125,900.87890625,898.4375,758.30078125,0.0,0,0
1771947788.2033489,1771947788.181369,-473.6328125,-817.87109375,-834.47265625,-465.33203125,0.0,0,0
1771947788.203391,1771947788.1852672,-1000.0,51.26953125,111.328125,-1000.0,0.0,0,0
1771947788.203434,1771947788.189165,-228.02734375,-439.453125,-829.58984375,-244.140625,0.0,0,0
1771947788.2771819,1771947788.1932578,-968.75,994.62890625,624.0234375,-974.609375,0.0,0,0
1771947788.277291,1771947788.1971557,929.6875,944.3359375,-959.47265625,940.4296875,0.0,0,0
1771947788.2773209,1771947788.2010539,-305.6640625,-875.48828125,-978.02734375,-309.5703125,0.0,0,0
1771947788.277351,1771947788.2049518,-1000.0,-76.66015625,47.36328125,-1000.0,0.0,0,0
1771947788.277378,1771947788.20885,-237.79296875,-665.52734375,-1000.0,-241.2109375,0.0,0,0
1771947788.277406,1771947788.212748,958.0078125,921.875,-136.23046875,959.9609375,0.0,0,0
1771947788.2774332,1771947788.216646,-908.203125,964.84375,-986.328125,-913.57421875,0.0,0,0
1771947788.2774599,1771947788.220544,135.25390625,-913.57421875,-926.26953125,110.83984375,0.0,0,0
1771947788.27749,1771947788.224442,-1000.0,163.0859375,115.72265625,-1000.0,0.0,0,0
1771947788.277515,1771947788.2283401,-246.09375,-1000.0,-1000.0,-245.1171875,0.0,0,0
1771947788.2775412,1771947788.2322383,-990.72265625,328.125,-189.453125,-977.5390625,0.0,0,0
1771947788.277568,1771947788.2361362,-956.54296875,-937.98828125,-996.09375,-979.00390625,0.0,0,0
1771947788.3067992,1771947788.240142,36.62109375,-959.9609375,-923.828125,-74.70703125,0.0,0,0
1771947788.306918,1771947788.2440403,-1000.0,257.8125,184.5703125,-1000.0,0.0,0,0
1771947788.3069499,1771947788.2479384,-617.67578125,-1000.0,-1000.0,-688.4765625,0.0,0,0
1771947788.306981,1771947788.2518363,706.54296875,-201.66015625,-391.6015625,628.41796875,0.0,0,0
1771947788.307012,1771947788.2557344,-841.796875,-992.67578125,930.6640625,-823.2421875,0.0,0,0
1771947788.307046,1771947788.2596326,117.67578125,-913.0859375,-894.04296875,87.40234375,0.0,0,0
1771947788.307073,1771947788.2635305,-1000.0,226.07421875,145.5078125,-1000.0,0.0,0,0
1771947788.307101,1771947788.2674286,-901.3671875,-1000.0,-1000.0,-1000.0,0.0,0,0
1771947788.307126,1771947788.2713268,312.5,-201.66015625,-874.0234375,106.93359375,0.0,0,0
1771947788.307153,1771947788.2752247,-801.7578125,-992.67578125,452.63671875,-784.1796875,0.0,0,0
1771947788.30718,1771947788.2791228,84.47265625,-928.22265625,-793.45703125,67.87109375,0.0,0,0
1771947788.3072069,1771947788.283021,-1000.0,232.421875,27.83203125,-1000.0,0.0,0,0
1771947788.351917,1771947788.287018,-1000.0,-1000.0,-1000.0,-1000.0,0.0,0,0
1771947788.3520489,1771947788.2909162,-59.08203125,-662.59765625,-1000.0,-220.703125,0.0,0,0
1771947788.352118,1771947788.2948143,-810.546875,735.83984375,-228.02734375,-815.4296875,0.0,0,0
1771947788.352195,1771947788.2987123,162.109375,-827.63671875,-832.51953125,166.015625,0.0,0,0
1771947788.352361,1771947788.3026104,-1000.0,143.06640625,7.8125,-1000.0,0.0,0,0
1771947788.35241,1771947788.3065085,-1000.0,-1000.0,-1000.0,-1000.0,0.0,0,0
1771947788.352448,1771947788.3104067,-151.3671875,-1000.0,-1000.0,-226.5625,0.0,0,0
1771947788.352488,1771947788.3143046,-809.5703125,-16.11328125,-383.7890625,-817.3828125,0.0,0,0
1771947788.352531,1771947788.3182027,194.3359375,-773.92578125,318.84765625,202.63671875,0.0,0,0
1771947788.352573,1771947788.3221009,-1000.0,142.08984375,-904.78515625,-1000.0,0.0,0,0
1771947788.352614,1771947788.325999,-1000.0,-1000.0,-1000.0,-1000.0,0.0,0,0
1771947788.352656,1771947788.329897,-224.609375,-1000.0,-1000.0,-244.140625,0.0,0,0
1771947788.397505,1771947788.333884,-821.2890625,-254.39453125,-790.52734375,-825.1953125,0.0,0,0
1771947788.39763,1771947788.3377821,331.0546875,-825.1953125,-292.96875,357.421875,0.0,0,0
1771947788.397697,1771947788.3416803,-969.7265625,173.33984375,-913.0859375,-960.9375,0.0,0,0
1771947788.3977559,1771947788.3455784,-1000.0,-1000.0,-1000.0,-1000.0,0.0,0,0
1771947788.397808,1771947788.3494766,-253.41796875,-1000.0,-1000.0,-237.79296875,0.0,0,0
1771947788.3978739,1771947788.3533745,-847.65625,-238.76953125,-936.03515625,-838.37890625,0.0,0,0
1771947788.397931,1771947788.3572726,441.40625,-849.609375,-556.15234375,474.609375,0.0,0,0
1771947788.39799,1771947788.3611708,-920.41015625,18.06640625,-896.97265625,-899.4140625,0.0,0,0
1771947788.398047,1771947788.365069,-1000.0,-1000.0,-1000.0,-1000.0,0.0,0,0
1771947788.398116,1771947788.3689668,-239.2578125,-1000.0,-972.16796875,-198.73046875,0.0,0,0
1771947788.398172,1771947788.372865,-975.09765625,-778.3203125,-1000.0,-955.078125,0.0,0,0
1771947788.398227,1771947788.376763,867.1875,849.609375,-547.8515625,919.921875,0.0,0,0
1771947788.443108,1771947788.38074,-415.0390625,493.1640625,-663.57421875,-331.0546875,0.0,0,0
1771947788.443273,1771947788.384638,-1000.0,-962.890625,-1000.0,-1000.0,0.0,0,0
1771947788.4433331,1771947788.3885362,-335.9375,-1000.0,-937.5,-321.77734375,0.0,0,0
1771947788.443392,1771947788.3924344,936.03515625,-608.3984375,-1000.0,942.3828125,0.0,0,0
1771947788.443455,1771947788.3963323,-950.68359375,988.76953125,-15.625,-931.15234375,0.0,0,0
1771947788.4435148,1771947788.4002304,-93.75,392.08984375,105.95703125,-41.50390625,0.0,0,0
1771947788.443578,1771947788.4041286,-1000.0,-1000.0,-1000.0,-1000.0,0.0,0,0
1771947788.443629,1771947788.4080267,-387.6953125,-962.40234375,-919.43359375,-411.62109375,0.0,0,0
1771947788.443688,1771947788.4119248,880.859375,-1000.0,-1000.0,885.7421875,0.0,0,0
1771947788.4437509,1771947788.415823,-889.16015625,276.3671875,-83.49609375,-880.37109375,0.0,0,0
1771947788.443829,1771947788.419721,179.19921875,626.46484375,815.4296875,188.96484375,0.0,0,0
1771947788.443886,1771947788.423619,-1000.0,-968.75,-683.59375,-1000.0,0.0,0,0
1771947788.4871922,1771947788.4275875,-590.33203125,-1000.0,-1000.0,-586.9140625,0.0,0,0
1771947788.487324,1771947788.4314857,768.06640625,-1000.0,-1000.0,782.2265625,0.0,0,0
1771947788.48737,1771947788.4353838,-852.5390625,53.7109375,-195.3125,-854.00390625,0.0,0,0
1771947788.4874141,1771947788.439282,203.61328125,-804.19921875,-832.51953125,191.40625,0.0,0,0
1771947788.487458,1771947788.44318,-1000.0,-173.33984375,-78.61328125,-1000.0,0.0,0,0
1771947788.487498,1771947788.4470782,-718.26171875,-1000.0,-1000.0,-713.37890625,0.0,0,0
1771947788.487545,1771947788.4509764,635.25390625,-1000.0,-1000.0,644.04296875,0.0,0,0
1771947788.487596,1771947788.4548743,-821.2890625,-89.35546875,-211.42578125,-819.82421875,0.0,0,0
1771947788.487638,1771947788.4587724,256.34765625,-790.0390625,-807.6171875,247.55859375,0.0,0,0
1771947788.4876878,1771947788.4626706,-991.2109375,15.625,139.6484375,-996.58203125,0.0,0,0
1771947788.487749,1771947788.4665687,-1000.0,-1000.0,-1000.0,-1000.0,0.0,0,0
1771947788.487786,1771947788.4704669,59.08203125,-1000.0,-1000.0,75.68359375,0.0,0,0
1771947788.5328481,1771947788.4744253,-791.015625,-262.6953125,-256.34765625,-782.71484375,0.0,0,0
1771947788.532991,1771947788.4783235,293.9453125,-823.2421875,-824.21875,301.7578125,0.0,0,0
1771947788.533102,1771947788.4822216,-967.7734375,152.83203125,171.38671875,-959.9609375,0.0,0,0
1771947788.533196,1771947788.4861197,-1000.0,-1000.0,-1000.0,-1000.0,0.0,0,0
1771947788.533254,1771947788.490018,-142.08984375,-1000.0,-1000.0,-151.3671875,0.0,0,0
1771947788.533312,1771947788.493916,-833.984375,-222.65625,-289.0625,-826.66015625,0.0,0,0
1771947788.533438,1771947788.497814,491.69921875,-879.39453125,-835.9375,471.6796875,0.0,0,0
1771947788.533503,1771947788.501712,-854.4921875,-125.0,185.05859375,-874.0234375,0.0,0,0
1771947788.533561,1771947788.5056102,-1000.0,-1000.0,-1000.0,-1000.0,0.0,0,0
1771947788.533616,1771947788.5095084,-170.41015625,-979.00390625,-1000.0,-156.73828125,0.0,0,0
1771947788.533667,1771947788.5134065,-949.70703125,-1000.0,-597.65625,-930.6640625,0.0,0,0
1771947788.533708,1771947788.5173047,852.05078125,448.73046875,-999.51171875,871.09375,0.0,0,0
1771947788.577225,1771947788.521255,-423.828125,5.859375,351.07421875,-399.90234375,0.0,0,0
1771947788.5773811,1771947788.5251532,-1000.0,-1000.0,-1000.0,-1000.0,0.0,0,0
1771947788.577439,1771947788.5290513,-179.6875,-1000.0,-1000.0,-166.015625,0.0,0,0
1771947788.577496,1771947788.5329494,987.3046875,-714.84375,-631.34765625,-995.60546875,0.0,0,0
1771947788.577562,1771947788.5368476,-977.05078125,932.12890625,921.38671875,-959.47265625,0.0,0,0
1771947788.5776262,1771947788.5407457,-43.45703125,533.203125,702.63671875,-20.01953125,0.0,0,0
1771947788.577684,1771947788.5446439,-1000.0,-934.08203125,-769.53125,-1000.0,0.0,0,0
1771947788.577738,1771947788.548542,-254.39453125,-1000.0,-1000.0,-234.375,0.0,0,0
1771947788.577791,1771947788.5524402,957.03125,-712.40234375,-723.6328125,978.515625,0.0,0,0
1771947788.577834,1771947788.556338,-926.7578125,855.46875,711.42578125,-920.8984375,0.0,0,0
1771947788.577878,1771947788.5602362,128.90625,668.45703125,973.6328125,153.80859375,0.0,0,0
1771947788.577919,1771947788.5641344,-1000.0,-887.6953125,-496.58203125,-1000.0,0.0,0,0
1771947788.637032,1771947788.5680745,-619.140625,-1000.0,-1000.0,-577.63671875,0.0,0,0
1771947788.6371882,1771947788.5719726,726.07421875,-1000.0,-1000.0,785.15625,0.0,0,0
1771947788.63725,1771947788.5758708,-846.19140625,190.91796875,221.6796875,-849.12109375,0.0,0,0
1771947788.637312,1771947788.579769,53.7109375,-971.6796875,-869.62890625,60.546875,0.0,0,0
1771947788.6373749,1771947788.583667,-1000.0,-542.96875,-347.16796875,-1000.0,0.0,0,0
1771947788.63744,1771947788.5875652,-1000.0,-1000.0,-1000.0,-1000.0,0.0,0,0
1771947788.637491,1771947788.5914633,-214.35546875,-1000.0,-1000.0,-234.375,0.0,0,0
1771947788.6375449,1771947788.5953615,-829.1015625,-91.796875,-230.95703125,-832.03125,0.0,0,0
1771947788.637613,1771947788.5992596,257.8125,526.85546875,-870.60546875,248.53515625,0.0,0,0
1771947788.637682,1771947788.6031578,-1000.0,-960.44921875,-156.25,-1000.0,0.0,0,0
1771947788.6377358,1771947788.607056,-636.23046875,-1000.0,-1000.0,-598.14453125,0.0,0,0
1771947788.637784,1771947788.610954,788.0859375,-1000.0,-1000.0,826.171875,0.0,0,0
1771947788.6824598,1771947788.6149595,979.98046875,-50.29296875,-50.78125,972.65625,0.0,0,0
1771947788.682644,1771947788.6188576,-927.734375,-774.4140625,-778.80859375,-922.8515625,0.0,0,0
1771947788.682712,1771947788.6227558,-95.703125,167.48046875,193.359375,-91.796875,0.0,0,0
1771947788.682761,1771947788.626654,-988.76953125,-1000.0,-1000.0,-981.4453125,0.0,0,0
1771947788.682803,1771947788.630552,562.5,-1000.0,-995.60546875,579.1015625,0.0,0,0
1771947788.682844,1771947788.6344502,-980.46875,199.70703125,231.4453125,-979.98046875,0.0,0,0
1771947788.682886,1771947788.6383486,-928.22265625,-767.08984375,-829.1015625,-928.7109375,0.0,0,0
1771947788.6829288,1771947788.6422467,156.73828125,302.24609375,688.4765625,165.0390625,0.0,0,0
1771947788.682972,1771947788.6461449,-1000.0,-999.0234375,-726.5625,-1000.0,0.0,0,0
1771947788.683012,1771947788.650043,264.6484375,-1000.0,-1000.0,253.41796875,0.0,0,0
1771947788.683051,1771947788.6539412,-941.89453125,162.59765625,358.88671875,-936.03515625,0.0,0,0
1771947788.683188,1771947788.6578393,-949.21875,-804.19921875,-941.40625,-952.1484375,0.0,0,0
1771947788.727202,1771947788.6618366,229.98046875,594.7265625,-993.1640625,214.35546875,0.0,0,0
1771947788.727375,1771947788.6657348,-1000.0,-762.6953125,-142.578125,-1000.0,0.0,0,0
1771947788.727443,1771947788.669633,-65.91796875,-1000.0,-1000.0,-74.21875,0.0,0,0
1771947788.7275012,1771947788.6735313,-966.30859375,26.85546875,202.1484375,-967.7734375,0.0,0,0
1771947788.727562,1771947788.6774294,-927.734375,-955.078125,-953.61328125,-926.7578125,0.0,0,0
1771947788.727621,1771947788.6813276,230.46875,-971.19140625,-940.4296875,228.515625,0.0,0,0
1771947788.727721,1771947788.6852257,-1000.0,-107.421875,177.24609375,-1000.0,0.0,0,0
1771947788.7277708,1771947788.6891239,-147.4609375,-1000.0,-1000.0,-157.71484375,0.0,0,0
1771947788.727836,1771947788.693022,-989.2578125,-8.30078125,9.27734375,-989.74609375,0.0,0,0
1771947788.727884,1771947788.6969202,-920.8984375,-963.8671875,-952.1484375,-918.45703125,0.0,0,0
1771947788.727927,1771947788.7008183,360.83984375,-943.84765625,-937.01171875,340.33203125,0.0,0,0
1771947788.727969,1771947788.7047164,-1000.0,83.49609375,238.76953125,-1000.0,0.0,0,0
1771947788.771821,1771947788.708703,-228.02734375,-1000.0,-1000.0,-222.65625,0.0,0,0
1771947788.7719738,1771947788.7126012,999.0234375,-180.6640625,-178.22265625,999.0234375,0.0,0,0
1771947788.772056,1771947788.7164996,-932.6171875,995.60546875,-987.79296875,-930.6640625,0.0,0,0
1771947788.772106,1771947788.7203977,563.4765625,-909.66796875,-916.015625,544.921875,0.0,0,0
1771947788.772151,1771947788.7242959,-1000.0,225.5859375,249.0234375,-1000.0,0.0,0,0
1771947788.772192,1771947788.728194,-325.68359375,-1000.0,-1000.0,-333.0078125,0.0,0,0
1771947788.772233,1771947788.7320921,-991.69921875,-201.66015625,-197.265625,-999.0234375,0.0,0,0
1771947788.772276,1771947788.7359903,-987.79296875,-992.67578125,-999.51171875,-976.5625,0.0,0,0
1771947788.772318,1771947788.7398884,802.24609375,-913.0859375,-918.45703125,754.8828125,0.0,0,0
1771947788.7723598,1771947788.7437868,-783.203125,226.07421875,403.80859375,-829.1015625,0.0,0,0
1771947788.772403,1771947788.747685,-563.96484375,-1000.0,-1000.0,-564.453125,0.0,0,0
1771947788.772442,1771947788.751583,941.89453125,-194.82421875,-260.7421875,929.19921875,0.0,0,0
1771947788.830698,1771947788.7555606,996.09375,995.60546875,997.55859375,-972.65625,0.0,0,0
1771947788.830807,1771947788.7594588,944.3359375,-924.31640625,-943.84765625,827.63671875,0.0,0,0
1771947788.8308392,1771947788.7633572,-501.953125,461.9140625,598.6328125,-643.06640625,0.0,0,0
1771947788.8308978,1771947788.7672553,-774.90234375,-1000.0,-1000.0,-771.97265625,0.0,0,0
1771947788.830956,1771947788.7711535,782.71484375,-372.0703125,-475.5859375,747.0703125,0.0,0,0
1771947788.8310132,1771947788.7750516,-942.87109375,956.54296875,940.91796875,-879.8828125,0.0,0,0
1771947788.831071,1771947788.7789497,838.8671875,-909.1796875,-939.453125,567.3828125,0.0,0,0
1771947788.831129,1771947788.7828481,-530.76171875,523.4375,693.359375,-858.3984375,0.0,0,0
1771947788.8311858,1771947788.7867463,-943.359375,-925.29296875,-762.6953125,-906.73828125,0.0,0,0
1771947788.831244,1771947788.7906444,596.6796875,-429.19921875,-661.1328125,577.1484375,0.0,0,0
1771947788.8313012,1771947788.7945426,-985.3515625,865.234375,752.44140625,-971.19140625,0.0,0,0
1771947788.831358,1771947788.7984407,-959.47265625,-980.46875,-961.9140625,-998.53515625,0.0,0,0
1771947788.878161,1771947788.8024843,50.29296875,918.45703125,926.26953125,-62.01171875,0.0,0,0
1771947788.87836,1771947788.8063824,-1000.0,-518.5546875,-411.1328125,-1000.0,0.0,0,0
1771947788.87844,1771947788.8102808,121.58203125,-901.85546875,-1000.0,120.60546875,0.0,0,0
1771947788.878554,1771947788.814179,-918.45703125,700.68359375,468.75,-877.44140625,0.0,0,0
1771947788.878644,1771947788.818077,967.7734375,-993.65234375,-949.21875,842.7734375,0.0,0,0
1771947788.878707,1771947788.8219752,-60.05859375,-944.82421875,-983.3984375,-308.59375,0.0,0,0
1771947788.8787498,1771947788.8258736,-1000.0,-41.50390625,-83.0078125,-1000.0,0.0,0,0
1771947788.8787909,1771947788.8297718,-126.46484375,-1000.0,-1000.0,-95.21484375,0.0,0,0
1771947788.878834,1771947788.83367,-972.16796875,365.72265625,145.99609375,-937.98828125,0.0,0,0
1771947788.878876,1771947788.8375683,-994.62890625,-951.66015625,-955.078125,932.12890625,0.0,0,0
1771947788.878918,1771947788.8414664,-18.06640625,-894.04296875,-934.08203125,-175.29296875,0.0,0,0
1771947788.8789601,1771947788.8453646,-1000.0,56.640625,171.38671875,-1000.0,0.0,0,0
1771947788.9076428,1771947788.8493295,-143.06640625,-290.0390625,-1000.0,-120.1171875,0.0,0,0
1771947788.907778,1771947788.8532279,996.58203125,-938.4765625,46.38671875,993.1640625,0.0,0,0
1771947788.907826,1771947788.857126,-915.52734375,914.0625,-957.03125,-915.52734375,0.0,0,0
1771947788.90787,1771947788.8610241,313.4765625,-855.95703125,-904.296875,322.265625,0.0,0,0
1771947788.907915,1771947788.8649225,-1000.0,88.8671875,205.078125,-1000.0,0.0,0,0
1771947788.907956,1771947788.8688207,-211.42578125,-339.35546875,-966.796875,-210.44921875,0.0,0,0
1771947788.907999,1771947788.8727188,-994.62890625,-958.49609375,361.328125,-991.69921875,0.0,0,0
1771947788.908041,1771947788.8766172,-923.828125,911.1328125,-979.4921875,-922.8515625,0.0,0,0
1771947788.908084,1771947788.8805153,394.04296875,-854.4921875,-918.9453125,384.27734375,0.0,0,0
1771947788.9081259,1771947788.8844135,-1000.0,209.47265625,480.95703125,-1000.0,0.0,0,0
1771947788.908169,1771947788.8883119,-292.48046875,-531.73828125,-441.89453125,-270.99609375,0.0,0,0
1771947788.908212,1771947788.89221,989.74609375,921.875,715.33203125,998.046875,0.0,0,0
1771947788.952086,1771947788.8961585,-947.265625,965.8203125,-931.15234375,-953.61328125,0.0,0,0
1771947788.952209,1771947788.9000568,634.27734375,-905.2734375,934.5703125,659.66796875,0.0,0,0
1771947788.952241,1771947788.903955,-943.84765625,462.40234375,918.45703125,-922.8515625,0.0,0,0
1771947788.95227,1771947788.9078531,-325.1953125,-239.2578125,769.04296875,-320.3125,0.0,0,0
1771947788.952299,1771947788.9117515,-974.609375,926.26953125,955.56640625,-972.65625,0.0,0,0
1771947788.952327,1771947788.9156497,-992.1875,-959.9609375,987.79296875,-977.5390625,0.0,0,0
1771947788.952354,1771947788.919548,745.1171875,916.015625,960.44921875,668.9453125,0.0,0,0
1771947788.952381,1771947788.9234462,-781.73828125,982.91015625,974.12109375,-862.3046875,0.0,0,0
1771947788.952408,1771947788.9273443,-506.34765625,972.16796875,972.16796875,-461.42578125,0.0,0,0
1771947788.952435,1771947788.9312427,999.0234375,971.6796875,971.6796875,-986.328125,0.0,0,0
1771947788.9524622,1771947788.9351408,933.10546875,971.6796875,971.6796875,925.29296875,0.0,0,0
1771947788.952489,1771947788.939039,-888.18359375,971.6796875,971.6796875,-882.32421875,0.0,0,0
1771947789.012274,1771947788.9429805,-147.94921875,972.16796875,971.6796875,-126.953125,0.0,0,0
1771947789.012416,1771947788.946879,-461.9140625,971.6796875,972.16796875,-441.40625,0.0,0,0
1771947789.012466,1771947788.950777,-961.9140625,971.6796875,972.16796875,-955.56640625,0.0,0,0
1771947789.012511,1771947788.9546752,923.33984375,971.6796875,971.6796875,921.875,0.0,0,0
1771947789.0125608,1771947788.9585736,-865.72265625,971.6796875,971.6796875,-863.28125,0.0,0,0
1771947789.012604,1771947788.9624717,52.24609375,972.16796875,971.6796875,60.546875,0.0,0,0
1771947789.01266,1771947788.9663699,-322.75390625,972.16796875,971.6796875,-317.87109375,0.0,0,0
1771947789.01272,1771947788.9702682,-949.70703125,971.6796875,971.6796875,-949.21875,0.0,0,0
1771947789.012762,1771947788.9741664,913.0859375,971.6796875,971.6796875,913.57421875,0.0,0,0
1771947789.012804,1771947788.9780648,-854.4921875,971.6796875,971.6796875,-853.02734375,0.0,0,0
1771947789.012851,1771947788.981963,63.4765625,971.6796875,972.16796875,63.96484375,0.0,0,0
1771947789.012892,1771947788.985861,-498.53515625,971.6796875,971.6796875,-516.6015625,0.0,0,0
1771947789.0570729,1771947788.9898667,974.12109375,971.6796875,971.6796875,967.28515625,0.0,0,0
1771947789.057311,1771947788.9937649,947.75390625,972.16796875,971.6796875,952.1484375,0.0,0,0
1771947789.057506,1771947788.9976633,-914.55078125,971.6796875,971.6796875,-917.96875,0.0,0,0
1771947789.057555,1771947789.0015614,249.0234375,971.6796875,971.6796875,260.7421875,0.0,0,0
1771947789.057599,1771947789.0054595,-1000.0,972.16796875,971.6796875,-1000.0,0.0,0,0
1771947789.057641,1771947789.009358,146.97265625,972.16796875,971.6796875,91.30859375,0.0,0,0
1771947789.057687,1771947789.013256,-852.05078125,971.6796875,971.6796875,-808.10546875,0.0,0,0
1771947789.05773,1771947789.0171545,827.1484375,971.6796875,971.6796875,707.51953125,0.0,0,0
1771947789.057772,1771947789.0210526,-278.3203125,972.16796875,971.6796875,-559.08203125,0.0,0,0
1771947789.0578141,1771947789.024951,-1000.0,972.16796875,972.16796875,-1000.0,0.0,0,0
1771947789.057854,1771947789.0288491,-322.265625,971.6796875,971.6796875,-300.29296875,0.0,0,0
1771947789.057896,1771947789.0327475,-947.75390625,971.6796875,971.6796875,-918.45703125,0.0,0,0
1771947789.102554,1771947789.036743,614.74609375,971.6796875,971.6796875,535.15625,0.0,0,0
1771947789.1026728,1771947789.0406413,-711.42578125,971.6796875,972.16796875,-838.37890625,0.0,0,0
1771947789.102735,1771947789.0445395,-1000.0,972.16796875,972.16796875,-1000.0,0.0,0,0
1771947789.1027908,1771947789.0484378,-623.046875,971.6796875,971.6796875,-593.26171875,0.0,0,0
1771947789.10285,1771947789.052336,788.57421875,971.6796875,971.6796875,887.20703125,0.0,0,0
1771947789.102907,1771947789.0562344,678.7109375,971.6796875,971.6796875,626.953125,0.0,0,0
1771947789.102964,1771947789.0601325,-816.40625,971.6796875,971.6796875,-896.97265625,0.0,0,0
1771947789.1030242,1771947789.064031,-1000.0,971.6796875,972.16796875,-977.5390625,0.0,0,0
1771947789.103081,1771947789.067929,-1000.0,972.16796875,972.16796875,-1000.0,0.0,0,0
1771947789.1031349,1771947789.0718274,-1.953125,971.6796875,985.3515625,-102.5390625,0.0,0,0
1771947789.1031911,1771947789.0757256,888.18359375,971.6796875,913.0859375,863.76953125,0.0,0,0
1771947789.103251,1771947789.079624,-625.0,972.16796875,-972.16796875,-659.1796875,0.0,0,0
1771947789.177856,1771947789.083763,-1000.0,971.6796875,812.98828125,-1000.0,0.0,0,0
1771947789.178001,1771947789.0876613,-1000.0,972.16796875,-726.07421875,-1000.0,0.0,0,0
1771947789.178046,1771947789.0915596,-342.7734375,972.16796875,-861.81640625,-425.78125,0.0,0,0
1771947789.178092,1771947789.0954578,-937.98828125,971.6796875,637.6953125,-965.8203125,0.0,0,0
1771947789.1781352,1771947789.0993562,-197.265625,971.6796875,-811.5234375,-185.05859375,0.0,0,0
1771947789.178178,1771947789.1032543,-1000.0,972.16796875,172.8515625,-1000.0,0.0,0,0
1771947789.178218,1771947789.1071527,-1000.0,972.16796875,-969.7265625,-1000.0,0.0,0,0
1771947789.178259,1771947789.111051,-393.06640625,973.6328125,-1000.0,-371.58203125,0.0,0,0
1771947789.178303,1771947789.1149492,-884.27734375,962.40234375,-257.8125,-872.0703125,0.0,0,0
1771947789.178345,1771947789.1188476,80.56640625,908.69140625,962.890625,101.07421875,0.0,0,0
1771947789.178387,1771947789.122746,-1000.0,-839.35546875,-205.078125,-1000.0,0.0,0,0
1771947789.178431,1771947789.1266441,-1000.0,-64.453125,-1000.0,-1000.0,0.0,0,0
1771947789.1933281,1771947789.130629,-503.41796875,-834.47265625,-956.0546875,-393.5546875,0.0,0,0
1771947789.1934311,1771947789.1345274,-995.1171875,751.953125,-990.234375,-937.5,0.0,0,0
1771947789.193494,1771947789.1384258,121.58203125,-990.234375,-1000.0,116.69921875,0.0,0,0
1771947789.193553,1771947789.142324,-1000.0,-939.453125,-1000.0,-1000.0,0.0,0,0
1771947789.193606,1771947789.1462224,-1000.0,92.7734375,-1000.0,-1000.0,0.0,0,0
1771947789.193728,1771947789.1501207,-677.24609375,-1000.0,-1000.0,-513.671875,0.0,0,0
1771947789.1937768,1771947789.1540189,768.5546875,173.33984375,-1000.0,910.15625,0.0,0,0
1771947789.1938372,1771947789.1579173,215.8203125,-805.6640625,-1000.0,193.359375,0.0,0,0
1771947789.19388,1771947789.1618156,-1000.0,709.47265625,-1000.0,-1000.0,0.0,0,0
1771947789.193919,1771947789.1657138,-1000.0,-584.47265625,-1000.0,-1000.0,0.0,0,0
1771947789.193959,1771947789.1696122,-577.63671875,-1000.0,-1000.0,-355.95703125,0.0,0,0
1771947789.194004,1771947789.1735106,849.609375,-209.9609375,-1000.0,-876.953125,0.0,0,0
1771947789.2378502,1771947789.1774783,217.28515625,-908.203125,-1000.0,187.01171875,0.0,0,0
1771947789.238008,1771947789.1813767,-1000.0,769.04296875,-1000.0,-1000.0,0.0,0,0
1771947789.238066,1771947789.1852748,-990.234375,-569.82421875,-1000.0,-1000.0,0.0,0,0
1771947789.238123,1771947789.1891732,-882.32421875,-1000.0,-1000.0,-760.25390625,0.0,0,0
1771947789.238179,1771947789.1930716,389.16015625,-560.05859375,-1000.0,551.7578125,0.0,0,0
1771947789.238236,1771947789.1969697,353.02734375,951.66015625,-1000.0,331.0546875,0.0,0,0
1771947789.238293,1771947789.2008681,-1000.0,775.390625,-1000.0,-1000.0,0.0,0,0
1771947789.238348,1771947789.2047665,-983.88671875,-763.18359375,-1000.0,-990.72265625,0.0,0,0
1771947789.238404,1771947789.208665,-1000.0,-1000.0,-1000.0,-1000.0,0.0,0,0
1771947789.2384572,1771947789.212563,160.15625,-936.03515625,-1000.0,231.4453125,0.0,0,0
1771947789.238524,1771947789.2164614,427.734375,-1000.0,-1000.0,423.828125,0.0,0,0
1771947789.238577,1771947789.2203598,-1000.0,-1000.0,-1000.0,-1000.0,0.0,0,0
1771947789.326167,1771947789.2244635,-957.03125,-1000.0,-1000.0,-955.56640625,0.0,0,0
1771947789.326323,1771947789.2283616,-1000.0,-1000.0,-1000.0,-1000.0,0.0,0,0
1771947789.326383,1771947789.23226,-127.44140625,-1000.0,-1000.0,-170.8984375,0.0,0,0
1771947789.3264399,1771947789.2361584,551.26953125,-1000.0,-1000.0,523.92578125,0.0,0,0
1771947789.3265002,1771947789.2400568,-890.625,-1000.0,-1000.0,-864.74609375,0.0,0,0
1771947789.326556,1771947789.2439551,-1000.0,-1000.0,-1000.0,-1000.0,0.0,0,0
1771947789.326608,1771947789.2478535,-986.81640625,-1000.0,-1000.0,-913.0859375,0.0,0,0
1771947789.3266828,1771947789.251752,20.5078125,-1000.0,-1000.0,296.38671875,0.0,0,0
1771947789.326737,1771947789.25565,790.0390625,-1000.0,-1000.0,854.4921875,0.0,0,0
1771947789.326808,1771947789.2595484,-564.94140625,-1000.0,-1000.0,-576.66015625,0.0,0,0
1771947789.326863,1771947789.2634468,-1000.0,-1000.0,-1000.0,-1000.0,0.0,0,0
1771947789.326934,1771947789.2673452,-832.03125,-1000.0,-1000.0,-775.87890625,0.0,0,0
1771947789.342627,1771947789.2713716,-263.671875,-1000.0,-1000.0,-175.29296875,0.0,0,0
1771947789.342744,1771947789.27527,635.7421875,-1000.0,-1000.0,536.1328125,0.0,0,0
1771947789.342794,1771947789.2791684,-17.08984375,-1000.0,-1000.0,-26.85546875,0.0,0,0
1771947789.342838,1771947789.2830667,-1000.0,-1000.0,-1000.0,-1000.0,0.0,0,0
1771947789.3428779,1771947789.2869651,-746.58203125,-1000.0,-1000.0,-677.734375,0.0,0,0
1771947789.3429189,1771947789.2908635,233.3984375,-1000.0,-1000.0,410.64453125,0.0,0,0
1771947789.3429601,1771947789.294762,894.04296875,-1000.0,-1000.0,914.0625,0.0,0,0
1771947789.343002,1771947789.2986603,158.203125,-1000.0,-1000.0,109.86328125,0.0,0,0
1771947789.3430421,1771947789.3025587,-1000.0,-1000.0,-1000.0,-1000.0,0.0,0,0
1771947789.3430789,1771947789.3064568,-868.65234375,-1000.0,-1000.0,-844.7265625,0.0,0,0
1771947789.343138,1771947789.3103552,-320.80078125,-1000.0,-1000.0,-214.84375,0.0,0,0
1771947789.343196,1771947789.3142536,435.05859375,-1000.0,-1000.0,322.265625,0.0,0,0
1771947789.386487,1771947789.318192,192.87109375,-1000.0,-1000.0,143.06640625,0.0,0,0
1771947789.386633,1771947789.3220904,-1000.0,-1000.0,-1000.0,-1000.0,0.0,0,0
1771947789.386676,1771947789.3259888,-1000.0,-1000.0,-1000.0,-1000.0,0.0,0,0
1771947789.386715,1771947789.3298872,-344.23828125,-1000.0,-1000.0,-230.95703125,0.0,0,0
1771947789.3867571,1771947789.3337855,605.46875,-1000.0,-1000.0,625.48828125,0.0,0,0
1771947789.386797,1771947789.337684,204.58984375,-1000.0,-1000.0,147.4609375,0.0,0,0
1771947789.386837,1771947789.3415823,-958.984375,-1000.0,-1000.0,-975.5859375,0.0,0,0
1771947789.3868768,1771947789.3454807,-1000.0,-1000.0,-1000.0,-1000.0,0.0,0,0
1771947789.386914,1771947789.349379,-281.25,-1000.0,-1000.0,-229.98046875,0.0,0,0
1771947789.386952,1771947789.3532774,920.41015625,-1000.0,-1000.0,937.98828125,0.0,0,0
1771947789.3869922,1771947789.3571758,367.67578125,-1000.0,-1000.0,303.22265625,0.0,0,0
1771947789.3871539,1771947789.3610742,-754.39453125,-1000.0,-1000.0,-829.58984375,0.0,0,0
1771947789.432097,1771947789.3650763,-1000.0,-1000.0,-1000.0,-1000.0,0.0,0,0
1771947789.4321961,1771947789.3689747,-270.01953125,-1000.0,-1000.0,-221.19140625,0.0,0,0
1771947789.432228,1771947789.372873,935.05859375,-1000.0,-1000.0,943.359375,0.0,0,0
1771947789.432256,1771947789.3767715,645.5078125,-1000.0,-1000.0,564.453125,0.0,0,0
1771947789.4322822,1771947789.3806698,-265.13671875,-1000.0,-1000.0,-485.3515625,0.0,0,0
1771947789.432311,1771947789.3845682,-884.765625,-1000.0,-1000.0,-974.609375,0.0,0,0
1771947789.432359,1771947789.3884666,-243.65234375,-1000.0,-1000.0,-220.21484375,0.0,0,0
1771947789.432425,1771947789.392365,-955.078125,-1000.0,-1000.0,-991.2109375,0.0,0,0
1771947789.4324532,1771947789.3962634,916.015625,-1000.0,-1000.0,907.71484375,0.0,0,0
1771947789.432479,1771947789.4001617,171.875,-1000.0,-1000.0,-146.97265625,0.0,0,0
1771947789.432533,1771947789.4040601,-750.48828125,-1000.0,-1000.0,-986.328125,0.0,0,0
1771947789.432621,1771947789.4079585,-222.65625,-1000.0,-1000.0,-147.94921875,0.0,0,0
1771947789.477628,1771947789.411953,855.95703125,-1000.0,-1000.0,718.26171875,0.0,0,0
1771947789.4778051,1771947789.4158514,920.41015625,-1000.0,-1000.0,843.75,0.0,0,0
1771947789.477866,1771947789.4197497,350.09765625,-1000.0,-1000.0,110.83984375,0.0,0,0
1771947789.477925,1771947789.423648,-744.62890625,-1000.0,-1000.0,-1000.0,0.0,0,0
1771947789.477993,1771947789.4275465,-354.4921875,-1000.0,-1000.0,-320.80078125,0.0,0,0
1771947789.4780512,1771947789.431445,855.95703125,-1000.0,-1000.0,806.15234375,0.0,0,0
1771947789.478106,1771947789.4353435,995.60546875,-1000.0,-1000.0,974.609375,0.0,0,0
1771947789.47816,1771947789.439242,273.92578125,-1000.0,-1000.0,13.671875,0.0,0,0
1771947789.478213,1771947789.4431403,-872.0703125,-1000.0,-1000.0,-1000.0,0.0,0,0
1771947789.478266,1771947789.4470387,-473.6328125,-1000.0,-1000.0,-401.3671875,0.0,0,0
1771947789.478325,1771947789.450937,325.68359375,-1000.0,-1000.0,282.2265625,0.0,0,0
1771947789.478378,1771947789.4548354,599.12109375,-1000.0,-1000.0,373.53515625,0.0,0,0
1771947789.522675,1771947789.4588203,277.83203125,-1000.0,-1000.0,242.1875,0.0,0,0
1771947789.522826,1771947789.4627187,-1000.0,-1000.0,-1000.0,-1000.0,0.0,0,0
1771947789.522924,1771947789.466617,-814.453125,-1000.0,-1000.0,-826.66015625,0.0,0,0
1771947789.523068,1771947789.4705157,212.890625,-1000.0,-1000.0,345.703125,0.0,0,0
1771947789.523136,1771947789.474414,892.578125,-1000.0,-1000.0,963.37890625,0.0,0,0
1771947789.5231922,1771947789.4783125,231.4453125,-1000.0,-1000.0,189.453125,0.0,0,0
1771947789.523232,1771947789.4822109,-957.03125,-1000.0,-1000.0,-958.984375,0.0,0,0
1771947789.523272,1771947789.4861093,-906.25,-1000.0,-1000.0,-888.18359375,0.0,0,0
1771947789.523316,1771947789.4900076,-53.7109375,-1000.0,-1000.0,176.26953125,0.0,0,0
1771947789.523357,1771947789.493906,776.3671875,-1000.0,-1000.0,941.40625,0.0,0,0
1771947789.523396,1771947789.4978044,277.83203125,-1000.0,-1000.0,236.81640625,0.0,0,0
1771947789.523437,1771947789.501703,-868.1640625,-1000.0,-1000.0,-799.31640625,0.0,0,0
1771947789.5673869,1771947789.5056791,-998.046875,-1000.0,-1000.0,-963.8671875,0.0,0,0
1771947789.567528,1771947789.5095775,-222.16796875,-1000.0,-1000.0,12.6953125,0.0,0,0
1771947789.567573,1771947789.5134761,809.5703125,-1000.0,-1000.0,-903.3203125,0.0,0,0
1771947789.5676138,1771947789.5173745,501.46484375,-1000.0,-1000.0,512.20703125,0.0,0,0
1771947789.567656,1771947789.521273,-561.03515625,-1000.0,-1000.0,-400.390625,0.0,0,0
1771947789.567702,1771947789.5251713,-957.51953125,-1000.0,-1000.0,-812.98828125,0.0,0,0
1771947789.567743,1771947789.5290697,-269.53125,-1000.0,-949.21875,-75.1953125,0.0,0,0
1771947789.567785,1771947789.532968,773.4375,-1000.0,-1000.0,-975.09765625,0.0,0,0
1771947789.567871,1771947789.5368664,-993.65234375,-1000.0,-382.32421875,-986.81640625,0.0,0,0
1771947789.567946,1771947789.540765,50.29296875,-1000.0,392.08984375,156.73828125,0.0,0,0
1771947789.567992,1771947789.5446634,-1000.0,-1000.0,-583.0078125,-1000.0,0.0,0,0
1771947789.568032,1771947789.5485618,-216.30859375,-1000.0,-1000.0,-132.8125,0.0,0,0
1771947789.612499,1771947789.552528,931.15234375,-1000.0,-956.54296875,-922.36328125,0.0,0,0
1771947789.6126468,1771947789.5564265,931.640625,-1000.0,193.359375,962.890625,0.0,0,0
1771947789.6126962,1771947789.560325,184.08203125,-1000.0,-783.69140625,228.515625,0.0,0,0
1771947789.612742,1771947789.5642233,-756.8359375,-997.55859375,267.08984375,-652.83203125,0.0,0,0
1771947789.61279,1771947789.5681217,-215.33203125,-927.734375,-1000.0,-155.2734375,0.0,0,0
