timestamp,lsl_timestamp,TP9,AF7,AF8,TP10,Right AUX,keypress_A,keypress_B
1771939413.056291,1771939412.952995,384.27734375,-776.3671875,21.484375,-603.515625,0.0,0,0
1771939413.056509,1771939412.95689,-202.1484375,205.078125,-57.6171875,716.30859375,0.0,0,0
1771939413.056541,1771939412.960785,-63.4765625,-1000.0,-1.953125,-790.0390625,0.0,0,0
1771939413.056561,1771939412.9646797,454.1015625,-1000.0,130.859375,55.17578125,0.0,0,0
1771939413.056579,1771939412.9685745,696.2890625,-102.5390625,123.53515625,-759.27734375,0.0,0,0
1771939413.056651,1771939412.9724693,723.6328125,-806.15234375,44.43359375,938.4765625,0.0,0,0
1771939413.056684,1771939412.9763641,-663.0859375,229.98046875,-57.6171875,438.4765625,0.0,0,0
1771939413.056705,1771939412.980259,-304.19921875,-1000.0,-3.41796875,-295.41015625,0.0,0,0
1771939413.056724,1771939412.984154,-884.27734375,-412.109375,164.0625,-912.109375,0.0,0,0
1771939413.056743,1771939412.9880488,637.20703125,901.3671875,162.59765625,33.203125,0.0,0,0
1771939413.056761,1771939412.9919436,141.6015625,-908.203125,65.4296875,-1000.0,0.0,0,0
1771939413.056779,1771939412.9958384,-212.40234375,583.0078125,-31.73828125,143.06640625,0.0,0,0
1771939413.0723588,1771939412.9998167,-283.69140625,-1000.0,-3.41796875,-918.9453125,0.0,0,0
1771939413.072404,1771939413.0037115,669.921875,-464.84375,162.109375,965.8203125,0.0,0,0
1771939413.072427,1771939413.0076065,655.76171875,944.82421875,164.0625,-87.40234375,0.0,0,0
1771939413.072448,1771939413.0115013,123.53515625,-949.21875,72.265625,-1000.0,0.0,0,0
1771939413.072469,1771939413.015396,-229.4921875,701.66015625,-33.203125,-67.87109375,0.0,0,0
1771939413.072489,1771939413.019291,-363.76953125,-874.0234375,-25.87890625,-939.453125,0.0,0,0
1771939413.0725088,1771939413.0231857,501.953125,-653.3203125,120.1171875,947.265625,0.0,0,0
1771939413.07253,1771939413.0270808,746.09375,880.859375,130.859375,-122.0703125,0.0,0,0
1771939413.0725498,1771939413.0309756,251.46484375,-993.1640625,55.17578125,-1000.0,0.0,0,0
1771939413.07257,1771939413.0348704,-124.51171875,915.0390625,-51.26953125,-173.828125,0.0,0,0
1771939413.07259,1771939413.0387652,-265.625,-228.515625,-46.875,-912.109375,0.0,0,0
1771939413.072609,1771939413.04266,268.5546875,-1000.0,79.1015625,955.56640625,0.0,0,0
1771939413.1194072,1771939413.0467095,612.3046875,-604.00390625,127.9296875,-578.61328125,0.0,0,0
1771939413.119454,1771939413.0506043,890.625,970.21484375,97.65625,47.36328125,0.0,0,0
1771939413.119482,1771939413.0544994,-257.32421875,576.66015625,-57.12890625,316.40625,0.0,0,0
1771939413.1195068,1771939413.0583942,-531.25,-1000.0,-76.66015625,-427.24609375,0.0,0,0
1771939413.119531,1771939413.062289,887.20703125,-239.74609375,59.5703125,-878.90625,0.0,0,0
1771939413.119555,1771939413.066184,790.52734375,-915.0390625,114.74609375,283.203125,0.0,0,0
1771939413.1195781,1771939413.0700788,238.76953125,880.37109375,65.4296875,-1000.0,0.0,0,0
1771939413.119601,1771939413.0739737,85.44921875,-932.12890625,-76.171875,-288.57421875,0.0,0,0
1771939413.1196392,1771939413.0778687,-252.9296875,162.109375,-98.6328125,977.05078125,0.0,0,0
1771939413.119663,1771939413.0817635,10.25390625,-1000.0,13.18359375,-848.6328125,0.0,0,0
1771939413.119686,1771939413.0856583,470.703125,-1000.0,96.6796875,-92.7734375,0.0,0,0
1771939413.1197078,1771939413.089553,754.8828125,122.55859375,93.26171875,-467.7734375,0.0,0,0
1771939413.1638012,1771939413.0935922,334.47265625,-693.359375,-35.64453125,-761.23046875,0.0,0,0
1771939413.163954,1771939413.0974872,-974.609375,-8.7890625,-101.07421875,162.109375,0.0,0,0
1771939413.16401,1771939413.101382,-94.7265625,-611.328125,13.671875,-139.6484375,0.0,0,0
1771939413.164042,1771939413.1052768,939.94140625,923.33984375,101.07421875,546.875,0.0,0,0
1771939413.164093,1771939413.1091719,218.26171875,964.35546875,63.96484375,-1000.0,0.0,0,0
1771939413.1641228,1771939413.1130667,164.55078125,-993.1640625,-27.83203125,-672.36328125,0.0,0,0
1771939413.1641521,1771939413.1169617,-214.84375,658.203125,-108.88671875,-925.78125,0.0,0,0
1771939413.164182,1771939413.1208565,-755.859375,-972.16796875,-72.265625,-170.41015625,0.0,0,0
1771939413.1642098,1771939413.1247516,469.7265625,-696.77734375,79.1015625,-321.77734375,0.0,0,0
1771939413.164238,1771939413.1286464,610.83984375,792.48046875,78.61328125,538.57421875,0.0,0,0
1771939413.164267,1771939413.1325412,-391.11328125,-844.7265625,-45.8984375,-905.2734375,0.0,0,0
1771939413.164294,1771939413.1364362,-562.5,182.6171875,-128.90625,115.234375,0.0,0,0
1771939413.208779,1771939413.1404638,-263.671875,-981.93359375,-77.1484375,-695.80078125,0.0,0,0
1771939413.20886,1771939413.1443589,300.29296875,-1000.0,74.70703125,177.24609375,0.0,0,0
1771939413.208902,1771939413.1482537,452.63671875,-193.359375,84.9609375,-856.93359375,0.0,0,0
1771939413.20894,1771939413.1521487,248.046875,-845.703125,2.44140625,-838.37890625,0.0,0,0
1771939413.209005,1771939413.1560435,-528.3203125,582.51953125,-116.2109375,2.9296875,0.0,0,0
1771939413.209043,1771939413.1599386,-389.6484375,-791.9921875,-91.796875,-737.3046875,0.0,0,0
1771939413.20908,1771939413.1638334,84.9609375,-1000.0,29.296875,232.91015625,0.0,0,0
1771939413.2091148,1771939413.1677284,504.8828125,-250.9765625,60.546875,-855.46875,0.0,0,0
1771939413.209152,1771939413.1716232,553.22265625,-853.515625,3.90625,416.9921875,0.0,0,0
1771939413.209188,1771939413.1755183,-750.48828125,117.1875,-109.86328125,-271.97265625,0.0,0,0
1771939413.209224,1771939413.179413,-457.03125,-1000.0,-70.80078125,167.96875,0.0,0,0
1771939413.209259,1771939413.1833081,123.53515625,-1000.0,45.8984375,862.79296875,0.0,0,0
1771939413.255476,1771939413.1873255,152.83203125,-206.0546875,87.890625,-744.62890625,0.0,0,0
1771939413.25563,1771939413.1912205,95.703125,985.3515625,30.76171875,-1000.0,0.0,0,0
1771939413.255697,1771939413.1951153,-566.40625,-925.78125,-92.7734375,-83.49609375,0.0,0,0
1771939413.255832,1771939413.1990104,-666.50390625,70.3125,-96.6796875,-900.87890625,0.0,0,0
1771939413.255949,1771939413.2029052,-160.15625,-1000.0,30.2734375,802.734375,0.0,0,0
1771939413.2560241,1771939413.2068002,268.5546875,-193.84765625,91.796875,-501.953125,0.0,0,0
1771939413.256086,1771939413.210695,89.84375,-991.2109375,38.57421875,-1000.0,0.0,0,0
1771939413.256145,1771939413.21459,-570.80078125,-946.2890625,-104.4921875,-165.0390625,0.0,0,0
1771939413.256206,1771939413.218485,-823.2421875,57.6171875,-143.06640625,-970.21484375,0.0,0,0
1771939413.256265,1771939413.22238,-358.88671875,-1000.0,-24.90234375,-956.0546875,0.0,0,0
1771939413.2563221,1771939413.226275,192.3828125,-590.8203125,62.01171875,-384.27734375,0.0,0,0
1771939413.256381,1771939413.2301698,413.57421875,-974.12109375,40.52734375,39.0625,0.0,0,0
1771939413.3006,1771939413.2341864,-533.203125,519.53125,-114.74609375,140.625,0.0,0,0
1771939413.300745,1771939413.2380815,-738.28125,-926.7578125,-130.859375,-384.27734375,0.0,0,0
1771939413.3008199,1771939413.2419765,-12.6953125,-1000.0,-21.97265625,-774.90234375,0.0,0,0
1771939413.30088,1771939413.2458713,74.21875,-700.68359375,56.15234375,-90.8203125,0.0,0,0
1771939413.3009448,1771939413.2497663,431.15234375,602.05078125,50.29296875,-593.75,0.0,0,0
1771939413.301014,1771939413.2536614,-67.3828125,-808.10546875,-85.9375,-813.96484375,0.0,0,0
1771939413.301074,1771939413.2575562,-1000.0,186.5234375,-174.8046875,219.23828125,0.0,0,0
1771939413.301141,1771939413.2614512,-377.9296875,-1000.0,-77.1484375,-289.0625,0.0,0,0
1771939413.301209,1771939413.2653463,807.6171875,-203.125,61.5234375,983.88671875,0.0,0,0
1771939413.301261,1771939413.269241,74.21875,-996.09375,14.16015625,-541.015625,0.0,0,0
1771939413.301314,1771939413.2731361,-472.16796875,-917.96875,-100.5859375,-836.42578125,0.0,0,0
1771939413.301375,1771939413.2770312,-611.81640625,168.45703125,-139.16015625,746.09375,0.0,0,0
1771939413.373642,1771939413.2811167,-505.37109375,-1000.0,-72.75390625,-758.30078125,0.0,0,0
1771939413.373803,1771939413.2850118,-45.41015625,-1000.0,49.8046875,-89.84375,0.0,0,0
1771939413.373879,1771939413.2889066,524.4140625,-69.3359375,70.3125,-215.8203125,0.0,0,0
1771939413.373943,1771939413.2928016,-6.8359375,-877.44140625,-57.12890625,255.859375,0.0,0,0
1771939413.374499,1771939413.2966967,-978.02734375,-191.40625,-164.55078125,-642.578125,0.0,0,0
1771939413.3745668,1771939413.3005917,-186.5234375,-1000.0,-79.1015625,828.125,0.0,0,0
1771939413.3746262,1771939413.3044868,344.23828125,-149.90234375,62.01171875,787.109375,0.0,0,0
1771939413.374691,1771939413.3083816,81.0546875,969.23828125,31.73828125,-765.625,0.0,0,0
1771939413.374748,1771939413.3122766,-321.77734375,-910.15625,-58.10546875,-1000.0,0.0,0,0
1771939413.374805,1771939413.3161716,-694.82421875,295.41015625,-146.484375,186.5234375,0.0,0,0
1771939413.3748631,1771939413.3200667,-617.67578125,-948.73046875,-116.69921875,-759.27734375,0.0,0,0
1771939413.374924,1771939413.3239617,-163.57421875,-1000.0,41.015625,332.03125,0.0,0,0
1771939413.402634,1771939413.3279524,46.875,-286.62109375,60.05859375,-1000.0,0.0,0,0
1771939413.4027689,1771939413.3318474,229.98046875,-848.6328125,-6.34765625,124.51171875,0.0,0,0
1771939413.402837,1771939413.3357425,-667.48046875,410.64453125,-139.6484375,-982.421875,0.0,0,0
1771939413.4028978,1771939413.3396375,-852.05078125,-941.89453125,-132.32421875,-145.5078125,0.0,0,0
1771939413.402966,1771939413.3435323,118.1640625,-1000.0,22.4609375,306.640625,0.0,0,0
1771939413.403022,1771939413.3474274,310.546875,-205.56640625,53.22265625,-208.0078125,0.0,0,0
1771939413.40308,1771939413.3513224,-62.5,-988.28125,-24.90234375,-1000.0,0.0,0,0
1771939413.403136,1771939413.3552175,-540.0390625,-974.609375,-162.59765625,53.7109375,0.0,0,0
1771939413.4031968,1771939413.3591125,-1000.0,-300.29296875,-179.19921875,469.23828125,0.0,0,0
1771939413.403282,1771939413.3630075,-200.68359375,-1000.0,-18.06640625,303.7109375,0.0,0,0
1771939413.403338,1771939413.3669026,349.12109375,298.828125,46.38671875,336.9140625,0.0,0,0
1771939413.403414,1771939413.3707976,-452.1484375,-895.99609375,-20.99609375,-1000.0,0.0,0,0
1771939413.448838,1771939413.37477,-593.75,895.99609375,-139.6484375,-281.73828125,0.0,0,0
1771939413.448965,1771939413.378665,-647.94921875,-256.34765625,-159.1796875,-894.53125,0.0,0,0
1771939413.449016,1771939413.38256,-317.3828125,-1000.0,-43.9453125,950.68359375,0.0,0,0
1771939413.449051,1771939413.386455,164.55078125,-550.29296875,26.85546875,-551.7578125,0.0,0,0
1771939413.449085,1771939413.39035,493.65234375,957.51953125,22.94921875,82.03125,0.0,0,0
1771939413.449127,1771939413.3942451,-537.59765625,772.94921875,-128.41796875,121.09375,0.0,0,0
1771939413.449209,1771939413.3981402,-728.515625,-690.4296875,-174.8046875,-442.87109375,0.0,0,0
1771939413.449292,1771939413.4020352,-8.7890625,-1000.0,-76.171875,-795.8984375,0.0,0,0
1771939413.449336,1771939413.4059303,-1.46484375,-851.5625,3.41796875,-224.12109375,0.0,0,0
1771939413.449373,1771939413.4098253,426.26953125,462.890625,34.1796875,-268.5546875,0.0,0,0
1771939413.449409,1771939413.4137201,-275.87890625,-855.95703125,-110.83984375,897.4609375,0.0,0,0
1771939413.449458,1771939413.4176152,-1000.0,-236.328125,-206.54296875,-638.18359375,0.0,0,0
1771939413.493909,1771939413.421665,-250.0,-1000.0,-106.4453125,253.41796875,0.0,0,0
1771939413.4940128,1771939413.42556,177.734375,-985.3515625,0.48828125,405.2734375,0.0,0,0
1771939413.494048,1771939413.429455,-5.37109375,162.109375,6.34765625,-1000.0,0.0,0,0
1771939413.494081,1771939413.43335,-336.9140625,-762.20703125,-118.65234375,-605.46875,0.0,0,0
1771939413.494115,1771939413.4372451,-739.74609375,132.8125,-179.19921875,750.9765625,0.0,0,0
1771939413.4941492,1771939413.4411402,-552.734375,-1000.0,-107.91015625,-760.25390625,0.0,0,0
1771939413.4941819,1771939413.4450352,-144.53125,-1000.0,-21.484375,-114.74609375,0.0,0,0
1771939413.4942348,1771939413.4489303,527.83203125,3.41796875,-0.48828125,-221.6796875,0.0,0,0
1771939413.494281,1771939413.4528253,28.80859375,870.60546875,-113.76953125,285.15625,0.0,0,0
1771939413.494326,1771939413.4567204,-928.22265625,-670.41015625,-210.44921875,-607.91015625,0.0,0,0
1771939413.4943738,1771939413.4606154,-36.62109375,-1000.0,-132.32421875,992.67578125,0.0,0,0
1771939413.49442,1771939413.4645104,77.1484375,-1000.0,-22.94921875,184.08203125,0.0,0,0
1771939413.540255,1771939413.4685502,403.80859375,-134.27734375,4.8828125,-764.6484375,0.0,0,0
1771939413.5403872,1771939413.4724452,276.85546875,-818.359375,-95.703125,524.90234375,0.0,0,0
1771939413.540447,1771939413.4763405,-948.2421875,-84.47265625,-236.328125,-535.15625,0.0,0,0
1771939413.540517,1771939413.4802356,-342.7734375,-1000.0,-177.24609375,180.17578125,0.0,0,0
1771939413.540583,1771939413.4841306,296.875,-1000.0,-14.16015625,700.1953125,0.0,0,0
1771939413.5406442,1771939413.4880257,174.8046875,-181.640625,-12.20703125,-1000.0,0.0,0,0
1771939413.5406861,1771939413.4919207,160.15625,-803.7109375,-100.5859375,-969.7265625,0.0,0,0
1771939413.540729,1771939413.4958158,-496.58203125,395.5078125,-222.65625,337.890625,0.0,0,0
1771939413.5407722,1771939413.4997108,-625.48828125,-918.45703125,-232.91015625,-782.71484375,0.0,0,0
1771939413.5408351,1771939413.5036058,-60.05859375,-1000.0,-69.82421875,520.5078125,0.0,0,0
1771939413.540877,1771939413.5075011,335.9375,-394.04296875,-19.04296875,-750.9765625,0.0,0,0
1771939413.540927,1771939413.5113962,588.37890625,-897.4609375,-90.33203125,337.40234375,0.0,0,0
1771939413.583989,1771939413.515425,-523.4375,440.4296875,-228.02734375,-962.890625,0.0,0,0
1771939413.58412,1771939413.51932,-1000.0,-964.84375,-238.28125,-274.90234375,0.0,0,0
1771939413.584168,1771939413.523215,-5.37109375,-1000.0,-88.8671875,335.44921875,0.0,0,0
1771939413.584212,1771939413.52711,307.6171875,-967.7734375,-23.4375,11.23046875,0.0,0,0
1771939413.584255,1771939413.5310051,244.140625,332.51953125,-55.6640625,-279.78515625,0.0,0,0
1771939413.5843,1771939413.5349004,-377.44140625,-877.9296875,-214.84375,-706.0546875,0.0,0,0
1771939413.584343,1771939413.5387955,-1000.0,-358.88671875,-264.16015625,-47.36328125,0.0,0,0
1771939413.584393,1771939413.5426905,-81.54296875,-1000.0,-128.41796875,-47.8515625,0.0,0,0
1771939413.5844328,1771939413.5465856,485.3515625,-937.01171875,-46.38671875,343.75,0.0,0,0
1771939413.584468,1771939413.5504808,-32.71484375,-1000.0,-73.2421875,-1000.0,0.0,0,0
1771939413.584501,1771939413.554376,-284.66796875,-1000.0,-207.03125,-261.23046875,0.0,0,0
1771939413.584534,1771939413.558271,-432.12890625,-927.24609375,-245.60546875,-976.07421875,0.0,0,0
1771939413.6612349,1771939413.5624642,-141.6015625,-1000.0,-133.30078125,-955.56640625,0.0,0,0
1771939413.6614149,1771939413.5663595,338.37890625,-634.27734375,-37.109375,-22.4609375,0.0,0,0
1771939413.661484,1771939413.5702546,249.51171875,748.046875,-71.2890625,-1000.0,0.0,0,0
1771939413.661545,1771939413.5741498,-269.53125,-829.58984375,-215.33203125,-278.80859375,0.0,0,0
1771939413.6616051,1771939413.578045,-706.0546875,187.5,-244.140625,955.078125,0.0,0,0
1771939413.661664,1771939413.58194,-448.73046875,-1000.0,-132.8125,-916.50390625,0.0,0,0
1771939413.661721,1771939413.5858352,321.77734375,-162.109375,-17.578125,148.4375,0.0,0,0
1771939413.661778,1771939413.5897303,179.6875,-984.375,-41.9921875,-1000.0,0.0,0,0
1771939413.661835,1771939413.5936255,-375.48828125,-924.31640625,-191.40625,-662.109375,0.0,0,0
1771939413.6619,1771939413.5975206,-694.3359375,142.08984375,-261.71875,692.3828125,0.0,0,0
1771939413.66196,1771939413.6014159,-399.4140625,-1000.0,-195.3125,-746.58203125,0.0,0,0
1771939413.662016,1771939413.605311,13.18359375,-1000.0,-80.078125,-100.5859375,0.0,0,0
1771939413.67599,1771939413.6093252,522.4609375,-126.953125,-55.6640625,-267.08984375,0.0,0,0
1771939413.676105,1771939413.6132205,74.21875,980.46875,-172.36328125,478.515625,0.0,0,0
1771939413.676169,1771939413.6171155,-976.07421875,-467.7734375,-257.32421875,-635.7421875,0.0,0,0
1771939413.6762292,1771939413.6210108,-221.19140625,-1000.0,-171.875,791.9921875,0.0,0,0
1771939413.676287,1771939413.6249058,-96.19140625,-1000.0,-64.453125,153.80859375,0.0,0,0
1771939413.676349,1771939413.628801,305.17578125,-84.9609375,-36.62109375,-389.16015625,0.0,0,0
1771939413.676407,1771939413.6326962,-6.8359375,-845.703125,-166.9921875,200.1953125,0.0,0,0
1771939413.676466,1771939413.6365914,-1000.0,-202.1484375,-295.41015625,-746.09375,0.0,0,0
1771939413.6768289,1771939413.6404865,-313.4765625,-1000.0,-218.26171875,791.015625,0.0,0,0
1771939413.6768918,1771939413.6443818,12.20703125,-1000.0,-73.73046875,489.74609375,0.0,0,0
1771939413.67695,1771939413.6482768,43.45703125,-95.703125,-40.52734375,-1000.0,0.0,0,0
1771939413.677008,1771939413.652172,-171.875,-790.52734375,-122.55859375,-1000.0,0.0,0,0
1771939413.720633,1771939413.6561751,-763.18359375,453.61328125,-249.0234375,-38.0859375,0.0,0,0
1771939413.720733,1771939413.6600704,-691.89453125,-883.30078125,-240.234375,-798.828125,0.0,0,0
1771939413.7207801,1771939413.6639655,-276.3671875,-1000.0,-96.19140625,408.69140625,0.0,0,0
1771939413.7208252,1771939413.6678607,56.640625,-167.96875,-69.3359375,-892.578125,0.0,0,0
1771939413.720868,1771939413.6717558,2.9296875,-961.42578125,-134.27734375,-1000.0,0.0,0,0
1771939413.720913,1771939413.675651,-631.8359375,893.06640625,-241.69921875,-142.08984375,0.0,0,0
1771939413.72096,1771939413.679546,-519.04296875,-992.67578125,-222.65625,-837.890625,0.0,0,0
1771939413.72101,1771939413.6834414,-285.15625,785.64453125,-136.23046875,543.45703125,0.0,0,0
1771939413.721052,1771939413.6873367,-237.79296875,-585.44921875,-93.75,-820.3125,0.0,0,0
1771939413.721094,1771939413.6912317,-84.9609375,-1000.0,-101.07421875,-1000.0,0.0,0,0
1771939413.721136,1771939413.695127,-395.5078125,-59.08203125,-229.4921875,-189.453125,0.0,0,0
1771939413.721189,1771939413.699022,-625.0,146.484375,-255.37109375,-944.3359375,0.0,0,0
1771939413.7800682,1771939413.7030132,-310.05859375,-1000.0,-134.765625,882.32421875,0.0,0,0
1771939413.780189,1771939413.7069085,291.015625,-221.6796875,-41.015625,-402.83203125,0.0,0,0
1771939413.78025,1771939413.7108037,164.55078125,-985.83984375,-73.73046875,-1000.0,0.0,0,0
1771939413.780309,1771939413.7146988,-409.1796875,-940.91796875,-221.19140625,-206.54296875,0.0,0,0
1771939413.7803688,1771939413.718594,-727.05078125,59.5703125,-252.44140625,987.79296875,0.0,0,0
1771939413.7804391,1771939413.7224894,-461.9140625,-1000.0,-150.390625,-953.61328125,0.0,0,0
1771939413.7804968,1771939413.7263844,94.7265625,-824.21875,-66.89453125,-49.31640625,0.0,0,0
1771939413.780554,1771939413.7302797,24.90234375,491.2109375,-76.171875,-1000.0,0.0,0,0
1771939413.780611,1771939413.7341747,-450.1953125,-800.29296875,-200.1953125,-257.32421875,0.0,0,0
1771939413.78067,1771939413.73807,-820.80078125,118.1640625,-249.0234375,946.77734375,0.0,0,0
1771939413.7807271,1771939413.7419653,-513.18359375,-1000.0,-157.2265625,-883.30078125,0.0,0,0
1771939413.7807832,1771939413.7458603,-29.296875,-1000.0,-53.7109375,-252.44140625,0.0,0,0
1771939413.8251982,1771939413.749857,400.87890625,267.578125,-38.57421875,-143.5546875,0.0,0,0
1771939413.825349,1771939413.7537522,-301.26953125,-985.83984375,-193.84765625,167.48046875,0.0,0,0
1771939413.825418,1771939413.7576475,-922.36328125,-500.48828125,-270.99609375,-632.8125,0.0,0,0
1771939413.82548,1771939413.7615426,-118.1640625,-1000.0,-154.296875,-982.91015625,0.0,0,0
1771939413.825539,1771939413.7654378,70.80078125,-62.98828125,-57.6171875,556.15234375,0.0,0,0
1771939413.825601,1771939413.7693331,-255.859375,988.28125,-71.2890625,-1000.0,0.0,0,0
1771939413.825658,1771939413.7732282,-659.1796875,-922.36328125,-174.8046875,-1000.0,0.0,0,0
1771939413.825717,1771939413.7771235,-950.68359375,166.50390625,-280.76171875,272.4609375,0.0,0,0
1771939413.8257768,1771939413.7810187,-658.69140625,-1000.0,-199.21875,-729.4921875,0.0,0,0
1771939413.8258529,1771939413.7849138,-290.52734375,-1000.0,-66.89453125,51.26953125,0.0,0,0
1771939413.82591,1771939413.788809,173.33984375,-255.859375,-59.5703125,-873.53515625,0.0,0,0
1771939413.8259861,1771939413.7927043,155.76171875,-829.1015625,-137.20703125,808.10546875,0.0,0,0
1771939413.869148,1771939413.7967556,-965.33203125,170.8984375,-260.25390625,-26.3671875,0.0,0,0
1771939413.8692968,1771939413.8006508,-500.48828125,-1000.0,-216.30859375,-230.95703125,0.0,0,0
1771939413.8693628,1771939413.804546,95.703125,-1000.0,-58.10546875,492.67578125,0.0,0,0
1771939413.869424,1771939413.8084414,-46.875,-241.69921875,-41.50390625,-904.296875,0.0,0,0
1771939413.869486,1771939413.8123367,-249.0234375,-928.7109375,-136.23046875,-1000.0,0.0,0,0
1771939413.869544,1771939413.8162317,-891.11328125,851.5625,-263.671875,16.11328125,0.0,0,0
1771939413.8696032,1771939413.820127,-857.91015625,-465.33203125,-231.93359375,946.2890625,0.0,0,0
1771939413.869663,1771939413.8240223,-409.1796875,-1000.0,-84.9609375,224.12109375,0.0,0,0
1771939413.8697212,1771939413.8279176,34.1796875,-287.109375,-66.40625,-775.390625,0.0,0,0
1771939413.86978,1771939413.8318129,-93.26171875,-925.78125,-132.32421875,-1000.0,0.0,0,0
1771939413.869854,1771939413.835708,-850.09765625,747.55859375,-255.859375,-204.1015625,0.0,0,0
1771939413.869916,1771939413.8396032,-771.97265625,-623.046875,-252.9296875,-846.19140625,0.0,0,0
1771939413.9146361,1771939413.8436406,-417.96875,-1000.0,-124.51171875,620.1171875,0.0,0,0
1771939413.914796,1771939413.8475358,-31.25,-403.3203125,-58.59375,-894.53125,0.0,0,0
1771939413.914863,1771939413.8514311,274.90234375,-907.2265625,-91.796875,308.10546875,0.0,0,0
1771939413.9149241,1771939413.8553264,-713.37890625,236.328125,-248.53515625,68.359375,0.0,0,0
1771939413.9149828,1771939413.8592217,-664.55078125,-1000.0,-252.9296875,-355.95703125,0.0,0,0
1771939413.915041,1771939413.863117,-12.6953125,-1000.0,-104.98046875,-940.4296875,0.0,0,0
1771939413.9150982,1771939413.8670123,97.65625,-229.98046875,-30.2734375,-269.53125,0.0,0,0
1771939413.915155,1771939413.8709075,-52.734375,994.62890625,-85.9375,-1000.0,0.0,0,0
1771939413.915211,1771939413.8748028,-669.43359375,-962.40234375,-241.69921875,-184.08203125,0.0,0,0
1771939413.9152691,1771939413.8786979,-833.984375,-96.19140625,-235.3515625,-974.609375,0.0,0,0
1771939413.9153259,1771939413.8825932,-519.04296875,-1000.0,-124.0234375,-946.2890625,0.0,0,0
1771939413.915383,1771939413.8864884,-98.6328125,-873.53515625,-56.640625,-393.06640625,0.0,0,0
1771939413.960386,1771939413.8905153,168.45703125,683.59375,-74.70703125,-72.265625,0.0,0,0
1771939413.96056,1771939413.8944106,-625.48828125,376.46484375,-239.74609375,40.0390625,0.0,0,0
1771939413.96063,1771939413.898306,-870.1171875,-1000.0,-254.8828125,-337.890625,0.0,0,0
1771939413.96069,1771939413.9022012,-279.78515625,-1000.0,-152.34375,-730.46875,0.0,0,0
1771939413.960747,1771939413.9060965,-69.3359375,-769.04296875,-64.453125,-94.7265625,0.0,0,0
1771939413.960804,1771939413.9099917,364.74609375,704.1015625,-44.43359375,-159.66796875,0.0,0,0
1771939413.9608471,1771939413.913887,-376.46484375,958.984375,-212.890625,216.30859375,0.0,0,0
1771939413.9608908,1771939413.9177823,-895.5078125,-535.64453125,-284.66796875,-508.7890625,0.0,0,0
1771939413.960937,1771939413.9216776,-138.18359375,-1000.0,-174.8046875,-869.140625,0.0,0,0
1771939413.960978,1771939413.9255729,-60.546875,-1000.0,-75.68359375,22.4609375,0.0,0,0
1771939413.961029,1771939413.9294682,376.46484375,125.48828125,-50.78125,-213.37890625,0.0,0,0
1771939413.961092,1771939413.9333634,-226.5625,-808.10546875,-188.96484375,173.33984375,0.0,0,0
1771939414.004262,1771939413.9373777,-937.5,-172.36328125,-259.765625,-539.55078125,0.0,0,0
1771939414.00445,1771939413.9412732,-229.00390625,-1000.0,-158.203125,-964.84375,0.0,0,0
1771939414.0045161,1771939413.9451685,-132.32421875,-1000.0,-56.640625,335.9375,0.0,0,0
1771939414.004574,1771939413.9490638,-130.859375,52.734375,-50.78125,-1000.0,0.0,0,0
1771939414.004622,1771939413.952959,-242.67578125,-893.5546875,-137.6953125,-663.57421875,0.0,0,0
1771939414.00469,1771939413.9568543,-723.14453125,843.75,-218.75,706.54296875,0.0,0,0
1771939414.004735,1771939413.9607496,-700.68359375,-914.0625,-162.109375,-833.49609375,0.0,0,0
1771939414.004779,1771939413.964645,-439.94140625,512.20703125,-64.453125,195.80078125,0.0,0,0
1771939414.0048819,1771939413.9685402,-491.69921875,-928.22265625,-70.3125,-1000.0,0.0,0,0
1771939414.00495,1771939413.9724355,-425.29296875,-1000.0,-114.74609375,-1000.0,0.0,0,0
1771939414.005043,1771939413.9763308,-747.0703125,-70.80078125,-216.30859375,148.92578125,0.0,0,0
1771939414.005256,1771939413.980226,-750.0,-266.6015625,-210.44921875,-703.61328125,0.0,0,0
1771939414.0487092,1771939413.9842312,-545.8984375,-1000.0,-93.26171875,200.68359375,0.0,0,0
1771939414.048824,1771939413.9881268,75.68359375,-233.88671875,-40.52734375,-525.87890625,0.0,0,0
1771939414.048857,1771939413.992022,102.05078125,-834.47265625,-101.5625,342.28515625,0.0,0,0
1771939414.048886,1771939413.9959173,-985.3515625,242.1875,-240.72265625,-554.6875,0.0,0,0
1771939414.048914,1771939413.9998126,-699.70703125,-1000.0,-211.9140625,245.60546875,0.0,0,0
1771939414.0489411,1771939414.003708,109.86328125,-337.40234375,-60.546875,-718.26171875,0.0,0,0
1771939414.048969,1771939414.0076032,184.08203125,957.03125,-43.9453125,75.68359375,0.0,0,0
1771939414.0489962,1771939414.0114985,-419.43359375,-986.328125,-119.140625,-1000.0,0.0,0,0
1771939414.049024,1771939414.015394,-788.57421875,807.6171875,-231.4453125,-225.09765625,0.0,0,0
1771939414.049052,1771939414.0192893,-773.92578125,-438.96484375,-216.796875,-864.74609375,0.0,0,0
1771939414.049079,1771939414.0231845,-403.3203125,-1000.0,-73.73046875,823.73046875,0.0,0,0
1771939414.049105,1771939414.0270798,82.51953125,-495.1171875,-10.7421875,-525.390625,0.0,0,0
1771939414.094232,1771939414.0310721,240.72265625,-949.70703125,-48.828125,72.265625,0.0,0,0
1771939414.094283,1771939414.0349674,-819.3359375,320.80078125,-211.42578125,-345.703125,0.0,0,0
1771939414.094302,1771939414.0388627,-789.0625,-1000.0,-246.58203125,-271.97265625,0.0,0,0
1771939414.094319,1771939414.0427582,-151.85546875,-1000.0,-137.20703125,-741.2109375,0.0,0,0
1771939414.094337,1771939414.0466535,44.921875,-549.8046875,-32.2265625,-369.62890625,0.0,0,0
1771939414.094354,1771939414.0505488,327.63671875,901.85546875,-29.78515625,-47.36328125,0.0,0,0
1771939414.094372,1771939414.054444,-554.19921875,966.796875,-189.453125,217.7734375,0.0,0,0
1771939414.09439,1771939414.0583396,-808.59375,-439.453125,-232.91015625,-519.04296875,0.0,0,0
1771939414.0944462,1771939414.0622349,-84.9609375,-1000.0,-152.83203125,-869.140625,0.0,0,0
1771939414.094466,1771939414.0661302,-43.45703125,-1000.0,-65.91796875,-148.4375,0.0,0,0
1771939414.094483,1771939414.0700254,319.3359375,279.78515625,-39.0625,-154.296875,0.0,0,0
1771939414.0945,1771939414.0739207,-397.94921875,731.93359375,-204.58984375,146.484375,0.0,0,0
1771939414.151999,1771939414.0779037,-860.83984375,-874.0234375,-254.8828125,-396.97265625,0.0,0,0
1771939414.152072,1771939414.081799,-180.17578125,-1000.0,-120.60546875,-778.80859375,0.0,0,0
1771939414.152094,1771939414.0856943,-103.515625,-1000.0,-28.80859375,-37.59765625,0.0,0,0
1771939414.1521122,1771939414.0895898,384.765625,167.96875,-23.92578125,-177.734375,0.0,0,0
1771939414.1521301,1771939414.093485,-241.2109375,-900.390625,-145.5078125,128.90625,0.0,0,0
1771939414.152148,1771939414.0973804,-946.77734375,-391.6015625,-210.44921875,-412.59765625,0.0,0,0
1771939414.152166,1771939414.101276,-317.87109375,-1000.0,-153.80859375,-883.7890625,0.0,0,0
1771939414.152182,1771939414.1051712,-86.42578125,-1000.0,-61.03515625,276.85546875,0.0,0,0
1771939414.1522,1771939414.1090665,31.73828125,-69.82421875,-48.33984375,-1000.0,0.0,0,0
1771939414.1522171,1771939414.1129618,-132.32421875,-782.71484375,-131.8359375,-819.3359375,0.0,0,0
1771939414.152235,1771939414.1168573,-602.5390625,365.72265625,-238.28125,716.30859375,0.0,0,0
1771939414.152252,1771939414.1207526,-1000.0,-1000.0,-213.8671875,-110.83984375,0.0,0,0
1771939414.198677,1771939414.124722,181.15234375,-368.1640625,-28.80859375,-141.6015625,0.0,0,0
1771939414.19874,1771939414.1286173,515.625,945.80078125,-19.04296875,319.82421875,0.0,0,0
1771939414.198761,1771939414.1325126,-500.48828125,-909.66796875,-120.1171875,-1000.0,0.0,0,0
1771939414.1987798,1771939414.136408,-771.484375,483.3984375,-221.6796875,-13.18359375,0.0,0,0
1771939414.1987991,1771939414.1403034,-692.87109375,-855.46875,-212.890625,-748.046875,0.0,0,0
1771939414.198817,1771939414.1441987,-271.97265625,-1000.0,-80.56640625,355.46875,0.0,0,0
1771939414.198835,1771939414.1480942,-43.9453125,-133.7890625,-66.89453125,-934.08203125,0.0,0,0
1771939414.198925,1771939414.1519895,-193.84765625,-860.83984375,-139.6484375,-1000.0,0.0,0,0
1771939414.1989582,1771939414.1558847,-819.3359375,644.04296875,-262.6953125,-143.5546875,0.0,0,0
1771939414.198978,1771939414.1597803,-782.2265625,-706.0546875,-277.34375,-809.08203125,0.0,0,0
1771939414.198996,1771939414.1636755,-488.76953125,-1000.0,-148.92578125,531.25,0.0,0,0
1771939414.199014,1771939414.1675708,-85.44921875,-423.33984375,-91.796875,-1000.0,0.0,0,0
1771939414.2590752,1771939414.1716974,281.25,-916.015625,-106.4453125,285.15625,0.0,0,0
1771939414.25911,1771939414.175593,-685.05859375,375.48828125,-258.7890625,282.2265625,0.0,0,0
1771939414.259122,1771939414.1794882,-713.37890625,-968.26171875,-270.01953125,-437.98828125,0.0,0,0
1771939414.259132,1771939414.1833837,-61.5234375,-1000.0,-106.4453125,869.62890625,0.0,0,0
1771939414.2591429,1771939414.187279,-67.3828125,-577.63671875,-50.29296875,-538.0859375,0.0,0,0
1771939414.259153,1771939414.1911743,181.15234375,-986.81640625,-63.4765625,41.015625,0.0,0,0
1771939414.259163,1771939414.1950698,-699.70703125,266.6015625,-252.9296875,-34.1796875,0.0,0,0
1771939414.2591732,1771939414.198965,-741.69921875,-1000.0,-280.76171875,-356.4453125,0.0,0,0
1771939414.2591832,1771939414.2028606,-104.98046875,-1000.0,-131.34765625,-828.61328125,0.0,0,0
1771939414.2591932,1771939414.2067559,-40.52734375,-719.7265625,-70.3125,-454.1015625,0.0,0,0
1771939414.259203,1771939414.2106514,359.375,889.6484375,-83.0078125,-112.3046875,0.0,0,0
1771939414.259213,1771939414.2145467,-455.078125,544.921875,-240.72265625,197.265625,0.0,0,0
1771939414.2883048,1771939414.2185862,-769.04296875,-939.453125,-265.625,-376.46484375,0.0,0,0
1771939414.288339,1771939414.2224815,-93.26171875,-1000.0,-146.97265625,-886.23046875,0.0,0,0
1771939414.288351,1771939414.226377,58.59375,-747.0703125,-77.63671875,65.4296875,0.0,0,0
1771939414.288362,1771939414.2302723,36.1328125,539.0625,-71.77734375,-1000.0,0.0,0,0
1771939414.288372,1771939414.2341678,-380.859375,-798.828125,-203.125,-393.5546875,0.0,0,0
1771939414.288383,1771939414.2380633,-816.89453125,182.6171875,-276.3671875,728.02734375,0.0,0,0
1771939414.288436,1771939414.2419586,-622.55859375,-984.375,-181.15234375,873.53515625,0.0,0,0
1771939414.288448,1771939414.2458541,-86.9140625,-1000.0,-83.0078125,-108.3984375,0.0,0,0
1771939414.2884579,1771939414.2497494,256.34765625,-0.48828125,-78.61328125,-398.92578125,0.0,0,0
1771939414.288469,1771939414.253645,-184.08203125,-953.61328125,-187.5,442.87109375,0.0,0,0
1771939414.288498,1771939414.2575402,-1000.0,-416.015625,-275.87890625,-616.2109375,0.0,0,0
1771939414.288509,1771939414.2614357,-309.08203125,-1000.0,-187.01171875,546.875,0.0,0,0
1771939414.334604,1771939414.2654612,72.265625,-1000.0,-68.359375,393.5546875,0.0,0,0
1771939414.334641,1771939414.2693567,-12.20703125,-104.00390625,-78.61328125,-1000.0,0.0,0,0
1771939414.334653,1771939414.2732522,-252.9296875,-792.48046875,-185.546875,-906.73828125,0.0,0,0
1771939414.3346639,1771939414.2771475,-782.2265625,518.06640625,-279.296875,284.1796875,0.0,0,0
1771939414.3346748,1771939414.281043,-720.703125,-1000.0,-219.23828125,950.1953125,0.0,0,0
1771939414.3346848,1771939414.2849386,218.75,-281.25,-51.7578125,590.8203125,0.0,0,0
1771939414.3346949,1771939414.2888339,213.37890625,-991.2109375,-43.45703125,-620.60546875,0.0,0,0
1771939414.3347049,1771939414.2927294,-386.71875,-919.921875,-151.3671875,-1000.0,0.0,0,0
1771939414.334715,1771939414.296625,-785.64453125,317.87109375,-265.13671875,44.921875,0.0,0,0
1771939414.3347251,1771939414.3005202,-699.21875,-937.01171875,-220.21484375,-708.0078125,0.0,0,0
1771939414.3347352,1771939414.3044157,-388.671875,-1000.0,-90.8203125,62.5,0.0,0,0
1771939414.3347452,1771939414.308311,189.453125,-262.20703125,-55.17578125,-607.421875,0.0,0,0
1771939414.3807008,1771939414.3123271,118.1640625,-854.98046875,-116.2109375,198.73046875,0.0,0,0
1771939414.3807411,1771939414.3162227,-1000.0,54.6875,-259.765625,-760.25390625,0.0,0,0
1771939414.380801,1771939414.3201182,-574.70703125,-1000.0,-233.3984375,491.69921875,0.0,0,0
1771939414.380815,1771939414.3240135,-221.6796875,-1000.0,-109.86328125,716.796875,0.0,0,0
1771939414.380828,1771939414.327909,-21.484375,-306.640625,-58.10546875,-1000.0,0.0,0,0
1771939414.3808398,1771939414.3318045,273.4375,-838.8671875,-84.9609375,265.625,0.0,0,0
1771939414.380852,1771939414.3357,-743.1640625,205.078125,-224.12109375,-67.3828125,0.0,0,0
1771939414.380865,1771939414.3395953,-652.34375,-1000.0,-229.98046875,-234.375,0.0,0,0
1771939414.380877,1771939414.3434908,-169.921875,-1000.0,-111.81640625,745.60546875,0.0,0,0
1771939414.3808892,1771939414.3473864,65.4296875,-420.41015625,-26.3671875,-583.49609375,0.0,0,0
1771939414.380901,1771939414.351282,219.7265625,-891.11328125,-64.94140625,-43.9453125,0.0,0,0
1771939414.380914,1771939414.3551772,-924.8046875,236.81640625,-242.67578125,-710.44921875,0.0,0,0
1771939414.4241579,1771939414.359185,-777.34375,-1000.0,-253.90625,-200.68359375,0.0,0,0
1771939414.4241788,1771939414.3630805,-261.23046875,-1000.0,-141.11328125,-878.90625,0.0,0,0
1771939414.424194,1771939414.366976,-3.90625,-392.08984375,-44.43359375,-318.359375,0.0,0,0
1771939414.4242098,1771939414.3708713,-28.80859375,887.6953125,-60.546875,-1000.0,0.0,0,0
1771939414.424224,1771939414.3747668,-640.13671875,-883.30078125,-221.6796875,-211.42578125,0.0,0,0
1771939414.42424,1771939414.3786623,-962.890625,178.7109375,-262.6953125,736.81640625,0.0,0,0
1771939414.424257,1771939414.3825579,-653.80859375,-1000.0,-155.2734375,730.46875,0.0,0,0
1771939414.4242718,1771939414.3864534,-127.9296875,-1000.0,-43.9453125,-216.30859375,0.0,0,0
1771939414.424287,1771939414.3903487,145.99609375,419.921875,-30.76171875,-112.3046875,0.0,0,0
1771939414.424302,1771939414.3942442,-463.8671875,742.67578125,-192.87109375,207.03125,0.0,0,0
1771939414.424317,1771939414.3981397,-876.46484375,-814.94140625,-241.2109375,-525.390625,0.0,0,0
1771939414.424333,1771939414.4020352,-265.625,-1000.0,-127.44140625,-974.12109375,0.0,0,0
1771939414.468199,1771939414.4060295,-25.87890625,-696.2890625,-35.15625,241.2109375,0.0,0,0
1771939414.468253,1771939414.409925,-0.9765625,597.16796875,-41.50390625,-1000.0,0.0,0,0
1771939414.4682748,1771939414.4138205,-456.0546875,-815.4296875,-158.69140625,-600.5859375,0.0,0,0
1771939414.468294,1771939414.417716,-823.73046875,157.71484375,-230.95703125,731.93359375,0.0,0,0
1771939414.468313,1771939414.4216115,-713.8671875,-1000.0,-181.640625,-873.53515625,0.0,0,0
1771939414.46833,1771939414.425507,-208.49609375,-1000.0,-40.0390625,162.59765625,0.0,0,0
1771939414.4683478,1771939414.4294026,-56.15234375,244.140625,-23.92578125,-1000.0,0.0,0,0
1771939414.468365,1771939414.433298,-446.77734375,-768.5546875,-143.06640625,-964.35546875,0.0,0,0
1771939414.468382,1771939414.4371934,-906.73828125,123.046875,-242.67578125,284.66796875,0.0,0,0
1771939414.4684002,1771939414.441089,-671.38671875,-1000.0,-178.7109375,-750.0,0.0,0,0
1771939414.468423,1771939414.4449844,-246.58203125,-1000.0,-27.83203125,84.9609375,0.0,0,0
1771939414.468441,1771939414.44888,82.03125,-238.76953125,-26.3671875,-796.38671875,0.0,0,0
1771939414.516119,1771939414.4528646,-267.578125,-835.9375,-123.53515625,-678.22265625,0.0,0,0
1771939414.516171,1771939414.4567602,-1000.0,102.5390625,-235.3515625,-265.13671875,0.0,0,0
1771939414.516192,1771939414.4606557,-617.67578125,-1000.0,-206.0546875,-874.51171875,0.0,0,0
1771939414.516209,1771939414.4645512,-229.98046875,-1000.0,-51.7578125,336.9140625,0.0,0,0
1771939414.516227,1771939414.4684467,-31.73828125,-77.1484375,-30.76171875,-1000.0,0.0,0,0
1771939414.516246,1771939414.4723423,-196.77734375,-860.83984375,-94.23828125,-1000.0,0.0,0,0
1771939414.516263,1771939414.4762378,-708.49609375,750.48828125,-211.9140625,277.34375,0.0,0,0
1771939414.5162811,1771939414.4801333,-1000.0,-735.83984375,-222.65625,62.01171875,0.0,0,0
1771939414.516298,1771939414.4840286,-128.90625,-982.91015625,-46.875,-192.3828125,0.0,0,0
1771939414.516315,1771939414.487924,520.99609375,465.33203125,-11.23046875,392.08984375,0.0,0,0
1771939414.5163321,1771939414.4918196,-420.41015625,-845.703125,-101.07421875,-1000.0,0.0,0,0
1771939414.5163488,1771939414.4957151,-756.8359375,629.39453125,-216.796875,-299.31640625,0.0,0,0
1771939414.573567,1771939414.4996896,-700.1953125,-644.53125,-228.515625,-778.3203125,0.0,0,0
1771939414.573617,1771939414.5035849,-430.17578125,-1000.0,-103.515625,576.66015625,0.0,0,0
1771939414.573645,1771939414.5074804,82.51953125,-463.8671875,-32.71484375,-730.95703125,0.0,0,0
1771939414.5736692,1771939414.511376,341.30859375,-937.98828125,-69.82421875,125.0,0.0,0,0
1771939414.573693,1771939414.5152714,-832.51953125,226.07421875,-224.609375,-515.13671875,0.0,0,0
1771939414.573718,1771939414.519167,-718.26171875,-1000.0,-226.5625,-182.12890625,0.0,0,0
1771939414.573741,1771939414.5230625,-139.16015625,-1000.0,-128.90625,-948.2421875,0.0,0,0
1771939414.573765,1771939414.526958,79.58984375,-212.890625,-88.37890625,-455.56640625,0.0,0,0
1771939414.573788,1771939414.5308535,100.5859375,-996.09375,-117.1875,-1000.0,0.0,0,0
1771939414.573811,1771939414.534749,-441.89453125,-963.8671875,-241.69921875,-238.28125,0.0,0,0
1771939414.573835,1771939414.5386446,-724.12109375,-130.859375,-278.80859375,980.46875,0.0,0,0
1771939414.573859,1771939414.54254,-418.9453125,-1000.0,-168.9453125,-893.06640625,0.0,0,0
1771939414.6195252,1771939414.5465896,54.6875,-1000.0,-57.12890625,-353.02734375,0.0,0,0
1771939414.619589,1771939414.5504851,453.61328125,366.2109375,-58.59375,-97.65625,0.0,0,0
1771939414.619627,1771939414.5543807,-337.40234375,598.14453125,-218.26171875,151.85546875,0.0,0,0
1771939414.619665,1771939414.5582762,-821.2890625,-931.15234375,-267.08984375,-419.43359375,0.0,0,0
1771939414.6197052,1771939414.5621717,-90.33203125,-1000.0,-151.3671875,-865.72265625,0.0,0,0
1771939414.619741,1771939414.5660672,187.98828125,-466.30859375,-49.8046875,229.00390625,0.0,0,0
1771939414.6197782,1771939414.5699627,115.234375,829.58984375,-69.3359375,-1000.0,0.0,0,0
1771939414.619814,1771939414.5738583,-307.6171875,-859.86328125,-197.75390625,-591.30859375,0.0,0,0
1771939414.619851,1771939414.5777538,-698.2421875,154.296875,-254.39453125,737.79296875,0.0,0,0
1771939414.619887,1771939414.5816495,-568.84765625,-1000.0,-183.59375,-800.78125,0.0,0,0
1771939414.619925,1771939414.585545,-104.4921875,-1000.0,-77.63671875,-88.8671875,0.0,0,0
1771939414.619959,1771939414.5894406,386.71875,116.69921875,-49.31640625,-150.87890625,0.0,0,0
1771939414.665931,1771939414.5934775,-205.56640625,-963.8671875,-166.9921875,138.671875,0.0,0,0
1771939414.665998,1771939414.597373,-982.91015625,-471.6796875,-270.99609375,-562.98828125,0.0,0,0
1771939414.6660259,1771939414.6012685,-223.14453125,-1000.0,-188.4765625,-887.20703125,0.0,0,0
1771939414.666052,1771939414.605164,-112.3046875,-1000.0,-84.47265625,149.4140625,0.0,0,0
1771939414.666076,1771939414.6090596,195.80078125,-77.1484375,-66.40625,-775.87890625,0.0,0,0
1771939414.6661,1771939414.612955,88.8671875,-776.3671875,-143.5546875,679.6875,0.0,0,0
1771939414.666123,1771939414.6168509,-986.328125,143.06640625,-282.2265625,-474.609375,0.0,0,0
1771939414.6661491,1771939414.6207464,-521.97265625,-1000.0,-262.20703125,-26.85546875,0.0,0,0
1771939414.6661718,1771939414.624642,-138.18359375,-1000.0,-112.3046875,312.01171875,0.0,0,0
1771939414.666195,1771939414.6285374,201.171875,-240.234375,-62.98828125,-553.7109375,0.0,0,0
1771939414.666219,1771939414.632433,180.17578125,-846.19140625,-147.4609375,363.28125,0.0,0,0
1771939414.6662421,1771939414.6363285,-1000.0,2.9296875,-282.2265625,-722.16796875,0.0,0,0
1771939414.708886,1771939414.6403537,-526.3671875,-1000.0,-229.00390625,466.796875,0.0,0,0
1771939414.708946,1771939414.6442492,-185.05859375,-1000.0,-103.02734375,509.765625,0.0,0,0
1771939414.708967,1771939414.6481447,145.01953125,-268.06640625,-74.21875,-780.76171875,0.0,0,0
1771939414.708985,1771939414.6520402,216.30859375,-825.1953125,-121.58203125,300.78125,0.0,0,0
1771939414.709003,1771939414.655936,-983.88671875,162.109375,-263.671875,-686.03515625,0.0,0,0
1771939414.709075,1771939414.6598315,-604.00390625,-1000.0,-229.00390625,81.54296875,0.0,0,0
1771939414.7090938,1771939414.663727,-257.32421875,-1000.0,-128.90625,736.81640625,0.0,0,0
1771939414.7091122,1771939414.6676226,-40.52734375,-434.08203125,-98.14453125,-890.625,0.0,0,0
1771939414.7091289,1771939414.6715183,396.97265625,-898.4375,-103.02734375,198.73046875,0.0,0,0
1771939414.709146,1771939414.6754138,-765.13671875,200.1953125,-255.37109375,-372.0703125,0.0,0,0
1771939414.7091641,1771939414.6793094,-722.16796875,-1000.0,-270.5078125,-306.640625,0.0,0,0
1771939414.7091808,1771939414.6832051,12.20703125,-1000.0,-144.53125,-873.53515625,0.0,0,0
1771939414.75552,1771939414.6872184,189.94140625,-403.80859375,-66.40625,-276.3671875,0.0,0,0
1771939414.75555,1771939414.691114,126.953125,889.6484375,-95.703125,-1000.0,0.0,0,0
1771939414.755571,1771939414.6950095,-480.46875,-886.71875,-254.8828125,-234.86328125,0.0,0,0
1771939414.755591,1771939414.6989052,-737.3046875,158.69140625,-265.13671875,-953.61328125,0.0,0,0
1771939414.7556129,1771939414.7028008,-513.18359375,-1000.0,-172.8515625,969.7265625,0.0,0,0
1771939414.7556329,1771939414.7066963,37.109375,-429.19921875,-82.51953125,-606.93359375,0.0,0,0
1771939414.7556531,1771939414.710592,479.4921875,-874.0234375,-58.10546875,-39.0625,0.0,0,0
1771939414.755672,1771939414.7144876,-465.8203125,527.83203125,-248.046875,159.66796875,0.0,0,0
1771939414.7556942,1771939414.718383,-844.7265625,-928.22265625,-311.03515625,-522.4609375,0.0,0,0
1771939414.755714,1771939414.7222788,9.765625,-1000.0,-168.9453125,-830.56640625,0.0,0,0
1771939414.755733,1771939414.7261744,107.421875,-1000.0,-63.96484375,-61.03515625,0.0,0,0
1771939414.7557518,1771939414.7300699,458.984375,200.68359375,-65.91796875,-131.8359375,0.0,0,0
1771939414.801545,1771939414.7340734,-265.13671875,952.63671875,-208.0078125,117.1875,0.0,0,0
1771939414.8016052,1771939414.737969,-892.08984375,-593.26171875,-274.4140625,-469.7265625,0.0,0,0
1771939414.8016331,1771939414.7418647,-141.11328125,-1000.0,-175.29296875,-885.25390625,0.0,0,0
1771939414.8016572,1771939414.7457602,104.00390625,-935.546875,-73.2421875,284.66796875,0.0,0,0
1771939414.801682,1771939414.749656,175.29296875,212.890625,-78.125,-1000.0,0.0,0,0
1771939414.801739,1771939414.7535515,5.37109375,-822.75390625,-168.45703125,-488.28125,0.0,0,0
1771939414.801791,1771939414.7574472,-589.35546875,728.515625,-255.37109375,993.65234375,0.0,0,0
1771939414.8018198,1771939414.7613428,-903.3203125,-833.984375,-216.30859375,-151.85546875,0.0,0,0
1771939414.801852,1771939414.7652383,440.91796875,-303.7109375,-52.24609375,149.90234375,0.0,0,0
1771939414.8018801,1771939414.769134,518.5546875,-964.35546875,-39.0625,156.73828125,0.0,0,0
1771939414.801905,1771939414.7730296,-355.95703125,-922.8515625,-138.18359375,-1000.0,0.0,0,0
1771939414.80193,1771939414.7769253,-686.03515625,240.72265625,-244.62890625,145.01953125,0.0,0,0
1771939414.860069,1771939414.7810063,-601.07421875,-973.14453125,-216.796875,-800.29296875,0.0,0,0
1771939414.8601642,1771939414.7849019,-173.828125,-1000.0,-87.890625,23.92578125,0.0,0,0
1771939414.860199,1771939414.7887976,448.73046875,-248.53515625,-49.8046875,-233.3984375,0.0,0,0
1771939414.860229,1771939414.7926931,158.203125,-831.54296875,-112.79296875,217.7734375,0.0,0,0
1771939414.860257,1771939414.796589,-1000.0,163.0859375,-241.69921875,-950.1953125,0.0,0,0
1771939414.860285,1771939414.8004847,-398.4375,-1000.0,-203.125,548.33984375,0.0,0,0
1771939414.860312,1771939414.8043802,37.109375,-1000.0,-66.89453125,648.4375,0.0,0,0
1771939414.860339,1771939414.808276,141.6015625,-192.87109375,-45.8984375,-939.453125,0.0,0,0
1771939414.860378,1771939414.8121715,62.98828125,969.23828125,-108.3984375,-1000.0,0.0,0,0
1771939414.860412,1771939414.8160672,-510.7421875,-875.9765625,-220.703125,113.28125,0.0,0,0
1771939414.8604422,1771939414.8199627,-1000.0,-47.36328125,-243.65234375,91.30859375,0.0,0,0
1771939414.860471,1771939414.8238585,-121.09375,-1000.0,-104.4921875,-193.84765625,0.0,0,0
1771939414.90414,1771939414.8278527,667.48046875,497.55859375,-22.4609375,444.82421875,0.0,0,0
1771939414.9042828,1771939414.8317485,-218.26171875,-939.453125,-69.82421875,-1000.0,0.0,0,0
1771939414.904427,1771939414.8356442,-419.921875,-982.421875,-185.546875,-52.24609375,0.0,0,0
1771939414.90449,1771939414.8395398,-886.71875,-76.171875,-225.5859375,126.46484375,0.0,0,0
1771939414.9045491,1771939414.8434355,-226.5625,-1000.0,-109.375,-154.78515625,0.0,0,0
1771939414.904607,1771939414.847331,674.31640625,153.80859375,-9.765625,614.2578125,0.0,0,0
1771939414.9046662,1771939414.8512268,-154.296875,-929.6875,-65.91796875,-1000.0,0.0,0,0
1771939414.9047291,1771939414.8551226,-523.4375,-998.53515625,-211.42578125,-394.04296875,0.0,0,0
1771939414.904789,1771939414.859018,-633.30078125,-2.9296875,-221.6796875,-996.58203125,0.0,0,0
1771939414.9048488,1771939414.8629138,-376.46484375,-1000.0,-105.95703125,-934.5703125,0.0,0,0
1771939414.904911,1771939414.8668094,211.9140625,-668.45703125,-20.99609375,-362.79296875,0.0,0,0
1771939414.90497,1771939414.8707051,630.859375,919.43359375,-38.57421875,-72.75390625,0.0,0,0
1771939414.950376,1771939414.8746936,-333.984375,643.5546875,-193.359375,209.47265625,0.0,0,0
1771939414.9505339,1771939414.8785894,-802.734375,-853.515625,-237.3046875,-517.578125,0.0,0,0
1771939414.9505951,1771939414.8824852,47.8515625,-1000.0,-140.625,-867.1875,0.0,0,0
1771939414.9507,1771939414.8863807,222.16796875,-799.31640625,-36.62109375,-61.03515625,0.0,0,0
1771939414.950766,1771939414.8902764,588.8671875,557.12890625,-17.578125,-109.375,0.0,0,0
1771939414.9508119,1771939414.8941722,-284.1796875,-879.39453125,-151.3671875,115.234375,0.0,0,0
1771939414.950856,1771939414.8980677,-874.51171875,-300.29296875,-224.12109375,-497.55859375,0.0,0,0
1771939414.9509,1771939414.9019635,-91.796875,-1000.0,-173.33984375,-807.12890625,0.0,0,0
1771939414.950942,1771939414.9058592,-12.20703125,-1000.0,-69.82421875,-22.94921875,0.0,0,0
1771939414.950984,1771939414.9097548,459.9609375,-63.4765625,-36.1328125,-194.82421875,0.0,0,0
1771939414.9510279,1771939414.9136505,-104.00390625,-919.921875,-150.87890625,230.95703125,0.0,0,0
1771939414.951073,1771939414.9175463,-958.49609375,-352.05078125,-231.93359375,-606.93359375,0.0,0,0
1771939414.99364,1771939414.9215877,-177.24609375,-1000.0,-156.73828125,-975.5859375,0.0,0,0
1771939414.99371,1771939414.9254835,41.9921875,-1000.0,-41.015625,291.015625,0.0,0,0
1771939414.993747,1771939414.9293792,218.75,-15.13671875,-13.18359375,-1000.0,0.0,0,0
1771939414.993783,1771939414.9332747,203.125,-767.578125,-103.02734375,483.88671875,0.0,0,0
1771939414.993819,1771939414.9371705,-793.9453125,299.31640625,-231.93359375,652.34375,0.0,0,0
1771939414.993856,1771939414.9410663,-575.68359375,-951.171875,-191.40625,8.30078125,0.0,0,0
1771939414.9938922,1771939414.944962,192.3828125,-1000.0,-74.21875,50.29296875,0.0,0,0
1771939414.993927,1771939414.9488575,384.27734375,-221.6796875,-53.7109375,-421.875,0.0,0,0
1771939414.993963,1771939414.9527533,126.953125,-858.3984375,-112.79296875,56.640625,0.0,0,0
1771939414.993999,1771939414.956649,-975.5859375,-42.96875,-229.98046875,-675.29296875,0.0,0,0
1771939414.994038,1771939414.9605448,-408.69140625,-1000.0,-196.2890625,650.87890625,0.0,0,0
1771939414.994074,1771939414.9644403,-68.84765625,-1000.0,-77.1484375,466.796875,0.0,0,0
1771939415.0386481,1771939414.9684708,258.7890625,-271.484375,-32.71484375,-755.859375,0.0,0,0
1771939415.038754,1771939414.9723666,344.23828125,-824.70703125,-92.7734375,298.828125,0.0,0,0
1771939415.0387928,1771939414.9762623,-916.50390625,170.8984375,-222.16796875,-668.45703125,0.0,0,0
1771939415.03883,1771939414.980158,-620.60546875,-1000.0,-228.02734375,80.078125,0.0,0,0
1771939415.038864,1771939414.9840536,-9.765625,-1000.0,-104.98046875,873.53515625,0.0,0,0
1771939415.038898,1771939414.9879494,149.90234375,-192.87109375,-28.3203125,-740.234375,0.0,0,0
1771939415.038933,1771939414.9918451,48.828125,966.796875,-82.51953125,-1000.0,0.0,0,0
1771939415.038965,1771939414.995741,-451.66015625,-892.578125,-214.35546875,73.73046875,0.0,0,0
1771939415.039231,1771939414.9996367,-992.67578125,186.03515625,-262.6953125,195.3125,0.0,0,0
1771939415.039268,1771939415.0035324,-309.5703125,-1000.0,-142.578125,-290.0390625,0.0,0,0
1771939415.0393012,1771939415.007428,689.94140625,61.03515625,-35.64453125,509.765625,0.0,0,0
1771939415.0393338,1771939415.0113237,-175.78125,-913.0859375,-87.890625,-1000.0,0.0,0,0
1771939415.085303,1771939415.0153453,-526.3671875,998.53515625,-194.3359375,-276.3671875,0.0,0,0
1771939415.085456,1771939415.019241,-757.8125,-32.2265625,-231.4453125,815.91796875,0.0,0,0
1771939415.085523,1771939415.0231369,-479.00390625,-1000.0,-149.90234375,686.5234375,0.0,0,0
1771939415.0855832,1771939415.0270326,239.74609375,-780.76171875,-48.33984375,-287.59765625,0.0,0,0
1771939415.085644,1771939415.0309284,566.40625,738.28125,-41.9921875,-20.5078125,0.0,0,0
1771939415.085703,1771939415.0348241,-397.94921875,836.42578125,-182.12890625,99.609375,0.0,0,0
1771939415.085763,1771939415.03872,-806.640625,-711.9140625,-228.02734375,-537.109375,0.0,0,0
1771939415.085831,1771939415.0426157,51.26953125,-1000.0,-133.30078125,-840.8203125,0.0,0,0
1771939415.085907,1771939415.0465114,163.57421875,-1000.0,-48.828125,-76.171875,0.0,0,0
1771939415.085963,1771939415.050407,532.2265625,179.19921875,-28.80859375,-131.34765625,0.0,0,0
1771939415.08603,1771939415.0543027,-287.59765625,962.40234375,-182.6171875,73.73046875,0.0,0,0
1771939415.086098,1771939415.0581985,-877.44140625,-598.14453125,-271.484375,-540.52734375,0.0,0,0
1771939415.159188,1771939415.0623713,-55.17578125,-1000.0,-154.296875,-831.54296875,0.0,0,0
1771939415.159323,1771939415.0662673,72.75390625,-1000.0,-53.7109375,-1.46484375,0.0,0,0
1771939415.159369,1771939415.070163,503.90625,127.9296875,-49.31640625,-148.4375,0.0,0,0
1771939415.159418,1771939415.0740588,-205.56640625,-926.26953125,-166.015625,117.1875,0.0,0,0
1771939415.159462,1771939415.0779545,-945.80078125,-384.27734375,-242.1875,-468.75,0.0,0,0
1771939415.159508,1771939415.0818503,-244.62890625,-1000.0,-161.62109375,-889.6484375,0.0,0,0
1771939415.15955,1771939415.085746,39.0625,-853.02734375,-34.1796875,255.859375,0.0,0,0
1771939415.159605,1771939415.0896418,179.6875,368.1640625,-24.90234375,-1000.0,0.0,0,0
1771939415.15965,1771939415.0935376,-162.59765625,-775.390625,-134.765625,-996.09375,0.0,0,0
1771939415.159722,1771939415.0974333,-777.83203125,231.93359375,-237.79296875,195.80078125,0.0,0,0
1771939415.159785,1771939415.101329,-613.28125,-957.51953125,-198.2421875,-702.63671875,0.0,0,0
1771939415.159848,1771939415.1052248,-186.03515625,-1000.0,-58.59375,-31.73828125,0.0,0,0
1771939415.189004,1771939415.109304,496.58203125,-234.375,-19.04296875,-211.42578125,0.0,0,0
1771939415.1891289,1771939415.1131997,132.8125,-845.21484375,-104.98046875,113.28125,0.0,0,0
1771939415.189194,1771939415.1170957,-1000.0,32.71484375,-225.09765625,-748.046875,0.0,0,0
1771939415.1892538,1771939415.1209915,-318.84765625,-1000.0,-186.5234375,962.890625,0.0,0,0
1771939415.1893198,1771939415.1248872,-73.2421875,-1000.0,-50.78125,349.609375,0.0,0,0
1771939415.1893802,1771939415.128783,386.23046875,-266.11328125,-3.90625,-430.17578125,0.0,0,0
1771939415.189439,1771939415.1326787,249.0234375,-826.171875,-89.84375,95.21484375,0.0,0,0
1771939415.189507,1771939415.1365747,-1000.0,170.8984375,-228.515625,-945.3125,0.0,0,0
1771939415.1895628,1771939415.1404705,-479.98046875,-1000.0,-204.58984375,466.796875,0.0,0,0
1771939415.1896389,1771939415.1443663,-24.4140625,-1000.0,-90.33203125,749.0234375,0.0,0,0
1771939415.189714,1771939415.148262,242.1875,-258.30078125,-29.296875,-816.89453125,0.0,0,0
1771939415.18979,1771939415.1521578,375.48828125,-828.61328125,-70.3125,-384.765625,0.0,0,0
1771939415.220172,1771939415.1561465,-764.6484375,213.37890625,-231.93359375,-812.01171875,0.0,0,0
1771939415.220337,1771939415.1600423,-652.83203125,-1000.0,-233.88671875,-55.17578125,0.0,0,0
1771939415.220406,1771939415.163938,-30.2734375,-1000.0,-111.81640625,958.49609375,0.0,0,0
1771939415.220466,1771939415.167834,205.56640625,-188.96484375,-44.43359375,-553.7109375,0.0,0,0
1771939415.2205272,1771939415.1717298,199.70703125,968.75,-82.51953125,-1000.0,0.0,0,0
1771939415.220584,1771939415.1756256,-340.33203125,-925.29296875,-206.0546875,-40.52734375,0.0,0,0
1771939415.220643,1771939415.1795216,-850.5859375,229.4921875,-225.5859375,633.30078125,0.0,0,0
1771939415.220702,1771939415.1834173,-750.9765625,-1000.0,-166.015625,-729.98046875,0.0,0,0
1771939415.220768,1771939415.187313,380.859375,-734.86328125,-65.91796875,-930.6640625,0.0,0,0
1771939415.220844,1771939415.1912088,619.140625,920.41015625,-51.26953125,219.23828125,0.0,0,0
1771939415.220911,1771939415.1951048,-659.1796875,580.56640625,-212.890625,-368.65234375,0.0,0,0
1771939415.2209961,1771939415.1990006,-765.625,-943.84765625,-247.55859375,-408.69140625,0.0,0,0
1771939415.278216,1771939415.2029817,2.44140625,-1000.0,-147.94921875,-738.76953125,0.0,0,0
1771939415.278356,1771939415.2068775,155.76171875,-1000.0,-47.8515625,-195.80078125,0.0,0,0
1771939415.278416,1771939415.2107732,540.0390625,329.1015625,-41.015625,-122.0703125,0.0,0,0
1771939415.278477,1771939415.2146692,-352.05078125,839.84375,-198.73046875,30.76171875,0.0,0,0
1771939415.2785358,1771939415.218565,-837.40234375,-700.1953125,-250.9765625,-409.66796875,0.0,0,0
1771939415.278595,1771939415.2224607,-142.578125,-1000.0,-141.6015625,-840.33203125,0.0,0,0
1771939415.2786539,1771939415.2263565,221.19140625,-478.02734375,-36.62109375,217.7734375,0.0,0,0
1771939415.2787142,1771939415.2302525,311.5234375,815.4296875,-54.6875,-1000.0,0.0,0,0
1771939415.278774,1771939415.2341483,-148.92578125,-852.5390625,-176.7578125,-705.56640625,0.0,0,0
1771939415.278833,1771939415.238044,-646.97265625,143.5546875,-243.65234375,614.74609375,0.0,0,0
1771939415.278891,1771939415.24194,-570.3125,-1000.0,-178.7109375,-778.80859375,0.0,0,0
1771939415.278958,1771939415.2458358,-71.77734375,-1000.0,-46.875,-84.47265625,0.0,0,0
1771939415.3234718,1771939415.2498035,526.3671875,-70.80078125,-22.4609375,-113.76953125,0.0,0,0
1771939415.3235898,1771939415.2536993,-94.7265625,-832.03125,-138.671875,138.18359375,0.0,0,0
1771939415.32364,1771939415.2575953,-1000.0,-115.72265625,-245.60546875,-687.01171875,0.0,0,0
1771939415.323678,1771939415.261491,-322.75390625,-1000.0,-195.3125,-947.265625,0.0,0,0
1771939415.323712,1771939415.2653868,-231.4453125,-1000.0,-56.640625,125.48828125,0.0,0,0
1771939415.323745,1771939415.2692828,278.3203125,-34.66796875,-11.71875,-418.9453125,0.0,0,0
1771939415.32378,1771939415.2731786,-1.953125,-772.94921875,-120.1171875,237.79296875,0.0,0,0
1771939415.3238132,1771939415.2770743,-1000.0,131.8359375,-260.25390625,-1000.0,0.0,0,0
1771939415.323854,1771939415.2809703,-474.12109375,-1000.0,-221.19140625,382.32421875,0.0,0,0
1771939415.323906,1771939415.284866,-178.22265625,-1000.0,-83.984375,472.65625,0.0,0,0
1771939415.3239412,1771939415.2887619,110.3515625,-255.859375,-45.8984375,-706.54296875,0.0,0,0
1771939415.323987,1771939415.2926579,158.203125,-829.58984375,-93.75,326.171875,0.0,0,0
1771939415.400102,1771939415.2968578,-1000.0,160.64453125,-229.00390625,-742.67578125,0.0,0,0
1771939415.400265,1771939415.3007538,-569.3359375,-1000.0,-209.9609375,80.078125,0.0,0,0
1771939415.400331,1771939415.3046498,-51.26953125,-1000.0,-67.3828125,770.99609375,0.0,0,0
1771939415.400393,1771939415.3085456,207.51953125,-279.296875,-27.83203125,-698.2421875,0.0,0,0
1771939415.400453,1771939415.3124416,273.92578125,-838.37890625,-81.54296875,158.69140625,0.0,0,0
1771939415.4005141,1771939415.3163373,-905.2734375,411.1328125,-215.33203125,-620.1171875,0.0,0,0
1771939415.400576,1771939415.3202333,-685.546875,-931.15234375,-227.05078125,-295.41015625,0.0,0,0
1771939415.400634,1771939415.324129,-0.9765625,-1000.0,-97.65625,983.3984375,0.0,0,0
1771939415.400693,1771939415.328025,229.4921875,-276.85546875,-23.92578125,-502.44140625,0.0,0,0
1771939415.4007628,1771939415.3319209,252.44140625,943.359375,-60.05859375,-1000.0,0.0,0,0
1771939415.400822,1771939415.3358169,-267.08984375,-852.5390625,-210.9375,44.921875,0.0,0,0
1771939415.4008791,1771939415.3397129,-920.41015625,-228.515625,-251.46484375,116.2109375,0.0,0,0
1771939415.4148648,1771939415.3437474,-148.92578125,-656.73828125,-92.7734375,-125.0,0.0,0,0
1771939415.4149911,1771939415.3476434,731.4453125,927.24609375,-14.16015625,312.98828125,0.0,0,0
1771939415.4150999,1771939415.3515391,-3.41796875,977.05078125,-59.08203125,-1000.0,0.0,0,0
1771939415.4152,1771939415.3554351,-263.18359375,-984.375,-198.73046875,-314.453125,0.0,0,0
1771939415.415265,1771939415.3593311,-687.5,69.82421875,-248.53515625,709.47265625,0.0,0,0
1771939415.415327,1771939415.363227,-483.88671875,-1000.0,-137.20703125,700.68359375,0.0,0,0
1771939415.415385,1771939415.367123,447.265625,-463.8671875,-27.34375,111.81640625,0.0,0,0
1771939415.4154618,1771939415.371019,400.390625,877.44140625,-36.1328125,-1000.0,0.0,0,0
1771939415.415519,1771939415.3749146,-128.90625,-876.953125,-179.19921875,-428.7109375,0.0,0,0
1771939415.4155781,1771939415.3788106,-537.109375,42.48046875,-227.05078125,887.6953125,0.0,0,0
1771939415.415636,1771939415.3827066,-348.6328125,-1000.0,-135.7421875,-825.1953125,0.0,0,0
1771939415.415693,1771939415.3866024,241.2109375,-1000.0,-27.83203125,-108.88671875,0.0,0,0
1771939415.458882,1771939415.3906198,727.05078125,174.8046875,-8.7890625,-72.75390625,0.0,0,0
1771939415.458996,1771939415.3945158,-131.8359375,-990.72265625,-132.32421875,99.609375,0.0,0,0
1771939415.459041,1771939415.3984115,-833.49609375,-511.23046875,-206.54296875,-495.1171875,0.0,0,0
1771939415.4590862,1771939415.4023075,86.9140625,-1000.0,-117.67578125,-825.68359375,0.0,0,0
1771939415.4591339,1771939415.4062035,246.09375,-1000.0,-8.30078125,19.53125,0.0,0,0
1771939415.459178,1771939415.4100993,692.87109375,179.6875,11.71875,-116.69921875,0.0,0,0
1771939415.45922,1771939415.4139953,36.1328125,-824.21875,-105.46875,104.4921875,0.0,0,0
1771939415.459272,1771939415.4178913,-867.67578125,-252.44140625,-201.66015625,-586.9140625,0.0,0,0
1771939415.459334,1771939415.4217873,-53.22265625,-1000.0,-117.67578125,-847.16796875,0.0,0,0
1771939415.459384,1771939415.425683,47.36328125,-1000.0,3.90625,93.26171875,0.0,0,0
1771939415.4594429,1771939415.429579,496.58203125,-276.3671875,23.4375,-304.19921875,0.0,0,0
1771939415.4594939,1771939415.433475,363.28125,-821.77734375,-40.52734375,635.7421875,0.0,0,0
1771939415.504565,1771939415.4374807,-990.72265625,169.921875,-190.91796875,-958.0078125,0.0,0,0
1771939415.5046122,1771939415.4413764,-406.25,-1000.0,-170.8984375,210.9375,0.0,0,0
1771939415.50464,1771939415.4452724,114.2578125,-1000.0,-5.37109375,458.984375,0.0,0,0
1771939415.5046668,1771939415.4491684,501.46484375,-206.54296875,37.59765625,-251.953125,0.0,0,0
1771939415.5046961,1771939415.4530644,297.36328125,991.69921875,-47.36328125,121.09375,0.0,0,0
1771939415.504725,1771939415.4569602,-842.7734375,-943.84765625,-172.8515625,-275.87890625,0.0,0,0
1771939415.5047529,1771939415.4608562,-536.1328125,7.8125,-150.390625,-982.421875,0.0,0,0
1771939415.504781,1771939415.4647522,-126.46484375,-1000.0,-29.296875,567.3828125,0.0,0,0
1771939415.504808,1771939415.4686482,431.640625,-373.046875,23.4375,-548.33984375,0.0,0,0
1771939415.504837,1771939415.4725442,528.3203125,-863.28125,-26.85546875,307.6171875,0.0,0,0
1771939415.504864,1771939415.47644,-779.296875,166.50390625,-166.015625,-438.96484375,0.0,0,0
1771939415.504896,1771939415.480336,-626.46484375,-1000.0,-162.109375,178.22265625,0.0,0,0
1771939415.548479,1771939415.484332,-22.94921875,-1000.0,-55.6640625,980.95703125,0.0,0,0
1771939415.5485382,1771939415.4882278,290.0390625,-508.7890625,17.578125,-517.08984375,0.0,0,0
1771939415.548563,1771939415.4921238,521.97265625,-931.640625,-8.7890625,270.5078125,0.0,0,0
1771939415.548589,1771939415.4960198,-744.140625,245.1171875,-186.5234375,-362.79296875,0.0,0,0
1771939415.548613,1771939415.4999158,-710.9375,-1000.0,-182.12890625,-236.81640625,0.0,0,0
1771939415.548637,1771939415.5038118,55.17578125,-1000.0,-38.57421875,-830.078125,0.0,0,0
1771939415.54866,1771939415.5077078,288.0859375,-565.91796875,10.7421875,-335.9375,0.0,0,0
1771939415.548683,1771939415.5116038,556.15234375,-973.14453125,-10.25390625,44.43359375,0.0,0,0
1771939415.548707,1771939415.5154996,-575.1953125,490.72265625,-158.69140625,-244.140625,0.0,0,0
1771939415.5487309,1771939415.5193956,-774.4140625,-932.12890625,-189.453125,-350.09765625,0.0,0,0
1771939415.548754,1771939415.5232916,-50.29296875,-1000.0,-99.12109375,-782.71484375,0.0,0,0
1771939415.5487769,1771939415.5271876,302.734375,-681.640625,-4.8828125,-151.3671875,0.0,0,0
1771939415.5935621,1771939415.531174,683.10546875,896.97265625,-4.8828125,-134.765625,0.0,0,0
1771939415.593605,1771939415.53507,-470.703125,591.30859375,-183.59375,-345.703125,0.0,0,0
1771939415.593635,1771939415.538966,-833.49609375,-921.38671875,-229.4921875,-407.2265625,0.0,0,0
1771939415.593664,1771939415.542862,-43.9453125,-1000.0,-125.48828125,-726.5625,0.0,0,0
1771939415.5936918,1771939415.546758,186.03515625,-892.08984375,-8.7890625,-62.98828125,0.0,0,0
1771939415.5937228,1771939415.550654,678.7109375,367.1875,18.06640625,-66.40625,0.0,0,0
1771939415.593751,1771939415.55455,-127.44140625,-797.36328125,-120.60546875,128.41796875,0.0,0,0
1771939415.59378,1771939415.5584457,-955.56640625,-37.59765625,-229.4921875,-887.6953125,0.0,0,0
1771939415.593809,1771939415.5623417,-44.43359375,-1000.0,-151.3671875,874.0234375,0.0,0,0
1771939415.5938392,1771939415.5662377,242.67578125,-1000.0,-7.32421875,87.890625,0.0,0,0
1771939415.5938659,1771939415.5701337,673.828125,120.1171875,27.34375,-158.69140625,0.0,0,0
1771939415.593895,1771939415.5740297,4.39453125,-818.359375,-91.796875,110.3515625,0.0,0,0
1771939415.65294,1771939415.5780072,-911.62109375,-212.890625,-196.77734375,-559.08203125,0.0,0,0
1771939415.653099,1771939415.5819032,-147.4609375,-1000.0,-161.1328125,-847.65625,0.0,0,0
1771939415.653206,1771939415.5857992,28.80859375,-1000.0,-39.0625,62.98828125,0.0,0,0
1771939415.6532888,1771939415.5896952,608.88671875,-163.57421875,4.39453125,-246.58203125,0.0,0,0
1771939415.6533859,1771939415.5935912,206.54296875,-804.6875,-100.5859375,159.1796875,0.0,0,0
1771939415.653456,1771939415.5974872,-956.54296875,68.359375,-220.703125,-767.578125,0.0,0,0
1771939415.6535869,1771939415.6013832,-230.95703125,-1000.0,-201.66015625,938.4765625,0.0,0,0
1771939415.6536372,1771939415.6052792,64.94140625,-1000.0,-53.22265625,243.1640625,0.0,0,0
1771939415.653714,1771939415.6091752,550.29296875,-259.765625,27.83203125,-289.55078125,0.0,0,0
1771939415.65376,1771939415.6130712,310.546875,-826.66015625,-52.734375,286.62109375,0.0,0,0
1771939415.653803,1771939415.6169672,-1000.0,170.41015625,-204.58984375,-1000.0,0.0,0,0
1771939415.6538439,1771939415.6208632,-415.0390625,-1000.0,-200.1953125,393.5546875,0.0,0,0
1771939415.699063,1771939415.624911,34.1796875,-1000.0,-59.5703125,516.11328125,0.0,0,0
1771939415.6992152,1771939415.628807,457.03125,-259.27734375,13.18359375,-405.76171875,0.0,0,0
1771939415.699264,1771939415.632703,367.67578125,-828.125,-53.7109375,270.99609375,0.0,0,0
1771939415.699309,1771939415.636599,-1000.0,223.14453125,-230.46875,-1000.0,0.0,0,0
1771939415.699351,1771939415.640495,-599.12109375,-1000.0,-244.62890625,-141.6015625,0.0,0,0
1771939415.6993961,1771939415.6443913,138.18359375,-1000.0,-78.61328125,-946.77734375,0.0,0,0
1771939415.699439,1771939415.6482873,306.640625,-229.00390625,4.8828125,-433.10546875,0.0,0,0
1771939415.699501,1771939415.6521833,202.1484375,-955.56640625,-54.6875,-1000.0,0.0,0,0
1771939415.699553,1771939415.6560793,-343.26171875,940.4296875,-209.9609375,63.4765625,0.0,0,0
1771939415.699614,1771939415.6599753,-915.0390625,-373.53515625,-250.9765625,34.1796875,0.0,0,0
1771939415.699677,1771939415.6638713,-155.2734375,-1000.0,-90.33203125,-45.41015625,0.0,0,0
1771939415.699718,1771939415.6677673,730.46875,37.59765625,24.90234375,708.984375,0.0,0,0
1771939415.743787,1771939415.671804,-4.8828125,-966.30859375,-28.80859375,-1000.0,0.0,0,0
1771939415.743896,1771939415.6757,-361.81640625,-972.65625,-171.875,-100.09765625,0.0,0,0
1771939415.743946,1771939415.679596,-807.12890625,34.1796875,-216.796875,250.48828125,0.0,0,0
1771939415.74399,1771939415.683492,-437.5,-1000.0,-117.1875,-88.8671875,0.0,0,0
1771939415.744239,1771939415.687388,442.87109375,-806.640625,4.8828125,54.19921875,0.0,0,0
1771939415.744286,1771939415.691284,541.015625,656.25,10.25390625,16.6015625,0.0,0,0
1771939415.74433,1771939415.6951802,-480.95703125,998.53515625,-174.8046875,-210.9375,0.0,0,0
1771939415.744375,1771939415.6990762,-828.125,-486.328125,-254.39453125,-559.5703125,0.0,0,0
1771939415.7444181,1771939415.7029722,64.453125,-1000.0,-147.94921875,-803.22265625,0.0,0,0
1771939415.744461,1771939415.7068682,190.4296875,-1000.0,-9.27734375,-23.4375,0.0,0,0
1771939415.7445061,1771939415.7107642,557.6171875,206.0546875,18.06640625,-104.00390625,0.0,0,0
1771939415.744544,1771939415.7146602,-255.37109375,-954.1015625,-131.8359375,93.26171875,0.0,0,0
1771939415.7902138,1771939415.7186866,-909.66796875,-463.8671875,-219.23828125,-490.234375,0.0,0,0
1771939415.790355,1771939415.7225826,-163.0859375,-1000.0,-133.30078125,-827.63671875,0.0,0,0
1771939415.79042,1771939415.7264788,-5.859375,-994.62890625,-5.37109375,32.2265625,0.0,0,0
1771939415.7904809,1771939415.7303748,460.44921875,156.25,22.94921875,-128.90625,0.0,0,0
1771939415.79054,1771939415.7342708,-177.734375,-774.90234375,-115.234375,46.38671875,0.0,0,0
1771939415.79059,1771939415.7381668,-1000.0,-21.97265625,-210.44921875,-288.0859375,0.0,0,0
1771939415.7906408,1771939415.7420628,-494.140625,-1000.0,-141.6015625,-731.4453125,0.0,0,0
1771939415.790693,1771939415.745959,-167.48046875,-1000.0,-32.2265625,-34.1796875,0.0,0,0
1771939415.790735,1771939415.749855,509.765625,-252.9296875,17.08984375,-173.33984375,0.0,0,0
1771939415.7907782,1771939415.753751,118.65234375,-830.078125,-64.94140625,375.48828125,0.0,0,0
1771939415.790821,1771939415.757647,-1000.0,97.16796875,-215.33203125,-934.08203125,0.0,0,0
1771939415.790893,1771939415.7615433,-414.55078125,-1000.0,-167.96875,666.50390625,0.0,0,0
1771939415.847667,1771939415.765559,-75.1953125,-1000.0,-25.87890625,293.9453125,0.0,0,0
1771939415.8478029,1771939415.7694552,454.1015625,-258.30078125,9.765625,-213.8671875,0.0,0,0
1771939415.8478642,1771939415.7733512,138.18359375,-844.7265625,-60.546875,189.94140625,0.0,0,0
1771939415.847925,1771939415.7772472,-1000.0,198.73046875,-199.70703125,-854.00390625,0.0,0,0
1771939415.8479831,1771939415.7811432,-455.56640625,-1000.0,-186.03515625,655.2734375,0.0,0,0
1771939415.848045,1771939415.7850394,159.66796875,-688.96484375,-27.83203125,861.328125,0.0,0,0
1771939415.848104,1771939415.7889354,311.5234375,656.73828125,14.16015625,-729.98046875,0.0,0,0
1771939415.8481789,1771939415.7928314,131.34765625,-875.48828125,-45.8984375,-1000.0,0.0,0,0
1771939415.848254,1771939415.7967277,-468.75,649.90234375,-191.89453125,175.29296875,0.0,0,0
1771939415.848321,1771939415.8006237,-831.54296875,-624.0234375,-216.796875,149.4140625,0.0,0,0
1771939415.848379,1771939415.8045197,15.13671875,-1000.0,-44.921875,106.4453125,0.0,0,0
1771939415.848444,1771939415.808416,705.56640625,-408.203125,43.9453125,114.74609375,0.0,0,0
1771939415.878874,1771939415.8124232,471.19140625,-910.64453125,-7.32421875,92.7734375,0.0,0,0
1771939415.8790138,1771939415.8163192,-768.06640625,204.58984375,-204.1015625,-587.890625,0.0,0,0
1771939415.8790631,1771939415.8202155,-654.78515625,-1000.0,-218.26171875,-139.16015625,0.0,0,0
1771939415.8791099,1771939415.8241115,98.6328125,-1000.0,-72.265625,-909.66796875,0.0,0,0
1771939415.879152,1771939415.8280077,441.40625,-415.52734375,19.04296875,-318.84765625,0.0,0,0
1771939415.879196,1771939415.8319037,662.59765625,-969.23828125,13.671875,164.0625,0.0,0,0
1771939415.8792388,1771939415.8357997,-618.65234375,786.1328125,-166.015625,-312.98828125,0.0,0,0
1771939415.8792949,1771939415.839696,-803.7109375,-606.4453125,-225.5859375,-193.359375,0.0,0,0
1771939415.879355,1771939415.843592,-90.33203125,-1000.0,-128.41796875,-824.21875,0.0,0,0
1771939415.879425,1771939415.847488,250.48828125,-852.05078125,-7.32421875,-312.98828125,0.0,0,0
1771939415.879482,1771939415.8513842,579.58984375,676.26953125,10.25390625,-48.828125,0.0,0,0
1771939415.8795252,1771939415.8552802,-540.52734375,598.6328125,-183.10546875,-305.17578125,0.0,0,0
1771939415.924997,1771939415.8592763,-789.0625,-930.6640625,-254.39453125,-405.76171875,0.0,0,0
1771939415.925111,1771939415.8631723,-30.2734375,-1000.0,-139.16015625,-768.5546875,0.0,0,0
1771939415.9251719,1771939415.8670685,248.53515625,-789.0625,5.37109375,5.37109375,0.0,0,0
1771939415.9252312,1771939415.8709645,586.42578125,659.66796875,18.06640625,-108.88671875,0.0,0,0
1771939415.925292,1771939415.8748608,-414.55078125,951.66015625,-163.57421875,-319.82421875,0.0,0,0
1771939415.925354,1771939415.8787568,-875.9765625,-560.546875,-223.6328125,-353.02734375,0.0,0,0
1771939415.9254248,1771939415.882653,-139.6484375,-1000.0,-141.6015625,-718.75,0.0,0,0
1771939415.9254851,1771939415.886549,117.67578125,-1000.0,-18.5546875,-48.828125,0.0,0,0
1771939415.9255412,1771939415.890445,617.1875,116.69921875,3.41796875,-103.02734375,0.0,0,0
1771939415.925592,1771939415.8943412,-97.65625,-835.44921875,-135.25390625,113.28125,0.0,0,0
1771939415.925653,1771939415.8982372,-907.2265625,-256.34765625,-218.75,-566.40625,0.0,0,0
1771939415.925694,1771939415.9021335,-117.1875,-1000.0,-142.578125,-856.93359375,0.0,0,0
1771939415.999218,1771939415.9062777,57.12890625,-1000.0,3.90625,81.0546875,0.0,0,0
1771939415.999373,1771939415.910174,542.48046875,-68.359375,29.296875,-151.85546875,0.0,0,0
1771939415.999449,1771939415.91407,4.39453125,-780.2734375,-91.796875,146.484375,0.0,0,0
1771939415.999512,1771939415.9179661,-1000.0,144.53125,-227.5390625,-661.1328125,0.0,0,0
1771939415.9995708,1771939415.9218624,-360.83984375,-1000.0,-191.89453125,-962.890625,0.0,0,0
1771939415.99963,1771939415.9257584,-36.62109375,-1000.0,-15.13671875,225.09765625,0.0,0,0
1771939415.9996889,1771939415.9296546,492.1875,-3.41796875,35.15625,-170.8984375,0.0,0,0
1771939415.9997492,1771939415.9335506,77.1484375,-778.3203125,-76.171875,184.08203125,0.0,0,0
1771939415.999826,1771939415.9374468,-1000.0,114.2578125,-241.2109375,-968.26171875,0.0,0,0
1771939415.999886,1771939415.941343,-474.12109375,-1000.0,-216.796875,646.484375,0.0,0,0
1771939415.999955,1771939415.945239,-31.25,-1000.0,-35.64453125,606.4453125,0.0,0,0
1771939416.000011,1771939415.9491353,500.0,-257.8125,40.0390625,-154.296875,0.0,0,0
1771939416.014587,1771939415.953117,289.55078125,-828.61328125,-41.50390625,220.703125,0.0,0,0
1771939416.014709,1771939415.9570131,-1000.0,170.41015625,-217.7734375,-1000.0,0.0,0,0
1771939416.014776,1771939415.9609091,-563.4765625,-1000.0,-213.8671875,264.6484375,0.0,0,0
1771939416.014852,1771939415.9648054,-19.53125,-1000.0,-53.22265625,828.61328125,0.0,0,0
1771939416.0149162,1771939415.9687016,421.38671875,-264.6484375,31.73828125,-295.8984375,0.0,0,0
1771939416.014975,1771939415.9725976,471.6796875,-829.58984375,-18.06640625,327.63671875,0.0,0,0
1771939416.015025,1771939415.9764938,-881.8359375,270.99609375,-208.984375,-770.99609375,0.0,0,0
1771939416.015073,1771939415.98039,-674.31640625,-1000.0,-214.35546875,-143.06640625,0.0,0,0
1771939416.015119,1771939415.984286,-35.64453125,-1000.0,-69.3359375,979.98046875,0.0,0,0
1771939416.015179,1771939415.9881823,484.375,-258.7890625,23.92578125,-77.1484375,0.0,0,0
1771939416.0152252,1771939415.9920785,486.328125,-839.35546875,-9.765625,-42.96875,0.0,0,0
1771939416.015271,1771939415.9959745,-851.5625,417.96875,-187.98828125,-609.375,0.0,0,0
1771939416.073785,1771939415.9999409,-814.94140625,-912.59765625,-205.56640625,274.90234375,0.0,0,0
1771939416.073929,1771939416.0038369,-257.8125,-1000.0,-85.9375,-824.21875,0.0,0,0
1771939416.0739882,1771939416.007733,257.32421875,-542.96875,28.3203125,-150.87890625,0.0,0,0
1771939416.074053,1771939416.0116293,596.19140625,977.05078125,17.08984375,-62.01171875,0.0,0,0
1771939416.074126,1771939416.0155253,-599.12109375,717.7734375,-179.6875,-331.54296875,0.0,0,0
1771939416.074183,1771939416.0194216,-881.8359375,-750.0,-215.8203125,-50.78125,0.0,0,0
1771939416.07424,1771939416.0233178,-205.078125,-1000.0,-113.76953125,-735.3515625,0.0,0,0
1771939416.0742981,1771939416.0272138,77.1484375,-927.734375,-9.27734375,-171.875,0.0,0,0
1771939416.0745978,1771939416.03111,478.515625,508.7890625,17.08984375,-66.40625,0.0,0,0
1771939416.074662,1771939416.0350063,-420.8984375,829.1015625,-141.11328125,-98.14453125,0.0,0,0
1771939416.074722,1771939416.0389023,-900.390625,-745.60546875,-215.33203125,-412.59765625,0.0,0,0
1771939416.0748,1771939416.0427985,-210.44921875,-1000.0,-103.515625,-744.62890625,0.0,0,0
1771939416.118946,1771939416.0468342,-27.83203125,-975.5859375,20.01953125,-24.90234375,0.0,0,0
1771939416.119073,1771939416.0507305,439.453125,242.67578125,32.71484375,-95.21484375,0.0,0,0
1771939416.119123,1771939416.0546267,-274.90234375,-812.01171875,-97.65625,60.546875,0.0,0,0
1771939416.119169,1771939416.0585227,-939.94140625,-143.06640625,-215.8203125,-541.015625,0.0,0,0
1771939416.119213,1771939416.062419,-192.3828125,-1000.0,-153.80859375,960.44921875,0.0,0,0
1771939416.1192582,1771939416.0663152,492.1875,-160.15625,20.99609375,968.26171875,0.0,0,0
1771939416.119303,1771939416.0702114,339.35546875,976.07421875,19.53125,-586.9140625,0.0,0,0
1771939416.119346,1771939416.0741076,-129.8828125,-909.66796875,-98.14453125,-751.953125,0.0,0,0
1771939416.119392,1771939416.0780036,-621.09375,233.3984375,-218.26171875,212.40234375,0.0,0,0
1771939416.119435,1771939416.0819,-545.41015625,-976.07421875,-184.5703125,177.24609375,0.0,0,0
1771939416.119478,1771939416.085796,229.4921875,-1000.0,0.9765625,156.73828125,0.0,0,0
1771939416.119519,1771939416.0896924,594.23828125,-243.65234375,36.62109375,88.8671875,0.0,0,0
1771939416.164117,1771939416.0937176,109.375,-837.40234375,-58.10546875,47.8515625,0.0,0,0
1771939416.164244,1771939416.0976138,-1000.0,98.14453125,-210.44921875,-804.6875,0.0,0,0
1771939416.16429,1771939416.10151,-392.08984375,-1000.0,-180.17578125,841.796875,0.0,0,0
1771939416.164333,1771939416.1054063,-83.984375,-1000.0,-26.85546875,409.1796875,0.0,0,0
1771939416.164376,1771939416.1093025,440.91796875,-266.11328125,30.76171875,-297.36328125,0.0,0,0
1771939416.164429,1771939416.1131988,372.0703125,-826.66015625,-36.1328125,272.94921875,0.0,0,0
1771939416.164472,1771939416.1170948,-1000.0,250.9765625,-206.0546875,-902.34375,0.0,0,0
1771939416.164514,1771939416.120991,-562.98828125,-997.0703125,-221.19140625,441.40625,0.0,0,0
1771939416.1645749,1771939416.1248872,-32.2265625,-1000.0,-82.51953125,635.7421875,0.0,0,0
1771939416.16463,1771939416.1287835,391.6015625,-384.27734375,13.671875,-509.765625,0.0,0,0
1771939416.164674,1771939416.1326797,447.265625,-881.8359375,-27.34375,146.97265625,0.0,0,0
1771939416.164725,1771939416.136576,-915.52734375,189.453125,-220.703125,-919.921875,0.0,0,0
1771939416.222539,1771939416.1405914,-672.36328125,-1000.0,-236.328125,-62.01171875,0.0,0,0
1771939416.222672,1771939416.1444876,-67.3828125,-1000.0,-81.0546875,973.6328125,0.0,0,0
1771939416.222732,1771939416.1483839,402.34375,-380.859375,40.52734375,-143.06640625,0.0,0,0
1771939416.222792,1771939416.15228,440.4296875,-872.55859375,-3.90625,45.41015625,0.0,0,0
1771939416.2228491,1771939416.1561763,-880.37109375,356.4453125,-215.8203125,-863.28125,0.0,0,0
1771939416.222912,1771939416.1600726,-738.28125,-964.84375,-228.02734375,-170.8984375,0.0,0,0
1771939416.22297,1771939416.1639688,-161.1328125,-1000.0,-97.65625,-853.02734375,0.0,0,0
1771939416.223028,1771939416.167865,211.42578125,-529.78515625,-2.44140625,-172.36328125,0.0,0,0
1771939416.223086,1771939416.1717613,498.53515625,943.84765625,-10.25390625,-158.69140625,0.0,0,0
1771939416.2231529,1771939416.1756575,-616.69921875,860.83984375,-181.15234375,-273.4375,0.0,0,0
1771939416.223228,1771939416.1795535,-931.640625,-556.15234375,-233.3984375,215.33203125,0.0,0,0
1771939416.223296,1771939416.1834497,-300.78125,-1000.0,-120.1171875,-740.72265625,0.0,0,0
1771939416.2966442,1771939416.187454,155.2734375,-875.9765625,-5.859375,-146.97265625,0.0,0,0
1771939416.296801,1771939416.1913502,571.77734375,548.33984375,-0.9765625,-46.38671875,0.0,0,0
1771939416.296868,1771939416.1952465,-397.4609375,903.3203125,-165.52734375,-171.38671875,0.0,0,0
1771939416.29693,1771939416.1991427,-875.0,-601.5625,-236.81640625,-441.40625,0.0,0,0
1771939416.296988,1771939416.203039,-155.76171875,-1000.0,-132.8125,-745.1171875,0.0,0,0
1771939416.297046,1771939416.2069352,99.12109375,-706.54296875,15.625,-22.94921875,0.0,0,0
1771939416.2971048,1771939416.2108314,621.58203125,680.6640625,48.828125,-72.75390625,0.0,0,0
1771939416.297164,1771939416.2147276,-192.3828125,-919.921875,-120.60546875,89.84375,0.0,0,0
1771939416.2972229,1771939416.2186239,-919.921875,-333.984375,-232.91015625,-575.68359375,0.0,0,0
1771939416.29729,1771939416.22252,-95.21484375,-1000.0,-144.53125,-855.95703125,0.0,0,0
1771939416.297347,1771939416.2264163,62.01171875,-1000.0,10.25390625,27.34375,0.0,0,0
1771939416.2974029,1771939416.2303126,553.22265625,32.2265625,45.41015625,-152.83203125,0.0,0,0
1771939416.299927,1771939416.234312,-54.6875,-798.33984375,-83.49609375,119.140625,0.0,0,0
1771939416.300032,1771939416.2382083,-1000.0,-124.51171875,-210.44921875,-692.87109375,0.0,0,0
1771939416.300097,1771939416.2421048,-228.02734375,-1000.0,-152.83203125,-949.70703125,0.0,0,0
1771939416.300166,1771939416.246001,-7.8125,-1000.0,10.7421875,152.34375,0.0,0,0
1771939416.300224,1771939416.2498972,429.19921875,-253.90625,45.8984375,-167.48046875,0.0,0,0
1771939416.3002932,1771939416.2537935,206.0546875,-870.60546875,-41.015625,133.7890625,0.0,0,0
1771939416.300353,1771939416.2576897,-927.734375,683.10546875,-191.40625,-346.6796875,0.0,0,0
1771939416.300411,1771939416.261586,-609.86328125,-696.77734375,-187.01171875,-896.97265625,0.0,0,0
1771939416.3004842,1771939416.2654822,-116.69921875,-1000.0,-8.30078125,312.98828125,0.0,0,0
1771939416.3005571,1771939416.2693784,492.1875,-219.7265625,64.94140625,-229.00390625,0.0,0,0
1771939416.300624,1771939416.2732747,295.41015625,-836.9140625,-7.32421875,218.75,0.0,0,0
1771939416.3007,1771939416.277171,-1000.0,170.8984375,-187.01171875,-1000.0,0.0,0,0
1771939416.345149,1771939416.2811565,-496.09375,-1000.0,-172.36328125,146.484375,0.0,0,0
1771939416.34529,1771939416.2850528,-41.9921875,-1000.0,-13.18359375,539.55078125,0.0,0,0
1771939416.345354,1771939416.288949,404.296875,-263.671875,48.828125,-299.8046875,0.0,0,0
1771939416.345414,1771939416.2928452,381.34765625,-829.1015625,-6.34765625,77.63671875,0.0,0,0
1771939416.345474,1771939416.2967415,-986.328125,306.640625,-181.640625,-673.828125,0.0,0,0
1771939416.345533,1771939416.3006377,-616.2109375,-974.609375,-177.734375,618.65234375,0.0,0,0
1771939416.345592,1771939416.304534,-1.953125,-1000.0,-22.94921875,881.34765625,0.0,0,0
1771939416.345648,1771939416.3084302,408.203125,-389.6484375,62.5,-425.29296875,0.0,0,0
1771939416.345706,1771939416.3123267,526.3671875,-884.765625,18.06640625,14.16015625,0.0,0,0
1771939416.3457642,1771939416.316223,-797.36328125,251.46484375,-161.1328125,-748.53515625,0.0,0,0
1771939416.345834,1771939416.3201191,-667.48046875,-1000.0,-166.50390625,-188.4765625,0.0,0,0
1771939416.345891,1771939416.3240154,15.625,-1000.0,-50.78125,-915.52734375,0.0,0,0
1771939416.388722,1771939416.3279912,411.62109375,-403.3203125,49.31640625,-89.35546875,0.0,0,0
1771939416.388839,1771939416.3318877,461.42578125,877.44140625,29.296875,-341.30859375,0.0,0,0
1771939416.3888881,1771939416.335784,-515.13671875,-867.1875,-141.11328125,-49.31640625,0.0,0,0
1771939416.388932,1771939416.3396802,-923.828125,219.23828125,-185.546875,70.3125,0.0,0,0
1771939416.388976,1771939416.3435764,-412.109375,-1000.0,-93.75,-41.015625,0.0,0,0
1771939416.389017,1771939416.3474727,783.203125,-130.859375,63.96484375,749.51171875,0.0,0,0
1771939416.38906,1771939416.351369,211.42578125,-975.5859375,33.69140625,-721.19140625,0.0,0,0
1771939416.3891032,1771939416.3552654,-226.5625,-931.640625,-120.60546875,-344.23828125,0.0,0,0
1771939416.389157,1771939416.3591616,-605.46875,185.05859375,-195.3125,213.8671875,0.0,0,0
1771939416.389199,1771939416.3630579,-387.20703125,-1000.0,-100.09765625,-32.71484375,0.0,0,0
1771939416.389262,1771939416.366954,403.80859375,-1000.0,55.17578125,2.44140625,0.0,0,0
1771939416.389303,1771939416.3708503,588.8671875,127.44140625,55.6640625,-37.109375,0.0,0,0
1771939416.4775739,1771939416.374815,-162.59765625,-954.1015625,-94.7265625,34.66796875,0.0,0,0
1771939416.4777138,1771939416.3787112,-923.33984375,-449.21875,-206.0546875,-532.71484375,0.0,0,0
1771939416.4777758,1771939416.3826075,-122.0703125,-1000.0,-123.53515625,-850.09765625,0.0,0,0
1771939416.4778361,1771939416.3865037,94.7265625,-1000.0,38.0859375,55.17578125,0.0,0,0
1771939416.4778938,1771939416.3904002,501.46484375,34.1796875,64.94140625,-161.62109375,0.0,0,0
1771939416.477953,1771939416.3942964,20.5078125,-876.46484375,-53.22265625,30.76171875,0.0,0,0
1771939416.478018,1771939416.3981926,-839.35546875,889.16015625,-174.8046875,19.04296875,0.0,0,0
1771939416.4780931,1771939416.4020889,-868.1640625,-640.13671875,-157.71484375,-16.6015625,0.0,0,0
1771939416.478158,1771939416.405985,236.81640625,-666.50390625,17.578125,1.953125,0.0,0,0
1771939416.4782348,1771939416.4098816,597.16796875,880.859375,58.59375,255.37109375,0.0,0,0
1771939416.478293,1771939416.4137778,-245.60546875,-856.93359375,-41.50390625,-1000.0,0.0,0,0
1771939416.4783502,1771939416.417674,-666.9921875,231.93359375,-181.640625,-60.546875,0.0,0,0
1771939416.4947991,1771939416.4217126,-622.0703125,-957.51953125,-162.109375,313.96484375,0.0,0,0
1771939416.494913,1771939416.425609,253.90625,-1000.0,34.1796875,259.765625,0.0,0,0
1771939416.4949608,1771939416.4295053,634.27734375,-247.55859375,66.40625,-65.4296875,0.0,0,0
1771939416.4950058,1771939416.4334016,290.52734375,-832.03125,-15.13671875,106.93359375,0.0,0,0
1771939416.495051,1771939416.437298,-928.22265625,167.48046875,-172.36328125,-801.7578125,0.0,0,0
1771939416.4950972,1771939416.4411943,-517.578125,-1000.0,-153.3203125,336.42578125,0.0,0,0
1771939416.49514,1771939416.4450905,-136.23046875,-1000.0,-7.8125,496.09375,0.0,0,0
1771939416.4951801,1771939416.4489868,355.95703125,-264.6484375,61.03515625,-396.97265625,0.0,0,0
1771939416.495224,1771939416.4528832,408.69140625,-830.078125,21.97265625,224.12109375,0.0,0,0
1771939416.4952672,1771939416.4567795,-959.47265625,335.44921875,-159.66796875,-812.5,0.0,0,0
1771939416.495316,1771939416.4606757,-658.69140625,-969.23828125,-172.36328125,328.61328125,0.0,0,0
1771939416.495372,1771939416.4645722,-58.10546875,-1000.0,-25.390625,856.4453125,0.0,0,0
1771939416.539993,1771939416.4686012,500.0,-228.515625,71.77734375,-209.9609375,0.0,0,0
1771939416.540103,1771939416.4724977,422.8515625,960.44921875,26.3671875,-279.78515625,0.0,0,0
1771939416.540142,1771939416.476394,-553.7109375,-896.484375,-144.53125,7.32421875,0.0,0,0
1771939416.540176,1771939416.4802902,-904.78515625,34.1796875,-183.59375,-9.765625,0.0,0,0
1771939416.54021,1771939416.4841866,-289.0625,-1000.0,-47.8515625,-24.90234375,0.0,0,0
1771939416.5402439,1771939416.488083,709.9609375,132.32421875,87.890625,549.31640625,0.0,0,0
1771939416.54028,1771939416.4919791,73.73046875,-925.78125,44.43359375,-1000.0,0.0,0,0
1771939416.540333,1771939416.4958756,-282.71484375,-983.88671875,-129.39453125,-148.92578125,0.0,0,0
1771939416.5403771,1771939416.4997718,-710.9375,4.39453125,-200.1953125,126.46484375,0.0,0,0
1771939416.540415,1771939416.5036683,-321.2890625,-1000.0,-80.56640625,-71.2890625,0.0,0,0
1771939416.540447,1771939416.5075645,405.76171875,-1000.0,41.9921875,53.22265625,0.0,0,0
1771939416.540479,1771939416.5114608,588.8671875,365.234375,50.29296875,38.0859375,0.0,0,0
1771939416.599711,1771939416.5155559,-248.53515625,721.6796875,-110.3515625,58.10546875,0.0,0,0
1771939416.5998561,1771939416.5194523,-822.265625,-859.375,-181.640625,-392.08984375,0.0,0,0
1771939416.599906,1771939416.5233486,-52.24609375,-1000.0,-55.17578125,-808.59375,0.0,0,0
1771939416.599953,1771939416.527245,161.62109375,-949.70703125,69.82421875,51.26953125,0.0,0,0
1771939416.599997,1771939416.5311413,514.6484375,211.9140625,68.359375,-220.21484375,0.0,0,0
1771939416.6000519,1771939416.5350378,-107.421875,-761.71875,-62.98828125,146.484375,0.0,0,0
1771939416.600103,1771939416.538934,-1000.0,170.8984375,-184.5703125,-253.41796875,0.0,0,0
1771939416.6001549,1771939416.5428305,-515.625,-985.3515625,-121.09375,312.98828125,0.0,0,0
1771939416.600207,1771939416.5467267,218.75,-1000.0,45.41015625,-58.10546875,0.0,0,0
1771939416.600276,1771939416.5506232,584.9609375,-220.21484375,80.078125,39.55078125,0.0,0,0
1771939416.600325,1771939416.5545194,41.015625,-862.3046875,-38.0859375,95.21484375,0.0,0,0
1771939416.600377,1771939416.558416,-972.65625,-73.2421875,-176.7578125,-709.47265625,0.0,0,0
1771939416.6308239,1771939416.5624287,-230.46875,-1000.0,-116.2109375,971.19140625,0.0,0,0
1771939416.630948,1771939416.5663252,97.65625,-1000.0,47.8515625,221.6796875,0.0,0,0
1771939416.6310122,1771939416.5702214,574.70703125,-76.171875,100.09765625,-155.76171875,0.0,0,0
1771939416.6310751,1771939416.574118,118.65234375,-797.36328125,-13.18359375,209.9609375,0.0,0,0
1771939416.631134,1771939416.5780141,-1000.0,151.3671875,-175.29296875,-883.30078125,0.0,0,0
1771939416.631196,1771939416.5819106,-410.15625,-1000.0,-123.53515625,589.84375,0.0,0,0
1771939416.631253,1771939416.5858068,377.9296875,-403.3203125,57.6171875,922.8515625,0.0,0,0
1771939416.63131,1771939416.5897033,395.5078125,894.04296875,66.40625,-599.609375,0.0,0,0
1771939416.631367,1771939416.5935998,-18.06640625,-888.671875,-22.4609375,-1000.0,0.0,0,0
1771939416.631407,1771939416.597496,-627.44140625,467.7734375,-167.48046875,-3.90625,0.0,0,0
1771939416.631449,1771939416.6013925,-649.4140625,-847.16796875,-173.33984375,285.15625,0.0,0,0
1771939416.631509,1771939416.6052887,194.3359375,-1000.0,25.390625,325.68359375,0.0,0,0
1771939416.6756449,1771939416.609292,634.765625,-229.4921875,95.21484375,24.90234375,0.0,0,0
1771939416.675803,1771939416.6131885,350.09765625,-837.890625,12.20703125,31.25,0.0,0,0
1771939416.675848,1771939416.617085,-887.6953125,170.8984375,-165.0390625,-863.76953125,0.0,0,0
1771939416.675894,1771939416.6209812,-588.8671875,-1000.0,-171.875,131.8359375,0.0,0,0
1771939416.675937,1771939416.6248777,21.484375,-1000.0,-18.5546875,888.671875,0.0,0,0
1771939416.67598,1771939416.6287742,487.3046875,-263.18359375,88.8671875,-253.41796875,0.0,0,0
1771939416.6760361,1771939416.6326704,529.78515625,-829.1015625,34.66796875,183.59375,0.0,0,0
1771939416.676078,1771939416.6365669,-852.05078125,298.828125,-187.01171875,-848.6328125,0.0,0,0
1771939416.676129,1771939416.640463,-685.546875,-973.14453125,-207.51953125,-249.0234375,0.0,0,0
1771939416.676172,1771939416.6443596,-8.7890625,-1000.0,-51.26953125,-925.78125,0.0,0,0
1771939416.676224,1771939416.648256,406.73828125,-493.1640625,62.5,-44.43359375,0.0,0,0
1771939416.6762838,1771939416.6521523,515.625,991.2109375,39.55078125,-91.796875,0.0,0,0
1771939416.720018,1771939416.6561444,-711.42578125,779.78515625,-162.109375,-357.91015625,0.0,0,0
1771939416.72015,1771939416.6600406,-870.60546875,-629.39453125,-201.66015625,395.99609375,0.0,0,0
1771939416.720219,1771939416.663937,-239.2578125,-1000.0,-80.56640625,-796.875,0.0,0,0
1771939416.720289,1771939416.6678336,253.41796875,-630.859375,28.80859375,-120.60546875,0.0,0,0
1771939416.72035,1771939416.6717298,502.9296875,647.4609375,31.25,-152.34375,0.0,0,0
1771939416.720413,1771939416.6756263,-405.2734375,-826.66015625,-120.1171875,-3.41796875,0.0,0,0
1771939416.720472,1771939416.6795228,-968.75,457.51953125,-186.5234375,331.54296875,0.0,0,0
1771939416.720515,1771939416.683419,-789.0625,-1000.0,-127.44140625,-194.3359375,0.0,0,0
1771939416.720557,1771939416.6873155,498.046875,-251.953125,28.80859375,348.14453125,0.0,0,0
1771939416.720599,1771939416.691212,450.68359375,-974.609375,42.48046875,105.95703125,0.0,0,0
1771939416.72065,1771939416.6951082,-400.87890625,-925.78125,-125.0,-556.640625,0.0,0,0
1771939416.720694,1771939416.6990047,-681.640625,171.38671875,-214.35546875,96.6796875,0.0,0,0
1771939416.767678,1771939416.7029836,-407.71484375,-1000.0,-138.18359375,87.890625,0.0,0,0
1771939416.767804,1771939416.7068799,287.59765625,-1000.0,24.4140625,30.76171875,0.0,0,0
1771939416.7678678,1771939416.7107763,540.0390625,-34.66796875,53.22265625,-24.90234375,0.0,0,0
1771939416.767929,1771939416.7146728,-28.80859375,-844.23828125,-79.1015625,30.2734375,0.0,0,0
1771939416.768148,1771939416.718569,-881.8359375,-194.82421875,-202.1484375,-553.7109375,0.0,0,0
1771939416.7682009,1771939416.7224655,-169.43359375,-1000.0,-125.9765625,-867.1875,0.0,0,0
1771939416.7682428,1771939416.726362,51.26953125,-1000.0,23.4375,47.36328125,0.0,0,0
1771939416.768286,1771939416.7302585,484.86328125,-141.6015625,46.38671875,-162.109375,0.0,0,0
1771939416.768328,1771939416.7341547,90.33203125,-797.36328125,-66.40625,124.0234375,0.0,0,0
1771939416.76837,1771939416.7380512,-976.5625,442.3828125,-223.14453125,-324.70703125,0.0,0,0
1771939416.7684119,1771939416.7419477,-615.72265625,-911.1328125,-193.84765625,-866.69921875,0.0,0,0
1771939416.768456,1771939416.7458441,-105.46875,-1000.0,13.18359375,184.5703125,0.0,0,0
1771939416.824996,1771939416.749809,471.19140625,-111.81640625,62.5,-227.05078125,0.0,0,0
1771939416.825152,1771939416.7537055,131.8359375,-807.6171875,-59.5703125,99.12109375,0.0,0,0
1771939416.8252192,1771939416.757602,-1000.0,145.01953125,-199.21875,-906.73828125,0.0,0,0
1771939416.825279,1771939416.7614985,-498.53515625,-1000.0,-187.5,685.546875,0.0,0,0
1771939416.8253372,1771939416.7653947,-156.73828125,-1000.0,-43.45703125,464.84375,0.0,0,0
1771939416.8253949,1771939416.7692912,371.58203125,-265.13671875,58.10546875,-79.1015625,0.0,0,0
1771939416.825464,1771939416.7731876,179.19921875,-831.0546875,-11.71875,77.1484375,0.0,0,0
1771939416.82554,1771939416.777084,-1000.0,341.30859375,-219.7265625,-521.97265625,0.0,0,0
1771939416.8256152,1771939416.7809803,-711.9140625,-958.984375,-216.796875,-982.91015625,0.0,0,0
1771939416.825686,1771939416.7848768,-271.484375,-1000.0,-49.8046875,619.62890625,0.0,0,0
1771939416.825751,1771939416.7887733,348.6328125,-375.0,44.43359375,-333.984375,0.0,0,0
1771939416.825835,1771939416.7926698,350.09765625,-880.859375,2.9296875,94.7265625,0.0,0,0
1771939416.899005,1771939416.796853,-979.00390625,297.36328125,-201.66015625,-981.93359375,0.0,0,0
1771939416.899132,1771939416.8007495,-683.59375,-1000.0,-218.75,-204.58984375,0.0,0,0
1771939416.89918,1771939416.804646,-47.36328125,-1000.0,-56.15234375,-911.1328125,0.0,0,0
1771939416.899224,1771939416.8085425,356.93359375,-246.58203125,60.05859375,-148.4375,0.0,0,0
1771939416.899271,1771939416.812439,407.2265625,951.171875,9.27734375,-333.0078125,0.0,0,0
1771939416.8993149,1771939416.8163354,-613.28125,-911.62109375,-181.15234375,-18.5546875,0.0,0,0
1771939416.899358,1771939416.820232,-1000.0,130.37109375,-226.5625,134.765625,0.0,0,0
1771939416.8993988,1771939416.8241284,-404.296875,-1000.0,-113.76953125,516.11328125,0.0,0,0
1771939416.899452,1771939416.8280249,340.8203125,-1000.0,31.25,-63.96484375,0.0,0,0
1771939416.899505,1771939416.8319213,453.61328125,343.75,44.921875,-45.8984375,0.0,0,0
1771939416.899565,1771939416.8358178,-465.8203125,752.44140625,-143.06640625,-227.5390625,0.0,0,0
1771939416.899626,1771939416.839714,-820.3125,-815.4296875,-216.30859375,-372.0703125,0.0,0,0
1771939416.914664,1771939416.8437393,-94.7265625,-1000.0,-118.1640625,-806.15234375,0.0,0,0
1771939416.9147441,1771939416.8476357,252.9296875,-787.109375,18.06640625,31.25,0.0,0,0
1771939416.914787,1771939416.8515322,519.53125,475.09765625,39.55078125,-222.16796875,0.0,0,0
1771939416.9148312,1771939416.8554287,-313.96484375,-789.0625,-122.0703125,-38.57421875,0.0,0,0
1771939416.914874,1771939416.8593252,-1000.0,204.58984375,-221.6796875,-182.6171875,0.0,0,0
1771939416.914915,1771939416.8632216,-580.078125,-1000.0,-134.765625,196.77734375,0.0,0,0
1771939416.914957,1771939416.8671181,598.14453125,-206.54296875,27.83203125,875.9765625,0.0,0,0
1771939416.915,1771939416.8710146,303.7109375,-994.62890625,26.85546875,-313.96484375,0.0,0,0
1771939416.9150422,1771939416.874911,-380.37109375,-917.48046875,-115.234375,-909.1796875,0.0,0,0
1771939416.9150872,1771939416.8788075,-744.140625,160.15625,-227.05078125,92.7734375,0.0,0,0
1771939416.915148,1771939416.882704,-523.92578125,-1000.0,-154.78515625,238.76953125,0.0,0,0
1771939416.915189,1771939416.8866005,238.28125,-1000.0,16.6015625,18.06640625,0.0,0,0
1771939416.972637,1771939416.8906121,575.68359375,-237.79296875,26.85546875,12.6953125,0.0,0,0
1771939416.9727921,1771939416.8945086,90.33203125,-842.28515625,-99.12109375,44.921875,0.0,0,0
1771939416.9728582,1771939416.8984053,-952.63671875,35.64453125,-220.21484375,-695.80078125,0.0,0,0
1771939416.9729202,1771939416.9023018,-347.16796875,-1000.0,-174.31640625,988.28125,0.0,0,0
1771939416.97298,1771939416.9061983,-24.90234375,-1000.0,-1.953125,224.609375,0.0,0,0
1771939416.9730382,1771939416.9100947,460.44921875,-121.09375,58.59375,-171.875,0.0,0,0
1771939416.973099,1771939416.9139912,172.8515625,-815.4296875,-57.12890625,102.5390625,0.0,0,0
1771939416.9731772,1771939416.9178877,-950.1953125,548.828125,-222.65625,-301.7578125,0.0,0,0
1771939416.973245,1771939416.9217842,-640.13671875,-812.01171875,-193.359375,873.046875,0.0,0,0
1771939416.973332,1771939416.9256806,-96.6796875,-1000.0,-38.0859375,148.4375,0.0,0,0
1771939416.973396,1771939416.929577,503.90625,-225.09765625,29.296875,-206.0546875,0.0,0,0
1771939416.973462,1771939416.9334736,303.22265625,-837.890625,-18.5546875,171.875,0.0,0,0
1771939417.004579,1771939416.9374747,-993.65234375,167.48046875,-191.40625,-1000.0,0.0,0,0
1771939417.004674,1771939416.9413712,-517.578125,-1000.0,-190.91796875,336.42578125,0.0,0,0
1771939417.004719,1771939416.9452677,7.32421875,-1000.0,-43.9453125,685.546875,0.0,0,0
1771939417.004761,1771939416.9491644,463.8671875,-253.90625,54.19921875,-254.8828125,0.0,0,0
1771939417.0048041,1771939416.9530609,384.27734375,948.73046875,-4.39453125,-112.79296875,0.0,0,0
1771939417.0048482,1771939416.9569573,-617.67578125,-894.53125,-178.7109375,12.20703125,0.0,0,0
1771939417.004891,1771939416.9608538,-938.4765625,197.265625,-193.359375,60.05859375,0.0,0,0
1771939417.004933,1771939416.9647503,-302.24609375,-1000.0,-57.6171875,-118.65234375,0.0,0,0
1771939417.004975,1771939416.9686468,714.84375,-98.14453125,46.875,625.9765625,0.0,0,0
1771939417.005036,1771939416.9725432,16.11328125,-954.58984375,7.8125,-1000.0,0.0,0,0
1771939417.005079,1771939416.97644,-413.57421875,-961.9140625,-166.015625,-147.4609375,0.0,0,0
1771939417.005128,1771939416.9803364,-756.8359375,72.265625,-224.609375,189.453125,0.0,0,0
1771939417.049393,1771939416.9843287,-401.3671875,-1000.0,-106.4453125,-99.609375,0.0,0,0
1771939417.049506,1771939416.9882252,447.265625,-814.94140625,33.69140625,65.91796875,0.0,0,0
1771939417.049566,1771939416.9921217,512.20703125,778.3203125,35.64453125,-25.87890625,0.0,0,0
1771939417.0496252,1771939416.9960182,-538.0859375,641.11328125,-166.015625,-362.3046875,0.0,0,0
1771939417.049686,1771939416.999915,-822.265625,-876.46484375,-233.88671875,-413.0859375,0.0,0,0
1771939417.0497448,1771939417.0038114,-41.015625,-1000.0,-95.703125,-772.94921875,0.0,0,0
1771939417.049802,1771939417.0077078,234.86328125,-728.515625,31.25,-22.94921875,0.0,0,0
1771939417.0498781,1771939417.0116043,574.70703125,770.99609375,16.11328125,-112.3046875,0.0,0,0
1771939417.0499442,1771939417.0155008,-382.32421875,829.1015625,-156.73828125,-264.6484375,0.0,0,0
1771939417.050029,1771939417.0193975,-850.09765625,-701.171875,-229.4921875,-420.8984375,0.0,0,0
1771939417.050105,1771939417.023294,-145.01953125,-1000.0,-139.16015625,-760.25390625,0.0,0,0
1771939417.0501719,1771939417.0271904,81.54296875,-967.28515625,2.44140625,-0.48828125,0.0,0,0
1771939417.093642,1771939417.031173,502.44140625,143.5546875,25.87890625,-135.7421875,0.0,0,0
1771939417.093746,1771939417.0350697,-198.73046875,-782.71484375,-113.76953125,-83.0078125,0.0,0,0
1771939417.093794,1771939417.0389662,-1000.0,494.140625,-201.66015625,-172.8515625,0.0,0,0
1771939417.093837,1771939417.0428627,-693.84765625,-833.49609375,-148.4375,664.0625,0.0,0,0
1771939417.0938802,1771939417.0467591,-48.33984375,-1000.0,-7.8125,-375.0,0.0,0,0
1771939417.093921,1771939417.0506558,654.78515625,-76.66015625,56.640625,60.546875,0.0,0,0
1771939417.093963,1771939417.0545523,49.8046875,-803.22265625,-47.8515625,184.08203125,0.0,0,0
1771939417.094006,1771939417.0584488,-1000.0,133.30078125,-219.7265625,-1000.0,0.0,0,0
1771939417.09423,1771939417.0623453,-397.4609375,-1000.0,-193.359375,504.39453125,0.0,0,0
1771939417.094274,1771939417.066242,-8.30078125,-1000.0,-9.765625,249.0234375,0.0,0,0
1771939417.094316,1771939417.0701385,447.75390625,-252.44140625,48.828125,-197.265625,0.0,0,0
1771939417.094358,1771939417.074035,206.0546875,-872.55859375,-54.19921875,106.93359375,0.0,0,0
1771939417.139605,1771939417.078008,-913.0859375,660.64453125,-209.9609375,-336.42578125,0.0,0,0
1771939417.139727,1771939417.0819046,-615.234375,-728.515625,-195.3125,-875.48828125,0.0,0,0
1771939417.139789,1771939417.0858011,-193.84765625,-1000.0,-21.97265625,316.89453125,0.0,0,0
1771939417.139848,1771939417.0896976,449.70703125,-168.45703125,45.41015625,-214.35546875,0.0,0,0
1771939417.139908,1771939417.093594,242.1875,973.6328125,-37.59765625,-62.01171875,0.0,0,0
1771939417.139966,1771939417.0974908,-722.65625,-907.71484375,-176.26953125,24.90234375,0.0,0,0
1771939417.14003,1771939417.1013873,-955.56640625,3.90625,-208.0078125,26.85546875,0.0,0,0
1771939417.140088,1771939417.1052837,-146.484375,-1000.0,-69.82421875,-122.0703125,0.0,0,0
1771939417.1401448,1771939417.1091805,729.00390625,107.91015625,24.90234375,579.58984375,0.0,0,0
1771939417.140204,1771939417.113077,-47.36328125,-828.61328125,-39.0625,-1000.0,0.0,0,0
1771939417.140259,1771939417.1169734,-501.953125,743.1640625,-199.70703125,-172.8515625,0.0,0,0
1771939417.140332,1771939417.12087,-749.0234375,-520.5078125,-256.34765625,148.4375,0.0,0,0
1771939417.2000058,1771939417.1249084,-96.6796875,-1000.0,-102.5390625,77.1484375,0.0,0,0
1771939417.200118,1771939417.1288052,660.64453125,-473.6328125,32.71484375,102.5390625,0.0,0,0
1771939417.20018,1771939417.1327016,557.12890625,-945.3125,11.23046875,-6.8359375,0.0,0,0
1771939417.200245,1771939417.136598,-680.17578125,426.7578125,-191.89453125,-632.32421875,0.0,0,0
1771939417.200313,1771939417.1404948,-774.90234375,-1000.0,-225.09765625,-347.16796875,0.0,0,0
1771939417.2003798,1771939417.1443913,71.77734375,-1000.0,-79.1015625,-772.94921875,0.0,0,0
1771939417.2004359,1771939417.148288,384.765625,203.125,25.390625,231.4453125,0.0,0,0
1771939417.200494,1771939417.1521845,78.61328125,-974.12109375,-13.671875,-1000.0,0.0,0,0
1771939417.2005491,1771939417.156081,-237.79296875,-959.9609375,-179.19921875,-157.71484375,0.0,0,0
1771939417.200632,1771939417.1599777,-710.9375,218.26171875,-238.76953125,145.5078125,0.0,0,0
1771939417.2007082,1771939417.1638741,-348.6328125,-1000.0,-144.53125,-66.40625,0.0,0,0
1771939417.2007732,1771939417.1677706,486.81640625,-1000.0,12.6953125,54.19921875,0.0,0,0
1771939417.244052,1771939417.1718004,552.24609375,372.55859375,21.97265625,-67.3828125,0.0,0,0
1771939417.244225,1771939417.1756968,-279.296875,770.99609375,-154.78515625,-187.5,0.0,0,0
1771939417.244286,1771939417.1795936,-828.125,-824.21875,-232.421875,-401.85546875,0.0,0,0
1771939417.244375,1771939417.18349,-90.33203125,-1000.0,-132.32421875,-784.1796875,0.0,0,0
1771939417.244433,1771939417.1873868,238.28125,-966.796875,5.859375,41.50390625,0.0,0,0
1771939417.244494,1771939417.1912832,564.453125,179.6875,28.80859375,-186.03515625,0.0,0,0
1771939417.244593,1771939417.19518,-95.21484375,-766.6015625,-122.55859375,-86.42578125,0.0,0,0
1771939417.24465,1771939417.1990764,-931.15234375,247.0703125,-228.02734375,-136.71875,0.0,0,0
1771939417.244694,1771939417.2029731,-713.8671875,-1000.0,-169.921875,23.92578125,0.0,0,0
1771939417.244736,1771939417.2068696,562.01171875,-343.75,9.27734375,531.25,0.0,0,0
1771939417.244778,1771939417.210766,612.3046875,944.3359375,56.640625,31.25,0.0,0,0
1771939417.244819,1771939417.2146628,-26.3671875,-897.94921875,-51.7578125,-791.50390625,0.0,0,0
1771939417.289582,1771939417.2186825,-515.625,367.1875,-199.70703125,183.10546875,0.0,0,0
1771939417.289685,1771939417.222579,-529.296875,-909.66796875,-182.6171875,99.12109375,0.0,0,0
1771939417.289732,1771939417.2264757,291.50390625,-1000.0,10.25390625,35.15625,0.0,0,0
1771939417.2897751,1771939417.2303722,636.71875,-213.8671875,55.6640625,-22.94921875,0.0,0,0
1771939417.289818,1771939417.234269,253.90625,-973.6328125,-33.69140625,-76.171875,0.0,0,0
1771939417.289862,1771939417.2381654,-696.77734375,987.79296875,-172.8515625,-7.32421875,0.0,0,0
1771939417.2899048,1771939417.242062,-889.6484375,-435.546875,-181.15234375,-19.04296875,0.0,0,0
1771939417.289958,1771939417.2459586,114.74609375,-1000.0,-12.6953125,19.53125,0.0,0,0
1771939417.290003,1771939417.2498553,683.10546875,468.75,43.45703125,306.15234375,0.0,0,0
1771939417.290057,1771939417.2537518,-75.1953125,-809.5703125,-39.0625,-1000.0,0.0,0,0
1771939417.290117,1771939417.2576485,-564.94140625,499.51171875,-190.4296875,-199.70703125,0.0,0,0
1771939417.290169,1771939417.261545,-693.359375,-783.203125,-211.42578125,191.89453125,0.0,0,0
1771939417.347577,1771939417.2655556,34.66796875,-1000.0,-62.5,122.0703125,0.0,0,0
1771939417.347711,1771939417.269452,482.91015625,-503.41796875,21.97265625,-316.89453125,0.0,0,0
1771939417.347774,1771939417.2733488,537.59765625,-955.56640625,6.8359375,278.80859375,0.0,0,0
1771939417.347834,1771939417.2772453,-672.36328125,305.6640625,-175.29296875,-417.96875,0.0,0,0
1771939417.347894,1771939417.281142,-682.12890625,-1000.0,-218.75,-361.328125,0.0,0,0
1771939417.34795,1771939417.2850387,136.71875,-1000.0,-41.9921875,-930.17578125,0.0,0,0
1771939417.348015,1771939417.2889352,312.5,-208.0078125,58.10546875,-369.140625,0.0,0,0
1771939417.3480792,1771939417.292832,214.84375,-996.58203125,0.9765625,-1000.0,0.0,0,0
1771939417.348147,1771939417.2967284,-369.62890625,-972.65625,-175.78125,25.390625,0.0,0,0
1771939417.348222,1771939417.300625,-834.9609375,-99.12109375,-216.796875,89.35546875,0.0,0,0
1771939417.348288,1771939417.3045218,-338.8671875,-1000.0,-77.1484375,-62.5,0.0,0,0
1771939417.348342,1771939417.3084183,535.64453125,-559.08203125,47.36328125,188.96484375,0.0,0,0
1771939417.37901,1771939417.3124185,423.33984375,977.5390625,30.2734375,-154.78515625,0.0,0,0
1771939417.3791099,1771939417.3163152,-779.78515625,726.5625,-167.96875,-622.0703125,0.0,0,0
1771939417.379159,1771939417.3202116,-826.171875,-721.19140625,-205.078125,-111.81640625,0.0,0,0
1771939417.379211,1771939417.3241084,-203.125,-1000.0,-97.16796875,-903.3203125,0.0,0,0
1771939417.379253,1771939417.328005,166.50390625,-660.64453125,10.7421875,-193.84765625,0.0,0,0
1771939417.379298,1771939417.3319016,520.99609375,637.20703125,46.875,-84.9609375,0.0,0,0
1771939417.3793411,1771939417.3357983,-333.49609375,-816.89453125,-96.19140625,-39.0625,0.0,0,0
1771939417.379385,1771939417.339695,-987.79296875,354.98046875,-209.9609375,-103.515625,0.0,0,0
1771939417.379437,1771939417.3435915,-616.2109375,-1000.0,-154.296875,-78.61328125,0.0,0,0
1771939417.379488,1771939417.3474882,680.17578125,-304.6875,36.1328125,802.734375,0.0,0,0
1771939417.3795378,1771939417.3513849,443.84765625,991.2109375,40.0390625,-109.375,0.0,0,0
1771939417.37958,1771939417.3552814,-296.38671875,-911.1328125,-99.12109375,-697.265625,0.0,0,0
1771939417.423931,1771939417.3592727,-654.296875,166.9921875,-206.54296875,22.94921875,0.0,0,0
1771939417.4240582,1771939417.3631692,-436.5234375,-1000.0,-143.06640625,84.47265625,0.0,0,0
1771939417.424124,1771939417.367066,258.7890625,-1000.0,39.55078125,49.8046875,0.0,0,0
1771939417.424185,1771939417.3709626,474.12109375,-38.57421875,59.5703125,-55.17578125,0.0,0,0
1771939417.424244,1771939417.374859,-10.7421875,-898.4375,-69.82421875,-12.20703125,0.0,0,0
1771939417.424302,1771939417.3787558,-867.1875,903.80859375,-193.84765625,-10.7421875,0.0,0,0
1771939417.424361,1771939417.3826525,-832.03125,-641.6015625,-163.57421875,-7.32421875,0.0,0,0
1771939417.4244218,1771939417.3865492,307.12890625,-662.109375,31.73828125,230.95703125,0.0,0,0
1771939417.42449,1771939417.3904457,610.83984375,874.51171875,76.66015625,258.30078125,0.0,0,0
1771939417.424566,1771939417.3943424,-211.42578125,-861.81640625,-31.73828125,-1000.0,0.0,0,0
1771939417.42463,1771939417.3982391,-639.6484375,365.234375,-166.9921875,-52.24609375,0.0,0,0
1771939417.4247072,1771939417.4021356,-616.69921875,-897.4609375,-167.96875,229.4921875,0.0,0,0
1771939417.513758,1771939417.4062724,165.52734375,-1000.0,2.9296875,38.57421875,0.0,0,0
1771939417.513889,1771939417.4101691,646.97265625,-236.81640625,65.91796875,26.85546875,0.0,0,0
1771939417.513941,1771939417.4140656,304.6875,-849.609375,-12.20703125,81.54296875,0.0,0,0
1771939417.5139892,1771939417.4179623,-918.45703125,230.95703125,-200.68359375,-947.265625,0.0,0,0
1771939417.514034,1771939417.421859,-556.15234375,-1000.0,-189.453125,306.15234375,0.0,0,0
1771939417.514076,1771939417.4257557,268.06640625,-765.625,16.11328125,-985.3515625,0.0,0,0
1771939417.514125,1771939417.4296525,474.609375,599.609375,83.0078125,-462.40234375,0.0,0,0
1771939417.514171,1771939417.4335492,145.5078125,-909.1796875,-6.34765625,-1000.0,0.0,0,0
1771939417.514213,1771939417.4374459,-429.19921875,819.3359375,-163.0859375,16.11328125,0.0,0,0
1771939417.514257,1771939417.4413424,-816.40625,-406.25,-199.70703125,87.40234375,0.0,0,0
1771939417.5142999,1771939417.445239,-126.953125,-1000.0,-44.921875,-40.52734375,0.0,0,0
1771939417.514341,1771939417.4491358,760.25390625,-258.30078125,100.5859375,256.8359375,0.0,0,0
1771939417.515241,1771939417.4531217,489.2578125,-843.26171875,33.203125,-103.02734375,0.0,0,0
1771939417.515296,1771939417.4570184,-784.1796875,227.05078125,-177.734375,-849.12109375,0.0,0,0
1771939417.5153449,1771939417.460915,-707.03125,-1000.0,-184.08203125,-139.6484375,0.0,0,0
1771939417.515379,1771939417.4648118,-60.546875,-1000.0,-64.453125,-872.55859375,0.0,0,0
1771939417.5154119,1771939417.4687085,270.99609375,-708.49609375,47.36328125,-252.9296875,0.0,0,0
1771939417.515448,1771939417.4726052,562.01171875,869.62890625,61.5234375,57.6171875,0.0,0,0
1771939417.5154822,1771939417.4765017,-635.7421875,689.94140625,-149.4140625,-477.05078125,0.0,0,0
1771939417.515517,1771939417.4803984,-758.7890625,-803.22265625,-208.984375,-412.109375,0.0,0,0
1771939417.515554,1771939417.4842951,-2.44140625,-1000.0,-78.61328125,-841.796875,0.0,0,0
1771939417.515593,1771939417.4881918,347.16796875,-627.9296875,49.8046875,-35.64453125,0.0,0,0
1771939417.515638,1771939417.4920886,548.33984375,677.734375,62.98828125,-240.234375,0.0,0,0
1771939417.515691,1771939417.4959853,-356.4453125,-821.2890625,-111.328125,-96.6796875,0.0,0,0
1771939417.57465,1771939417.4999514,-986.328125,188.96484375,-191.89453125,-167.96875,0.0,0,0
1771939417.574775,1771939417.503848,-528.3203125,-1000.0,-92.28515625,76.171875,0.0,0,0
1771939417.5748212,1771939417.5077448,720.21484375,-192.87109375,70.80078125,870.1171875,0.0,0,0
1771939417.574867,1771939417.5116415,399.4140625,993.65234375,47.8515625,-423.828125,0.0,0,0
1771939417.57491,1771939417.5155382,-179.6875,-921.38671875,-107.91015625,-766.11328125,0.0,0,0
1771939417.574959,1771939417.519435,-601.07421875,386.23046875,-187.98828125,434.08203125,0.0,0,0
1771939417.5750022,1771939417.5233316,-535.64453125,-910.15625,-125.0,244.140625,0.0,0,0
1771939417.57506,1771939417.5272284,304.6875,-1000.0,27.34375,-116.69921875,0.0,0,0
1771939417.575129,1771939417.531125,635.25390625,-134.765625,58.10546875,45.8984375,0.0,0,0
1771939417.575177,1771939417.5350218,13.18359375,-885.25390625,-52.24609375,17.08984375,0.0,0,0
1771939417.575237,1771939417.5389185,-901.85546875,-212.890625,-182.6171875,-584.9609375,0.0,0,0
1771939417.5753012,1771939417.5428152,-212.890625,-1000.0,-133.7890625,-896.484375,0.0,0,0
1771939417.622405,1771939417.5468504,36.62109375,-1000.0,35.64453125,77.63671875,0.0,0,0
1771939417.622545,1771939417.5507472,496.09375,-259.27734375,73.2421875,-204.58984375,0.0,0,0
1771939417.622607,1771939417.5546439,211.9140625,-836.9140625,-19.04296875,109.86328125,0.0,0,0
1771939417.622666,1771939417.5585406,-842.28515625,546.875,-158.203125,-141.11328125,0.0,0,0
1771939417.622725,1771939417.5624373,-905.2734375,-1000.0,-160.64453125,-24.4140625,0.0,0,0
1771939417.622787,1771939417.566334,336.9140625,-466.30859375,54.19921875,358.3984375,0.0,0,0
1771939417.622844,1771939417.5702307,696.77734375,925.78125,103.02734375,285.64453125,0.0,0,0
1771939417.622903,1771939417.5741274,-125.0,-909.1796875,-14.16015625,-1000.0,0.0,0,0
1771939417.6229582,1771939417.5780244,-618.1640625,531.25,-166.9921875,-96.6796875,0.0,0,0
1771939417.6230242,1771939417.581921,-714.35546875,-792.48046875,-169.921875,260.7421875,0.0,0,0
1771939417.623101,1771939417.5858178,62.98828125,-1000.0,16.6015625,68.84765625,0.0,0,0
1771939417.623167,1771939417.5897145,668.9453125,-225.5859375,111.328125,58.59375,0.0,0,0
1771939417.664567,1771939417.5937371,387.20703125,-837.890625,42.96875,49.31640625,0.0,0,0
1771939417.6646981,1771939417.5976338,-903.80859375,168.45703125,-155.2734375,-1000.0,0.0,0,0
1771939417.664744,1771939417.6015306,-588.37890625,-1000.0,-166.015625,61.5234375,0.0,0,0
1771939417.664788,1771939417.6054273,0.48828125,-1000.0,-25.87890625,771.97265625,0.0,0,0
1771939417.664832,1771939417.609324,459.47265625,-236.328125,74.21875,-189.453125,0.0,0,0
1771939417.6648781,1771939417.6132207,427.734375,956.0546875,45.41015625,-108.3984375,0.0,0,0
1771939417.664921,1771939417.6171174,-615.72265625,-919.43359375,-150.87890625,-164.55078125,0.0,0,0
1771939417.6649642,1771939417.621014,-857.421875,211.9140625,-205.078125,-110.3515625,0.0,0,0
1771939417.665025,1771939417.6249108,-237.3046875,-1000.0,-50.29296875,-17.08984375,0.0,0,0
1771939417.665084,1771939417.6288078,659.66796875,-730.46875,78.125,41.50390625,0.0,0,0
1771939417.665144,1771939417.6327045,609.86328125,931.15234375,46.38671875,-21.97265625,0.0,0,0
1771939417.6651862,1771939417.6366012,-577.63671875,485.83984375,-141.6015625,-498.53515625,0.0,0,0
1771939417.7093928,1771939417.6406138,-742.67578125,-976.5625,-191.89453125,-328.61328125,0.0,0,0
1771939417.709522,1771939417.6445105,30.2734375,-1000.0,-60.05859375,-821.2890625,0.0,0,0
1771939417.7095869,1771939417.6484072,299.8046875,-860.3515625,66.89453125,-199.21875,0.0,0,0
1771939417.7096488,1771939417.652304,643.06640625,540.0390625,83.0078125,-109.375,0.0,0,0
1771939417.7097092,1771939417.6562006,-379.8828125,-977.05078125,-102.5390625,-233.3984375,0.0,0,0
1771939417.709772,1771939417.6600974,-840.8203125,-441.40625,-170.8984375,-140.625,0.0,0,0
1771939417.709837,1771939417.6639943,-230.95703125,-1000.0,-93.75,-791.50390625,0.0,0,0
1771939417.709905,1771939417.667891,167.48046875,-913.0859375,24.90234375,-188.96484375,0.0,0,0
1771939417.709973,1771939417.6717877,619.140625,338.8671875,67.87109375,-108.88671875,0.0,0,0
1771939417.7100391,1771939417.6756845,-239.74609375,-807.6171875,-92.7734375,-156.25,0.0,0,0
1771939417.7101061,1771939417.6795812,-943.359375,-111.328125,-190.4296875,-183.59375,0.0,0,0
1771939417.7101629,1771939417.683478,-293.9453125,-1000.0,-85.9375,-708.0078125,0.0,0,0
1771939417.797589,1771939417.6874814,179.19921875,-1000.0,57.12890625,-42.48046875,0.0,0,0
1771939417.797729,1771939417.691378,621.09375,110.3515625,68.359375,-103.02734375,0.0,0,0
1771939417.7977998,1771939417.6952748,-1.953125,-781.25,-51.26953125,26.3671875,0.0,0,0
1771939417.7978618,1771939417.6991715,-905.76171875,2.44140625,-177.24609375,-509.765625,0.0,0,0
1771939417.797923,1771939417.7030683,-264.6484375,-1000.0,-122.55859375,-861.328125,0.0,0,0
1771939417.797984,1771939417.7069652,128.90625,-1000.0,62.5,106.93359375,0.0,0,0
1771939417.798042,1771939417.710862,607.91015625,120.1171875,100.5859375,-124.51171875,0.0,0,0
1771939417.7981,1771939417.7147586,137.6953125,-779.296875,-44.43359375,114.74609375,0.0,0,0
1771939417.798172,1771939417.7186553,-924.8046875,-34.66796875,-202.1484375,-852.5390625,0.0,0,0
1771939417.7982311,1771939417.7225523,-277.34375,-1000.0,-153.80859375,888.18359375,0.0,0,0
1771939417.7982888,1771939417.726449,57.6171875,-1000.0,19.53125,200.68359375,0.0,0,0
1771939417.798346,1771939417.7303457,523.4375,-270.99609375,83.0078125,-227.05078125,0.0,0,0
1771939417.7996879,1771939417.7343445,303.22265625,-874.51171875,-7.8125,106.93359375,0.0,0,0
1771939417.799776,1771939417.7382412,-845.703125,671.38671875,-174.8046875,-340.8203125,0.0,0,0
1771939417.79982,1771939417.7421381,-539.55078125,-715.33203125,-155.2734375,-832.03125,0.0,0,0
1771939417.799863,1771939417.7460349,-111.81640625,-1000.0,15.625,274.4140625,0.0,0,0
1771939417.800069,1771939417.7499316,461.42578125,-221.6796875,89.35546875,-347.65625,0.0,0,0
1771939417.8001149,1771939417.7538285,440.4296875,-836.42578125,29.78515625,291.015625,0.0,0,0
1771939417.8001568,1771939417.7577252,-918.9453125,191.40625,-172.8515625,-1000.0,0.0,0,0
1771939417.8001988,1771939417.761622,-555.6640625,-1000.0,-183.59375,-16.6015625,0.0,0,0
1771939417.80024,1771939417.7655187,64.94140625,-1000.0,-20.01953125,744.62890625,0.0,0,0
1771939417.800281,1771939417.7694156,467.28515625,-339.84375,71.77734375,-242.67578125,0.0,0,0
1771939417.800323,1771939417.7733123,470.21484375,-860.3515625,26.85546875,69.3359375,0.0,0,0
1771939417.800365,1771939417.777209,-844.7265625,394.53125,-171.38671875,-811.03515625,0.0,0,0
1771939417.843866,1771939417.7811906,-705.56640625,-941.89453125,-191.89453125,138.671875,0.0,0,0
1771939417.843978,1771939417.7850873,-96.6796875,-1000.0,-57.12890625,961.9140625,0.0,0,0
1771939417.8440242,1771939417.788984,447.265625,-418.45703125,61.5234375,-107.421875,0.0,0,0
1771939417.844068,1771939417.792881,472.16796875,937.5,39.0625,-177.24609375,0.0,0,0
1771939417.844112,1771939417.7967777,-650.87890625,-997.0703125,-169.43359375,-359.375,0.0,0,0
1771939417.8441558,1771939417.8006747,-698.73046875,-246.58203125,-187.01171875,627.44140625,0.0,0,0
1771939417.84421,1771939417.8045714,-192.87109375,-1000.0,-43.45703125,-833.0078125,0.0,0,0
1771939417.8442612,1771939417.808468,378.90625,-312.5,62.5,-149.4140625,0.0,0,0
1771939417.8443022,1771939417.812365,500.0,922.36328125,38.0859375,-696.2890625,0.0,0,0
1771939417.844345,1771939417.8162618,-250.9765625,-889.16015625,-126.46484375,-122.55859375,0.0,0,0
1771939417.844388,1771939417.8201585,-906.25,169.921875,-185.05859375,164.0625,0.0,0,0
1771939417.844434,1771939417.8240554,-498.046875,-1000.0,-66.40625,227.05078125,0.0,0,0
1771939417.889874,1771939417.828027,751.46484375,-197.75390625,98.14453125,735.3515625,0.0,0,0
1771939417.889977,1771939417.831924,400.87890625,-999.51171875,86.9140625,-669.43359375,0.0,0,0
1771939417.890024,1771939417.8358207,-175.29296875,-916.015625,-77.63671875,-550.29296875,0.0,0,0
1771939417.890069,1771939417.8397174,-629.8828125,223.14453125,-193.84765625,119.62890625,0.0,0,0
1771939417.890112,1771939417.8436143,-465.33203125,-1000.0,-116.69921875,-152.83203125,0.0,0,0
1771939417.890156,1771939417.847511,771.97265625,-200.68359375,77.63671875,-981.93359375,0.0,0,0
1771939417.8902001,1771939417.851408,409.1796875,-999.0234375,79.58984375,-372.55859375,0.0,0,0
1771939417.890243,1771939417.8553047,-202.63671875,-916.015625,-81.54296875,-940.91796875,0.0,0,0
1771939417.890312,1771939417.8592014,-669.43359375,208.984375,-210.44921875,59.5703125,0.0,0,0
1771939417.890356,1771939417.8630984,-511.23046875,-988.76953125,-149.4140625,220.21484375,0.0,0,0
1771939417.89041,1771939417.866995,362.79296875,-1000.0,46.38671875,16.11328125,0.0,0,0
1771939417.890475,1771939417.870892,702.1484375,-189.94140625,82.03125,18.06640625,0.0,0,0
1771939417.948938,1771939417.8748536,186.5234375,-834.9609375,-34.66796875,57.12890625,0.0,0,0
1771939417.94911,1771939417.8787506,-895.01953125,1.953125,-168.45703125,-816.89453125,0.0,0,0
1771939417.949174,1771939417.8826473,-289.55078125,-1000.0,-150.87890625,859.86328125,0.0,0,0
1771939417.949232,1771939417.8865442,94.23828125,-1000.0,6.8359375,266.11328125,0.0,0,0
1771939417.949294,1771939417.890441,538.0859375,-206.54296875,80.56640625,-177.24609375,0.0,0,0
1771939417.949399,1771939417.8943377,304.19921875,992.67578125,7.8125,87.40234375,0.0,0,0
1771939417.949476,1771939417.8982346,-645.5078125,-903.80859375,-140.625,-96.19140625,0.0,0,0
1771939417.949538,1771939417.9021313,-768.5546875,-109.375,-178.7109375,-4.8828125,0.0,0,0
1771939417.9495978,1771939417.9060283,123.046875,-1000.0,11.23046875,30.2734375,0.0,0,0
1771939417.949671,1771939417.909925,695.80078125,366.2109375,92.7734375,366.2109375,0.0,0,0
1771939417.9497468,1771939417.9138217,-41.015625,-899.4140625,-2.44140625,-1000.0,0.0,0,0
1771939417.949803,1771939417.9177186,-395.01953125,925.78125,-136.23046875,25.87890625,0.0,0,0
1771939417.994003,1771939417.9217455,-733.3984375,-216.796875,-170.8984375,194.82421875,0.0,0,0
1771939417.9941351,1771939417.9256425,-14.16015625,-1000.0,-8.7890625,-59.5703125,0.0,0,0
1771939417.994199,1771939417.9295392,841.30859375,-340.8203125,107.91015625,218.26171875,0.0,0,0
1771939417.994261,1771939417.9334362,513.18359375,-867.67578125,41.9921875,-10.25390625,0.0,0,0
1771939417.9943209,1771939417.9373329,-793.9453125,247.55859375,-170.8984375,-913.57421875,0.0,0,0
1771939417.994381,1771939417.9412298,-609.375,-1000.0,-170.8984375,-73.2421875,0.0,0,0
