timestamp,lsl_timestamp,TP9,AF7,AF8,TP10,Right AUX,keypress_A,keypress_B
1772201156.147412,1772201156.045703,-836.42578125,103.02734375,543.45703125,-973.14453125,0.0,0,0
1772201156.1475961,1772201156.049594,550.78125,-50.29296875,-526.85546875,985.3515625,0.0,0,0
1772201156.147625,1772201156.053485,-807.12890625,-177.734375,-845.703125,-248.046875,0.0,0,0
1772201156.147651,1772201156.0573757,-1000.0,-144.04296875,-122.0703125,-1000.0,0.0,0,0
1772201156.1476748,1772201156.0612667,-103.02734375,39.0625,706.0546875,-241.69921875,0.0,0,0
1772201156.1476989,1772201156.0651577,-896.97265625,97.65625,534.1796875,978.515625,0.0,0,0
1772201156.147723,1772201156.0690486,755.859375,-57.6171875,-461.42578125,-937.5,0.0,0,0
1772201156.147746,1772201156.0729396,-574.70703125,-198.2421875,-907.71484375,-25.390625,0.0,0,0
1772201156.1477702,1772201156.0768306,-1000.0,-176.7578125,-289.55078125,-1000.0,0.0,0,0
1772201156.1477928,1772201156.0807214,-180.17578125,2.44140625,707.03125,-425.29296875,0.0,0,0
1772201156.147817,1772201156.0846124,-959.9609375,70.80078125,558.59375,889.6484375,0.0,0,0
1772201156.14784,1772201156.0885034,943.84765625,-35.64453125,-311.03515625,-883.7890625,0.0,0,0
1772201156.1626282,1772201156.0925457,-292.96875,-204.1015625,-862.79296875,144.53125,0.0,0,0
1772201156.162708,1772201156.0964365,-1000.0,-226.07421875,-436.5234375,-1000.0,0.0,0,0
1772201156.162741,1772201156.1003275,-237.79296875,-45.41015625,711.9140625,-630.859375,0.0,0,0
1772201156.162772,1772201156.1042185,982.91015625,53.22265625,653.80859375,754.8828125,0.0,0,0
1772201156.162802,1772201156.1081095,-950.1953125,-5.859375,-145.99609375,-840.8203125,0.0,0,0
1772201156.162831,1772201156.1120005,-50.29296875,-170.41015625,-787.109375,180.6640625,0.0,0,0
1772201156.16286,1772201156.1158915,-1000.0,-196.2890625,-500.9765625,-1000.0,0.0,0,0
1772201156.162888,1772201156.1197824,-353.515625,-8.7890625,687.01171875,-875.0,0.0,0,0
1772201156.162915,1772201156.1236734,919.43359375,95.21484375,750.9765625,464.35546875,0.0,0,0
1772201156.162944,1772201156.1275644,-898.4375,45.41015625,15.625,-790.0390625,0.0,0,0
1772201156.162972,1772201156.1314554,124.51171875,-121.09375,-713.37890625,148.92578125,0.0,0,0
1772201156.163,1772201156.1353464,-1000.0,-194.3359375,-559.08203125,-1000.0,0.0,0,0
1772201156.208408,1772201156.139381,-532.2265625,-41.50390625,573.2421875,-1000.0,0.0,0,0
1772201156.208576,1772201156.143272,801.26953125,93.26171875,857.421875,136.71875,0.0,0,0
1772201156.208643,1772201156.147163,-859.375,81.0546875,213.37890625,-758.30078125,0.0,0,0
1772201156.208678,1772201156.151054,180.6640625,-102.5390625,-662.59765625,240.234375,0.0,0,0
1772201156.208714,1772201156.154945,-1000.0,-173.828125,-583.0078125,-994.140625,0.0,0,0
1772201156.2088199,1772201156.158836,-715.8203125,-38.57421875,448.73046875,-1000.0,0.0,0,0
1772201156.208895,1772201156.1627269,604.00390625,102.5390625,895.01953125,-54.19921875,0.0,0,0
1772201156.208936,1772201156.1666179,-823.2421875,98.6328125,380.859375,-789.55078125,0.0,0,0
1772201156.208968,1772201156.1705089,188.96484375,-109.375,-638.671875,435.05859375,0.0,0,0
1772201156.208998,1772201156.1743999,-1000.0,-187.5,-620.1171875,-896.97265625,0.0,0,0
1772201156.209027,1772201156.178291,-920.41015625,-77.63671875,301.7578125,-1000.0,0.0,0,0
1772201156.209056,1772201156.182182,311.03515625,73.2421875,853.515625,-234.86328125,0.0,0,0
1772201156.268167,1772201156.186196,-791.015625,95.21484375,458.49609375,-880.37109375,0.0,0,0
1772201156.268388,1772201156.190087,266.6015625,-108.3984375,-662.109375,672.36328125,0.0,0,0
1772201156.2684522,1772201156.193978,-995.1171875,-188.4765625,-716.796875,-723.6328125,0.0,0,0
1772201156.268493,1772201156.1978693,-1000.0,-78.61328125,140.13671875,-1000.0,0.0,0,0
1772201156.268564,1772201156.2017603,36.62109375,62.5,792.48046875,-199.70703125,0.0,0,0
1772201156.268605,1772201156.2056513,-801.7578125,132.8125,506.8359375,-946.2890625,0.0,0,0
1772201156.268642,1772201156.2095423,423.33984375,12.20703125,-615.234375,902.83203125,0.0,0,0
1772201156.2687109,1772201156.2134333,-902.34375,-149.90234375,-819.3359375,-405.76171875,0.0,0,0
1772201156.268749,1772201156.2173243,-1000.0,-127.44140625,-51.7578125,-1000.0,0.0,0,0
1772201156.268783,1772201156.2212152,-108.88671875,40.52734375,729.00390625,-173.828125,0.0,0,0
1772201156.26882,1772201156.2251062,-862.3046875,83.49609375,509.27734375,-991.2109375,0.0,0,0
1772201156.268856,1772201156.2289975,647.4609375,-55.17578125,-556.640625,-964.35546875,0.0,0,0
1772201156.31279,1772201156.233088,-705.078125,-177.24609375,-888.671875,-106.93359375,0.0,0,0
1772201156.312917,1772201156.236979,-1000.0,-124.0234375,-194.82421875,-1000.0,0.0,0,0
1772201156.312961,1772201156.24087,-175.78125,49.31640625,713.37890625,-339.35546875,0.0,0,0
1772201156.313,1772201156.244761,-931.15234375,76.66015625,510.7421875,933.10546875,0.0,0,0
1772201156.31307,1772201156.2486522,860.83984375,-20.5078125,-429.19921875,-906.73828125,0.0,0,0
1772201156.31311,1772201156.2525432,-434.08203125,-140.625,-905.76171875,73.2421875,0.0,0,0
1772201156.3131468,1772201156.2564342,-1000.0,-146.97265625,-364.74609375,-1000.0,0.0,0,0
1772201156.313183,1772201156.2603254,-203.125,44.43359375,730.46875,-523.4375,0.0,0,0
1772201156.313218,1772201156.2642164,-989.74609375,121.58203125,595.21484375,838.37890625,0.0,0,0
1772201156.3132548,1772201156.2681074,-994.140625,30.76171875,-226.5625,-860.83984375,0.0,0,0
1772201156.313291,1772201156.2719984,-162.109375,-132.32421875,-821.77734375,195.3125,0.0,0,0
1772201156.313327,1772201156.2758896,-1000.0,-180.6640625,-469.23828125,-1000.0,0.0,0,0
1772201156.3582761,1772201156.2799706,-304.6875,-21.97265625,720.21484375,-777.34375,0.0,0,0
1772201156.358397,1772201156.2838616,945.80078125,70.3125,722.65625,598.6328125,0.0,0,0
1772201156.35844,1772201156.2877529,-917.48046875,20.01953125,-43.9453125,-811.5234375,0.0,0,0
1772201156.358479,1772201156.2916439,49.8046875,-154.296875,-744.62890625,161.62109375,0.0,0,0
1772201156.358519,1772201156.2955348,-1000.0,-206.54296875,-533.203125,-1000.0,0.0,0,0
1772201156.3585558,1772201156.299426,-467.28515625,-36.62109375,648.92578125,-986.328125,0.0,0,0
1772201156.3585951,1772201156.303317,852.05078125,72.265625,813.4765625,283.203125,0.0,0,0
1772201156.358631,1772201156.3072083,-874.0234375,18.5546875,116.69921875,-769.53125,0.0,0,0
1772201156.358724,1772201156.3110993,159.66796875,-125.0,-673.828125,142.578125,0.0,0,0
1772201156.358816,1772201156.3149903,-1000.0,-147.94921875,-559.08203125,-1000.0,0.0,0,0
1772201156.35887,1772201156.3188815,-688.4765625,-33.203125,521.484375,-1000.0,0.0,0,0
1772201156.3589,1772201156.3227725,655.76171875,92.7734375,892.578125,27.34375,0.0,0,0
1772201156.40356,1772201156.3268406,-829.1015625,77.1484375,330.078125,-769.04296875,0.0,0,0
1772201156.403659,1772201156.3307316,172.8515625,-126.46484375,-633.30078125,338.8671875,0.0,0,0
1772201156.403701,1772201156.3346229,-1000.0,-208.0078125,-582.51953125,-947.75390625,0.0,0,0
1772201156.40374,1772201156.3385139,-905.2734375,-78.61328125,395.01953125,-1000.0,0.0,0,0
1772201156.403778,1772201156.342405,366.69921875,80.56640625,882.32421875,-148.92578125,0.0,0,0
1772201156.403816,1772201156.3462963,-789.55078125,102.05078125,446.77734375,-822.75390625,0.0,0,0
1772201156.4038541,1772201156.3501873,210.44921875,-89.84375,-634.27734375,536.1328125,0.0,0,0
1772201156.40391,1772201156.3540785,-1000.0,-187.98828125,-662.59765625,-847.65625,0.0,0,0
1772201156.403947,1772201156.3579695,-1000.0,-83.49609375,217.7734375,-1000.0,0.0,0,0
1772201156.404033,1772201156.3618608,130.37109375,74.21875,810.546875,-216.796875,0.0,0,0
1772201156.4040792,1772201156.3657517,-787.109375,108.3984375,503.90625,-916.50390625,0.0,0,0
1772201156.404118,1772201156.369643,335.44921875,-62.01171875,-625.9765625,799.8046875,0.0,0,0
1772201156.447525,1772201156.3736987,-958.0078125,-166.015625,-780.76171875,-561.03515625,0.0,0,0
1772201156.447634,1772201156.37759,-1000.0,-86.9140625,48.828125,-1000.0,0.0,0,0
1772201156.447675,1772201156.381481,-44.43359375,76.171875,765.625,-182.6171875,0.0,0,0
1772201156.447714,1772201156.3853722,-831.54296875,114.74609375,522.94921875,-978.02734375,0.0,0,0
1772201156.4480362,1772201156.3892634,541.50390625,-34.1796875,-560.05859375,999.0234375,0.0,0,0
1772201156.448077,1772201156.3931544,-812.98828125,-170.8984375,-860.83984375,-220.21484375,0.0,0,0
1772201156.448123,1772201156.3970456,-1000.0,-140.13671875,-89.35546875,-1000.0,0.0,0,0
1772201156.448159,1772201156.4009366,-136.23046875,29.296875,758.30078125,-251.953125,0.0,0,0
1772201156.4481988,1772201156.4048278,-899.90234375,82.03125,503.41796875,973.14453125,0.0,0,0
1772201156.448235,1772201156.408719,765.625,-26.85546875,-479.00390625,-932.6171875,0.0,0,0
1772201156.448271,1772201156.41261,-571.77734375,-173.33984375,-910.15625,-5.859375,0.0,0,0
1772201156.448307,1772201156.4165013,-1000.0,-143.06640625,-273.4375,-1000.0,0.0,0,0
1772201156.508387,1772201156.4206367,-153.80859375,54.19921875,749.51171875,-437.5,0.0,0,0
1772201156.508522,1772201156.424528,-960.9375,107.421875,555.17578125,882.8125,0.0,0,0
1772201156.508564,1772201156.428419,950.68359375,9.27734375,-321.2890625,-879.39453125,0.0,0,0
1772201156.5086021,1772201156.43231,-270.99609375,-132.32421875,-871.09375,169.43359375,0.0,0,0
1772201156.50864,1772201156.4362013,-1000.0,-153.3203125,-424.31640625,-1000.0,0.0,0,0
1772201156.508676,1772201156.4400926,-242.1875,15.625,745.1171875,-656.25,0.0,0,0
1772201156.508716,1772201156.4439838,980.95703125,104.00390625,650.390625,733.88671875,0.0,0,0
1772201156.508754,1772201156.447875,-949.21875,24.4140625,-174.8046875,-835.9375,0.0,0,0
1772201156.50879,1772201156.451766,-44.921875,-131.34765625,-793.9453125,176.7578125,0.0,0,0
1772201156.5088289,1772201156.4556572,-1000.0,-158.203125,-498.53515625,-1000.0,0.0,0,0
1772201156.508864,1772201156.4595485,-375.48828125,22.4609375,694.3359375,-899.4140625,0.0,0,0
1772201156.5089018,1772201156.4634397,910.15625,117.67578125,771.97265625,426.26953125,0.0,0,0
1772201156.539267,1772201156.4674835,-895.5078125,54.19921875,52.734375,-785.15625,0.0,0,0
1772201156.5394292,1772201156.4713748,119.62890625,-107.421875,-701.171875,147.4609375,0.0,0,0
1772201156.539487,1772201156.475266,-1000.0,-145.01953125,-548.33984375,-1000.0,0.0,0,0
1772201156.53953,1772201156.4791572,-576.66015625,12.20703125,596.19140625,-1000.0,0.0,0,0
1772201156.539567,1772201156.4830484,764.16015625,113.76953125,867.67578125,113.28125,0.0,0,0
1772201156.539606,1772201156.4869397,-851.07421875,79.1015625,244.62890625,-760.25390625,0.0,0,0
1772201156.5396428,1772201156.4908307,174.31640625,-93.75,-643.5546875,247.0703125,0.0,0,0
1772201156.53968,1772201156.494722,-1000.0,-166.015625,-570.80078125,-990.72265625,0.0,0,0
1772201156.539716,1772201156.498613,-816.89453125,-37.109375,457.51953125,-1000.0,0.0,0,0
1772201156.539753,1772201156.5025043,501.953125,117.1875,891.11328125,-71.77734375,0.0,0,0
1772201156.5397918,1772201156.5063956,-804.6875,98.14453125,386.71875,-793.45703125,0.0,0,0
1772201156.539829,1772201156.5102868,178.7109375,-105.46875,-630.37109375,437.5,0.0,0,0
1772201156.5969238,1772201156.5143101,-1000.0,-164.55078125,-624.51171875,-897.94921875,0.0,0,0
1772201156.597101,1772201156.5182014,-969.7265625,-52.734375,300.29296875,-1000.0,0.0,0,0
1772201156.597162,1772201156.5220926,242.67578125,104.98046875,849.12109375,-233.88671875,0.0,0,0
1772201156.597215,1772201156.5259838,-784.66796875,131.34765625,501.953125,-884.765625,0.0,0,0
1772201156.597266,1772201156.529875,241.69921875,-55.17578125,-614.2578125,690.4296875,0.0,0,0
1772201156.597326,1772201156.5337663,-988.28125,-153.3203125,-719.23828125,-703.61328125,0.0,0,0
1772201156.597378,1772201156.5376575,-1000.0,-81.54296875,145.99609375,-1000.0,0.0,0,0
1772201156.5975602,1772201156.5415487,-65.4296875,89.35546875,780.2734375,-197.75390625,0.0,0,0
1772201156.5976489,1772201156.54544,-810.05859375,137.6953125,544.921875,-950.1953125,0.0,0,0
1772201156.597711,1772201156.5493312,384.27734375,-47.36328125,-559.08203125,915.0390625,0.0,0,0
1772201156.597764,1772201156.5532224,-919.43359375,-166.9921875,-819.82421875,-386.23046875,0.0,0,0
1772201156.597816,1772201156.5571136,-1000.0,-101.5625,2.44140625,-1000.0,0.0,0,0
1772201156.644258,1772201156.5611265,-174.31640625,65.4296875,771.97265625,-172.8515625,0.0,0,0
1772201156.644424,1772201156.5650177,-866.69921875,126.953125,515.625,-992.67578125,0.0,0,0
1772201156.6445818,1772201156.568909,606.4453125,-8.30078125,-536.62109375,-961.42578125,0.0,0,0
1772201156.6446562,1772201156.5728004,-744.140625,-138.18359375,-894.53125,-92.28515625,0.0,0,0
1772201156.644711,1772201156.5766916,-1000.0,-98.6328125,-207.03125,-1000.0,0.0,0,0
1772201156.644761,1772201156.5805829,-201.171875,77.63671875,719.23828125,-350.5859375,0.0,0,0
1772201156.644812,1772201156.584474,-934.5703125,125.9765625,517.578125,927.24609375,0.0,0,0
1772201156.644863,1772201156.5883653,822.75390625,27.34375,-427.734375,-902.83203125,0.0,0,0
1772201156.6449122,1772201156.5922565,-473.14453125,-114.74609375,-903.80859375,88.8671875,0.0,0,0
1772201156.644964,1772201156.5961478,-1000.0,-138.671875,-370.1171875,-1000.0,0.0,0,0
1772201156.645011,1772201156.600039,-231.4453125,60.05859375,719.23828125,-539.0625,0.0,0,0
1772201156.645061,1772201156.6039302,-995.1171875,161.62109375,598.14453125,830.56640625,0.0,0,0
1772201156.688017,1772201156.60802,988.28125,67.3828125,-254.39453125,-857.91015625,0.0,0,0
1772201156.6881468,1772201156.6119113,-192.3828125,-100.5859375,-840.33203125,192.3828125,0.0,0,0
1772201156.6882062,1772201156.6158025,-1000.0,-116.69921875,-486.81640625,-1000.0,0.0,0,0
1772201156.68826,1772201156.6196938,-363.28125,84.9609375,700.1953125,-800.29296875,0.0,0,0
1772201156.6883001,1772201156.6235852,920.8984375,186.03515625,716.796875,568.84765625,0.0,0,0
1772201156.6883368,1772201156.6274765,-924.8046875,103.02734375,-55.6640625,-806.15234375,0.0,0,0
1772201156.688375,1772201156.6313677,12.20703125,-109.86328125,-738.76953125,158.203125,0.0,0,0
1772201156.688412,1772201156.635259,-1000.0,-173.33984375,-542.48046875,-1000.0,0.0,0,0
1772201156.688447,1772201156.6391504,-536.1328125,12.20703125,600.5859375,-1000.0,0.0,0,0
1772201156.688533,1772201156.6430416,802.734375,156.73828125,818.84765625,242.1875,0.0,0,0
1772201156.688622,1772201156.6469328,-863.28125,125.48828125,157.71484375,-766.11328125,0.0,0,0
1772201156.688666,1772201156.650824,129.39453125,-68.84765625,-661.62109375,171.875,0.0,0,0
1772201156.732548,1772201156.6549,-1000.0,-137.20703125,-572.75390625,-1000.0,0.0,0,0
1772201156.732641,1772201156.6587915,-765.625,3.90625,490.72265625,-1000.0,0.0,0,0
1772201156.732682,1772201156.6626828,572.265625,140.625,881.8359375,8.7890625,0.0,0,0
1772201156.7327201,1772201156.666574,-816.40625,117.67578125,296.875,-772.94921875,0.0,0,0
1772201156.732756,1772201156.6704655,153.80859375,-91.30859375,-653.80859375,349.609375,0.0,0,0
1772201156.732796,1772201156.6743567,-1000.0,-180.17578125,-596.6796875,-942.87109375,0.0,0,0
1772201156.7328682,1772201156.678248,-968.26171875,-81.54296875,351.5625,-1000.0,0.0,0,0
1772201156.732936,1772201156.6821394,271.97265625,70.80078125,870.60546875,-168.45703125,0.0,0,0
1772201156.73298,1772201156.6860306,-793.9453125,89.84375,425.78125,-829.1015625,0.0,0,0
1772201156.733022,1772201156.689922,173.828125,-94.23828125,-655.76171875,539.0625,0.0,0,0
1772201156.7330592,1772201156.6938133,-1000.0,-166.9921875,-661.1328125,-849.12109375,0.0,0,0
1772201156.733096,1772201156.6977046,-1000.0,-64.453125,219.23828125,-1000.0,0.0,0,0
1772201156.808293,1772201156.7019448,12.20703125,106.93359375,806.640625,-215.33203125,0.0,0,0
1772201156.808436,1772201156.705836,-834.47265625,134.765625,519.04296875,-920.8984375,0.0,0,0
1772201156.808479,1772201156.7097275,216.30859375,-55.6640625,-598.14453125,815.91796875,0.0,0,0
1772201156.808518,1772201156.7136188,-968.75,-168.9453125,-768.5546875,-539.55078125,0.0,0,0
1772201156.8085592,1772201156.7175102,-1000.0,-95.703125,62.98828125,-1000.0,0.0,0,0
1772201156.808597,1772201156.7214015,-152.83203125,100.09765625,766.6015625,-180.17578125,0.0,0,0
1772201156.808634,1772201156.725293,-855.95703125,147.4609375,517.08984375,-981.4453125,0.0,0,0
1772201156.8086789,1772201156.7291844,438.4765625,-39.55078125,-562.5,-989.2578125,0.0,0,0
1772201156.8089201,1772201156.7330756,-861.81640625,-184.5703125,-856.4453125,-197.265625,0.0,0,0
1772201156.808964,1772201156.736967,-1000.0,-131.8359375,-103.515625,-1000.0,0.0,0,0
1772201156.809001,1772201156.7408583,-202.1484375,59.08203125,737.79296875,-262.20703125,0.0,0,0
1772201156.8090408,1772201156.7447498,-913.0859375,113.28125,500.0,968.75,0.0,0,0
1772201156.824173,1772201156.748812,701.171875,-19.04296875,-488.76953125,-928.7109375,0.0,0,0
1772201156.8243551,1772201156.7527034,-618.1640625,-164.55078125,-900.87890625,5.37109375,0.0,0,0
1772201156.8244019,1772201156.7565947,-1000.0,-144.04296875,-282.2265625,-1000.0,0.0,0,0
1772201156.8244429,1772201156.7604861,-208.0078125,55.17578125,724.12109375,-448.2421875,0.0,0,0
1772201156.824482,1772201156.7643776,-964.84375,132.32421875,545.8984375,876.953125,0.0,0,0
1772201156.8245199,1772201156.7682688,929.19921875,32.71484375,-308.59375,-876.953125,0.0,0,0
1772201156.824557,1772201156.7721603,-316.40625,-128.41796875,-852.5390625,178.22265625,0.0,0,0
1772201156.824595,1772201156.7760518,-1000.0,-150.390625,-431.640625,-1000.0,0.0,0,0
1772201156.82463,1772201156.7799432,-263.18359375,39.55078125,728.515625,-676.7578125,0.0,0,0
1772201156.824666,1772201156.7838345,972.65625,127.9296875,655.2734375,713.8671875,0.0,0,0
1772201156.824702,1772201156.787726,-954.58984375,55.6640625,-155.76171875,-832.03125,0.0,0,0
1772201156.824738,1772201156.7916174,-60.05859375,-106.93359375,-785.15625,174.31640625,0.0,0,0
1772201156.8676522,1772201156.7956605,-1000.0,-149.4140625,-504.8828125,-1000.0,0.0,0,0
1772201156.867753,1772201156.799552,-402.34375,23.4375,680.6640625,-910.64453125,0.0,0,0
1772201156.867794,1772201156.8034434,895.5078125,127.9296875,770.01953125,409.1796875,0.0,0,0
1772201156.867832,1772201156.807335,-892.08984375,94.7265625,31.25,-782.71484375,0.0,0,0
1772201156.867869,1772201156.8112261,110.83984375,-99.609375,-719.7265625,146.484375,0.0,0,0
1772201156.867906,1772201156.8151176,-1000.0,-180.17578125,-501.46484375,-1000.0,0.0,0,0
1772201156.8679402,1772201156.819009,-623.046875,-24.90234375,632.32421875,-1000.0,0.0,0,0
1772201156.867976,1772201156.8229005,728.515625,143.5546875,861.328125,98.14453125,0.0,0,0
1772201156.868012,1772201156.826792,-842.28515625,110.83984375,199.21875,-761.71875,0.0,0,0
1772201156.868049,1772201156.8306832,169.43359375,-134.27734375,-693.359375,263.18359375,0.0,0,0
1772201156.868087,1772201156.8345747,-1000.0,-174.31640625,-540.0390625,-984.375,0.0,0,0
1772201156.8681228,1772201156.8384662,-814.94140625,-30.2734375,498.046875,-1000.0,0.0,0,0
1772201156.913559,1772201156.842499,503.41796875,102.5390625,902.83203125,-78.61328125,0.0,0,0
1772201156.913693,1772201156.8463905,-806.640625,104.00390625,372.55859375,-795.41015625,0.0,0,0
1772201156.9137511,1772201156.850282,173.33984375,-87.40234375,-661.62109375,438.4765625,0.0,0,0
1772201156.913804,1772201156.8541734,-1000.0,-178.22265625,-607.91015625,-898.4375,0.0,0,0
1772201156.913857,1772201156.858065,-984.86328125,-62.5,325.1953125,-1000.0,0.0,0,0
1772201156.913907,1772201156.8619564,222.65625,98.14453125,849.12109375,-233.88671875,0.0,0,0
1772201156.913957,1772201156.8658478,-781.73828125,136.71875,464.35546875,-884.27734375,0.0,0,0
1772201156.914007,1772201156.8697393,256.34765625,-34.66796875,-656.25,690.4296875,0.0,0,0
1772201156.914057,1772201156.8736305,-989.2578125,-171.875,-695.80078125,-703.61328125,0.0,0,0
1772201156.9141068,1772201156.877522,-1000.0,-96.19140625,202.63671875,-1000.0,0.0,0,0
1772201156.9141572,1772201156.8814135,-27.34375,66.40625,806.15234375,-197.265625,0.0,0,0
1772201156.914206,1772201156.885305,-803.7109375,107.421875,487.79296875,-951.171875,0.0,0,0
1772201156.970809,1772201156.8893306,422.8515625,-56.15234375,-621.58203125,918.45703125,0.0,0,0
1772201156.97086,1772201156.893222,-899.90234375,-178.7109375,-812.98828125,-381.34765625,0.0,0,0
1772201156.970879,1772201156.8971136,-1000.0,-105.95703125,13.671875,-1000.0,0.0,0,0
1772201156.9708958,1772201156.901005,-150.87890625,67.87109375,775.390625,-172.36328125,0.0,0,0
1772201156.970913,1772201156.9048965,-864.74609375,94.7265625,493.1640625,-993.1640625,0.0,0,0
1772201156.9709299,1772201156.908788,649.4140625,-65.91796875,-535.64453125,-960.9375,0.0,0,0
1772201156.970947,1772201156.9126794,-710.44921875,-114.2578125,-886.23046875,-89.35546875,0.0,0,0
1772201156.970964,1772201156.916571,-1000.0,-81.54296875,-164.55078125,-1000.0,0.0,0,0
1772201156.970979,1772201156.9204624,-180.17578125,14.16015625,764.6484375,-355.46875,0.0,0,0
1772201156.970996,1772201156.9243538,-935.546875,72.75390625,500.48828125,925.29296875,0.0,0,0
1772201156.971012,1772201156.9282453,871.09375,-45.41015625,-409.66796875,-901.3671875,0.0,0,0
1772201156.9710279,1772201156.9321368,-418.9453125,-208.984375,-880.37109375,92.28515625,0.0,0,0
1772201157.0161831,1772201156.9361444,-1000.0,-212.40234375,-330.078125,-1000.0,0.0,0,0
1772201157.016225,1772201156.9400358,-214.84375,3.90625,770.5078125,-543.9453125,0.0,0,0
1772201157.0162408,1772201156.9439273,-995.1171875,90.8203125,581.54296875,828.125,0.0,0,0
1772201157.016256,1772201156.9478188,-987.79296875,11.23046875,-270.5078125,-856.93359375,0.0,0,0
1772201157.0162718,1772201156.9517102,-150.87890625,-143.5546875,-835.44921875,191.89453125,0.0,0,0
1772201157.016287,1772201156.9556017,-1000.0,-162.109375,-427.24609375,-1000.0,0.0,0,0
1772201157.0163,1772201156.9594932,-315.91796875,7.8125,766.6015625,-801.26953125,0.0,0,0
1772201157.016315,1772201156.9633846,940.4296875,73.73046875,708.0078125,567.3828125,0.0,0,0
1772201157.016329,1772201156.967276,-914.55078125,14.6484375,-100.5859375,-805.6640625,0.0,0,0
1772201157.016343,1772201156.9711676,60.05859375,-149.90234375,-770.01953125,157.71484375,0.0,0,0
1772201157.0163572,1772201156.9750593,-1000.0,-180.17578125,-502.44140625,-1000.0,0.0,0,0
1772201157.016371,1772201156.9789507,-493.1640625,-1.46484375,665.0390625,-1000.0,0.0,0,0
1772201157.0626922,1772201156.9830337,836.42578125,104.4921875,802.734375,239.2578125,0.0,0,0
1772201157.062727,1772201156.9869251,-869.62890625,67.87109375,75.68359375,-766.11328125,0.0,0,0
1772201157.062748,1772201156.9908168,161.62109375,-116.69921875,-705.56640625,170.8984375,0.0,0,0
1772201157.0627682,1772201156.9947083,-1000.0,-195.3125,-533.69140625,-1000.0,0.0,0,0
1772201157.06279,1772201156.9985998,-729.98046875,-40.0390625,536.62109375,-1000.0,0.0,0,0
1772201157.062809,1772201157.0024912,618.65234375,107.421875,887.20703125,10.7421875,0.0,0,0
1772201157.06283,1772201157.0063827,-821.2890625,86.9140625,271.97265625,-772.94921875,0.0,0,0
1772201157.0628989,1772201157.0102744,171.38671875,-111.328125,-689.94140625,351.5625,0.0,0,0
1772201157.0629508,1772201157.0141659,-1000.0,-182.12890625,-565.4296875,-941.40625,0.0,0,0
1772201157.062975,1772201157.0180573,-888.18359375,-51.26953125,419.921875,-1000.0,0.0,0,0
1772201157.062996,1772201157.0219488,380.859375,83.0078125,838.8671875,-169.921875,0.0,0,0
1772201157.063016,1772201157.0258403,-792.48046875,86.9140625,369.140625,-829.1015625,0.0,0,0
1772201157.107198,1772201157.0299125,216.30859375,-104.00390625,-658.69140625,539.55078125,0.0,0,0
1772201157.107251,1772201157.033804,-1000.0,-183.59375,-653.3203125,-849.609375,0.0,0,0
1772201157.107269,1772201157.0376956,-1000.0,-65.91796875,225.09765625,-1000.0,0.0,0,0
1772201157.107286,1772201157.041587,116.69921875,74.70703125,802.24609375,-215.33203125,0.0,0,0
1772201157.107326,1772201157.0454786,-788.0859375,113.76953125,467.28515625,-920.41015625,0.0,0,0
1772201157.107371,1772201157.0493703,351.5625,-56.640625,-666.015625,815.91796875,0.0,0,0
1772201157.1073909,1772201157.0532618,-945.80078125,-178.7109375,-750.0,-539.55078125,0.0,0,0
1772201157.107409,1772201157.0571532,-1000.0,-95.21484375,110.83984375,-1000.0,0.0,0,0
1772201157.107425,1772201157.061045,-74.70703125,55.6640625,783.203125,-180.6640625,0.0,0,0
1772201157.107442,1772201157.0649364,-835.44921875,59.5703125,477.05078125,-981.4453125,0.0,0,0
1772201157.107459,1772201157.0688279,562.98828125,-75.1953125,-607.421875,-990.234375,0.0,0,0
1772201157.107475,1772201157.0727196,-793.9453125,-200.1953125,-844.7265625,-197.75390625,0.0,0,0
1772201157.152,1772201157.0767808,-1000.0,-146.484375,-34.66796875,-1000.0,0.0,0,0
1772201157.15204,1772201157.0806723,-158.203125,54.19921875,783.69140625,-269.04296875,0.0,0,0
1772201157.1520529,1772201157.084564,-902.83203125,110.83984375,483.88671875,966.796875,0.0,0,0
1772201157.152065,1772201157.0884554,773.4375,-29.296875,-494.140625,-928.22265625,0.0,0,0
1772201157.152076,1772201157.092347,-558.10546875,-169.921875,-898.92578125,3.41796875,0.0,0,0
1772201157.152086,1772201157.0962386,-1000.0,-133.30078125,-228.02734375,-1000.0,0.0,0,0
1772201157.152096,1772201157.10013,-196.77734375,51.26953125,783.69140625,-449.21875,0.0,0,0
1772201157.152107,1772201157.1040218,-967.7734375,102.5390625,522.94921875,876.46484375,0.0,0,0
1772201157.152117,1772201157.1079133,955.078125,-38.57421875,-356.4453125,-876.46484375,0.0,0,0
1772201157.152127,1772201157.111805,-272.94921875,-187.5,-864.74609375,178.22265625,0.0,0,0
1772201157.152138,1772201157.1156964,-1000.0,-151.3671875,-384.765625,-1000.0,0.0,0,0
1772201157.152147,1772201157.119588,-270.5078125,45.8984375,782.2265625,-677.24609375,0.0,0,0
1772201157.197161,1772201157.123638,968.26171875,123.53515625,646.97265625,713.37890625,0.0,0,0
1772201157.1971898,1772201157.1275294,-942.87109375,63.96484375,-154.78515625,-832.03125,0.0,0,0
1772201157.197205,1772201157.131421,-39.0625,-115.72265625,-775.390625,173.828125,0.0,0,0
1772201157.1972191,1772201157.1353126,-1000.0,-174.8046875,-455.56640625,-1000.0,0.0,0,0
1772201157.197231,1772201157.1392043,-427.24609375,5.37109375,742.67578125,-916.015625,0.0,0,0
1772201157.197244,1772201157.1430957,879.39453125,115.234375,759.765625,400.87890625,0.0,0,0
1772201157.197259,1772201157.1469874,-886.23046875,62.98828125,-11.23046875,-781.73828125,0.0,0,0
1772201157.197272,1772201157.1508791,121.09375,-145.99609375,-741.69921875,146.484375,0.0,0,0
1772201157.1972852,1772201157.1547706,-1000.0,-204.58984375,-495.60546875,-1000.0,0.0,0,0
1772201157.1972969,1772201157.1586623,-635.7421875,-15.13671875,640.625,-1000.0,0.0,0,0
1772201157.197309,1772201157.1625538,717.28515625,131.34765625,861.81640625,98.6328125,0.0,0,0
1772201157.197322,1772201157.1664455,-840.33203125,99.12109375,213.37890625,-761.71875,0.0,0,0
1772201157.243702,1772201157.1704895,169.921875,-124.51171875,-680.17578125,266.6015625,0.0,0,0
1772201157.2437289,1772201157.1743813,-1000.0,-185.05859375,-516.11328125,-981.93359375,0.0,0,0
1772201157.243745,1772201157.178273,-850.09765625,-45.41015625,519.04296875,-1000.0,0.0,0,0
1772201157.2437592,1772201157.1821644,462.890625,101.07421875,896.484375,-82.51953125,0.0,0,0
1772201157.243777,1772201157.1860561,-797.8515625,107.421875,334.47265625,-797.36328125,0.0,0,0
1772201157.243791,1772201157.1899476,178.22265625,-96.6796875,-702.63671875,448.73046875,0.0,0,0
1772201157.243806,1772201157.1938393,-1000.0,-186.5234375,-591.30859375,-893.06640625,0.0,0,0
1772201157.24382,1772201157.197731,-998.046875,-41.50390625,353.02734375,-1000.0,0.0,0,0
1772201157.243835,1772201157.2016225,199.21875,117.1875,860.83984375,-232.91015625,0.0,0,0
1772201157.243849,1772201157.2055142,-779.78515625,101.5625,451.66015625,-884.765625,0.0,0,0
1772201157.243863,1772201157.209406,270.01953125,-89.35546875,-680.17578125,690.4296875,0.0,0,0
1772201157.2438982,1772201157.2132974,-982.91015625,-176.26953125,-697.75390625,-703.61328125,0.0,0,0
1772201157.286994,1772201157.217331,-1000.0,-64.94140625,210.44921875,-1000.0,0.0,0,0
1772201157.287033,1772201157.2212226,-39.55078125,111.81640625,804.19921875,-196.2890625,0.0,0,0
1772201157.287056,1772201157.225114,-807.12890625,167.96875,488.28125,-954.58984375,0.0,0,0
1772201157.287076,1772201157.2290058,452.63671875,-17.08984375,-604.4921875,928.22265625,0.0,0,0
1772201157.2871192,1772201157.2328975,-880.37109375,-164.55078125,-816.40625,-366.2109375,0.0,0,0
1772201157.287152,1772201157.2367892,-1000.0,-76.66015625,26.3671875,-1000.0,0.0,0,0
1772201157.2871711,1772201157.2406807,-159.66796875,123.046875,797.36328125,-172.36328125,0.0,0,0
1772201157.2871912,1772201157.2445724,-871.58203125,151.85546875,458.984375,-992.67578125,0.0,0,0
1772201157.287211,1772201157.248464,670.41015625,-9.765625,-582.03125,-960.44921875,0.0,0,0
1772201157.28723,1772201157.2523558,-686.03515625,-150.390625,-890.13671875,-88.8671875,0.0,0,0
1772201157.2872498,1772201157.2562473,-1000.0,-139.6484375,-159.1796875,-1000.0,0.0,0,0
1772201157.2872682,1772201157.260139,-188.96484375,47.8515625,775.390625,-356.4453125,0.0,0,0
1772201157.348245,1772201157.2641609,-943.84765625,111.328125,482.421875,923.33984375,0.0,0,0
1772201157.348326,1772201157.2680523,892.08984375,-1.46484375,-435.546875,-900.390625,0.0,0,0
1772201157.348354,1772201157.271944,-385.7421875,-145.99609375,-884.765625,101.07421875,0.0,0,0
1772201157.348382,1772201157.2758358,-1000.0,-141.6015625,-295.41015625,-1000.0,0.0,0,0
1772201157.348407,1772201157.2797275,-224.609375,46.38671875,820.80078125,-547.8515625,0.0,0,0
1772201157.3484359,1772201157.2836192,998.046875,124.0234375,569.82421875,827.1484375,0.0,0,0
1772201157.34846,1772201157.2875106,-977.05078125,45.8984375,-273.4375,-856.4453125,0.0,0,0
1772201157.348486,1772201157.2914023,-125.48828125,-130.37109375,-821.77734375,190.91796875,0.0,0,0
1772201157.34851,1772201157.295294,-1000.0,-153.80859375,-439.94140625,-1000.0,0.0,0,0
1772201157.348532,1772201157.2991858,-327.63671875,45.8984375,766.11328125,-807.6171875,0.0,0,0
1772201157.348556,1772201157.3030775,934.08203125,132.8125,711.42578125,559.5703125,0.0,0,0
1772201157.3485792,1772201157.3069692,-910.64453125,67.87109375,-80.078125,-804.19921875,0.0,0,0
1772201157.441439,1772201157.3113184,75.1953125,-120.60546875,-751.46484375,156.73828125,0.0,0,0
1772201157.441577,1772201157.31521,-1000.0,-184.5703125,-479.00390625,-1000.0,0.0,0,0
1772201157.441634,1772201157.3191018,-529.78515625,-0.9765625,694.3359375,-1000.0,0.0,0,0
1772201157.441687,1772201157.3229935,809.5703125,131.34765625,824.21875,228.02734375,0.0,0,0
1772201157.441739,1772201157.3268852,-862.3046875,72.75390625,127.44140625,-764.6484375,0.0,0,0
1772201157.441793,1772201157.3307772,162.109375,-107.91015625,-682.6171875,186.03515625,0.0,0,0
1772201157.441845,1772201157.3346689,-1000.0,-152.34375,-509.27734375,-1000.0,0.0,0,0
1772201157.4418938,1772201157.3385606,-748.046875,-31.73828125,572.265625,-1000.0,0.0,0,0
1772201157.442009,1772201157.3424523,596.19140625,87.890625,894.04296875,-3.90625,0.0,0,0
1772201157.442142,1772201157.346344,-817.87109375,109.375,306.640625,-775.87890625,0.0,0,0
1772201157.4422028,1772201157.3502357,167.96875,-72.75390625,-677.24609375,357.91015625,0.0,0,0
1772201157.442257,1772201157.3541274,-1000.0,-181.640625,-559.08203125,-938.96484375,0.0,0,0
1772201157.4437718,1772201157.3582485,-928.7109375,-63.4765625,430.6640625,-1000.0,0.0,0,0
1772201157.444267,1772201157.3621404,327.63671875,101.5625,882.32421875,-177.24609375,0.0,0,0
1772201157.444333,1772201157.3660321,-785.15625,104.4921875,394.53125,-833.49609375,0.0,0,0
1772201157.444374,1772201157.3699238,220.703125,-106.4453125,-700.68359375,547.8515625,0.0,0,0
1772201157.444533,1772201157.3738155,-1000.0,-187.98828125,-640.625,-842.28515625,0.0,0,0
1772201157.444583,1772201157.3777075,-1000.0,-88.37890625,284.1796875,-1000.0,0.0,0,0
1772201157.444837,1772201157.3815992,74.70703125,62.5,830.56640625,-214.84375,0.0,0,0
1772201157.4454951,1772201157.385491,-786.62109375,87.890625,458.0078125,-920.41015625,0.0,0,0
1772201157.4456372,1772201157.3893826,359.86328125,-89.35546875,-665.0390625,815.91796875,0.0,0,0
1772201157.445684,1772201157.3932745,-936.5234375,-198.2421875,-761.23046875,-539.55078125,0.0,0,0
1772201157.445756,1772201157.3971663,-1000.0,-114.74609375,110.3515625,-1000.0,0.0,0,0
1772201157.445837,1772201157.401058,-115.234375,80.56640625,796.38671875,-178.7109375,0.0,0,0
1772201157.482076,1772201157.405131,-840.33203125,134.27734375,471.6796875,-985.3515625,0.0,0,0
1772201157.482118,1772201157.409023,573.2421875,-41.9921875,-604.00390625,-979.4921875,0.0,0,0
1772201157.482185,1772201157.4129148,-783.69140625,-187.01171875,-854.00390625,-177.24609375,0.0,0,0
1772201157.482263,1772201157.4168065,-1000.0,-139.6484375,-79.58984375,-1000.0,0.0,0,0
1772201157.482281,1772201157.4206984,-181.640625,57.12890625,765.13671875,-268.5546875,0.0,0,0
1772201157.4822981,1772201157.42459,-914.0625,129.39453125,465.8203125,966.30859375,0.0,0,0
1772201157.482315,1772201157.428482,805.17578125,-15.13671875,-508.30078125,-926.26953125,0.0,0,0
1772201157.482332,1772201157.4323738,-519.53125,-187.01171875,-892.578125,13.18359375,0.0,0,0
1772201157.482348,1772201157.4362655,-1000.0,-165.52734375,-256.34765625,-1000.0,0.0,0,0
1772201157.482363,1772201157.4401574,-198.2421875,43.45703125,769.04296875,-454.58984375,0.0,0,0
1772201157.48238,1772201157.4440491,-975.09765625,122.0703125,525.390625,874.0234375,0.0,0,0
1772201157.482396,1772201157.447941,973.14453125,22.4609375,-360.3515625,-875.0,0.0,0,0
1772201157.528685,1772201157.4520035,-235.83984375,-150.390625,-866.2109375,185.546875,0.0,0,0
1772201157.5287218,1772201157.4558954,-1000.0,-167.96875,-380.37109375,-1000.0,0.0,0,0
1772201157.528733,1772201157.4597871,-272.4609375,39.55078125,796.38671875,-689.453125,0.0,0,0
1772201157.5287418,1772201157.463679,965.33203125,128.90625,645.01953125,702.1484375,0.0,0,0
1772201157.528752,1772201157.4675708,-935.546875,43.9453125,-181.640625,-829.58984375,0.0,0,0
1772201157.52876,1772201157.4714627,-9.765625,-134.27734375,-781.25,172.8515625,0.0,0,0
1772201157.528769,1772201157.4753544,-1000.0,-170.8984375,-464.35546875,-1000.0,0.0,0,0
1772201157.528778,1772201157.4792464,-428.7109375,28.80859375,723.14453125,-921.38671875,0.0,0,0
1772201157.528787,1772201157.483138,878.41796875,155.2734375,770.01953125,392.08984375,0.0,0,0
1772201157.528796,1772201157.48703,-884.27734375,89.84375,18.06640625,-780.76171875,0.0,0,0
1772201157.528822,1772201157.4909217,135.25390625,-116.69921875,-724.12109375,145.99609375,0.0,0,0
1772201157.528844,1772201157.4948137,-1000.0,-180.17578125,-489.2578125,-1000.0,0.0,0,0
1772201157.571569,1772201157.498865,-649.4140625,-7.32421875,632.32421875,-1000.0,0.0,0,0
1772201157.5716,1772201157.5027566,704.1015625,127.44140625,866.69921875,88.37890625,0.0,0,0
1772201157.571611,1772201157.5066485,-837.40234375,109.375,212.40234375,-762.6953125,0.0,0,0
1772201157.571619,1772201157.5105402,172.36328125,-93.26171875,-689.94140625,280.2734375,0.0,0,0
1772201157.571628,1772201157.5144322,-1000.0,-180.6640625,-537.59765625,-975.09765625,0.0,0,0
1772201157.571636,1772201157.5183241,-845.703125,-18.06640625,494.62890625,-1000.0,0.0,0,0
1772201157.571645,1772201157.5222158,460.9375,135.25390625,900.390625,-98.6328125,0.0,0,0
1772201157.5716858,1772201157.5261078,-798.33984375,122.55859375,333.49609375,-802.24609375,0.0,0,0
1772201157.571745,1772201157.5299995,185.05859375,-63.4765625,-706.0546875,458.984375,0.0,0,0
1772201157.5717561,1772201157.5338914,-1000.0,-173.828125,-591.796875,-888.671875,0.0,0,0
1772201157.571789,1772201157.5377834,-1000.0,-76.171875,329.58984375,-1000.0,0.0,0,0
1772201157.5718021,1772201157.541675,182.12890625,97.65625,837.40234375,-231.93359375,0.0,0,0
1772201157.616672,1772201157.5457163,-780.2734375,96.6796875,440.91796875,-886.71875,0.0,0,0
1772201157.616701,1772201157.549608,289.0625,-101.5625,-688.4765625,696.77734375,0.0,0,0
1772201157.61671,1772201157.5535,-975.09765625,-169.921875,-712.40234375,-695.80078125,0.0,0,0
1772201157.616718,1772201157.557392,-1000.0,-79.1015625,168.9453125,-1000.0,0.0,0,0
1772201157.616726,1772201157.5612838,-42.48046875,84.47265625,795.8984375,-195.80078125,0.0,0,0
1772201157.616735,1772201157.5651755,-811.5234375,125.48828125,468.26171875,-954.1015625,0.0,0,0
1772201157.6167428,1772201157.5690675,472.65625,-49.31640625,-638.18359375,928.7109375,0.0,0,0
1772201157.6167512,1772201157.5729594,-864.74609375,-174.8046875,-811.03515625,-366.2109375,0.0,0,0
1772201157.61676,1772201157.5768511,-1000.0,-127.9296875,1.953125,-1000.0,0.0,0,0
1772201157.616768,1772201157.580743,-166.015625,38.57421875,765.625,-171.38671875,0.0,0,0
1772201157.616776,1772201157.584635,-880.37109375,83.49609375,468.26171875,-995.1171875,0.0,0,0
1772201157.6167848,1772201157.5885267,700.68359375,-53.7109375,-555.17578125,-957.03125,0.0,0,0
1772201157.6649148,1772201157.5925574,-652.34375,-191.40625,-884.765625,-73.73046875,0.0,0,0
1772201157.6649501,1772201157.5964494,-1000.0,-159.66796875,-181.640625,-1000.0,0.0,0,0
1772201157.6649642,1772201157.6003413,-187.98828125,37.59765625,763.18359375,-366.69921875,0.0,0,0
1772201157.664978,1772201157.604233,-948.2421875,95.21484375,489.74609375,918.9453125,0.0,0,0
1772201157.66499,1772201157.608125,904.78515625,-26.3671875,-442.3828125,-897.4609375,0.0,0,0
1772201157.665001,1772201157.612017,-363.28125,-167.96875,-889.6484375,109.86328125,0.0,0,0
1772201157.665013,1772201157.6159089,-1000.0,-164.55078125,-319.3359375,-1000.0,0.0,0,0
1772201157.665024,1772201157.6198008,-230.46875,17.578125,797.8515625,-555.17578125,0.0,0,0
1772201157.665036,1772201157.6236925,992.67578125,108.88671875,581.54296875,823.73046875,0.0,0,0
1772201157.6650481,1772201157.6275845,-970.21484375,30.76171875,-252.9296875,-854.98046875,0.0,0,0
1772201157.665059,1772201157.6314764,-104.00390625,-145.99609375,-810.546875,188.96484375,0.0,0,0
1772201157.66507,1772201157.6353683,-1000.0,-189.94140625,-427.24609375,-1000.0,0.0,0,0
1772201157.706731,1772201157.6393876,-365.234375,-0.9765625,765.625,-826.171875,0.0,0,0
1772201157.706753,1772201157.6432796,916.50390625,104.4921875,718.75,535.15625,0.0,0,0
1772201157.7067661,1772201157.6471715,-903.80859375,50.78125,-58.10546875,-800.29296875,0.0,0,0
1772201157.7067788,1772201157.6510634,79.1015625,-132.8125,-745.60546875,154.78515625,0.0,0,0
1772201157.7067919,1772201157.6549554,-1000.0,-188.96484375,-496.09375,-1000.0,0.0,0,0
1772201157.706804,1772201157.6588473,-568.359375,-12.20703125,670.8984375,-1000.0,0.0,0,0
1772201157.706832,1772201157.6627393,777.34375,130.37109375,830.56640625,205.078125,0.0,0,0
1772201157.7068532,1772201157.6666312,-854.4921875,108.3984375,99.609375,-762.6953125,0.0,0,0
1772201157.706866,1772201157.670523,158.69140625,-86.9140625,-716.30859375,200.1953125,0.0,0,0
1772201157.706879,1772201157.6744149,-1000.0,-154.78515625,-511.71875,-1000.0,0.0,0,0
1772201157.706891,1772201157.6783068,-793.45703125,-3.41796875,540.52734375,-1000.0,0.0,0,0
1772201157.7069042,1772201157.6821988,541.50390625,151.85546875,887.20703125,-17.578125,0.0,0,0
1772201157.79661,1772201157.686212,-808.59375,143.06640625,290.0390625,-779.78515625,0.0,0,0
1772201157.796654,1772201157.690104,166.9921875,-80.56640625,-700.1953125,380.37109375,0.0,0,0
1772201157.796671,1772201157.693996,-1000.0,-167.48046875,-548.828125,-926.26953125,0.0,0,0
1772201157.7966871,1772201157.697888,-958.0078125,-53.7109375,427.24609375,-1000.0,0.0,0,0
1772201157.796701,1772201157.7017798,281.25,96.19140625,879.39453125,-193.84765625,0.0,0,0
1772201157.796716,1772201157.7056718,-781.25,115.72265625,430.6640625,-846.6796875,0.0,0,0
1772201157.796732,1772201157.7095637,229.4921875,-89.84375,-688.96484375,584.47265625,0.0,0,0
1772201157.796747,1772201157.7134557,-1000.0,-181.15234375,-649.4140625,-807.12890625,0.0,0,0
1772201157.796763,1772201157.7173476,-1000.0,-87.40234375,265.625,-1000.0,0.0,0,0
1772201157.7967758,1772201157.7212396,33.69140625,71.77734375,814.94140625,-211.9140625,0.0,0,0
1772201157.796791,1772201157.7251315,-789.55078125,105.46875,445.80078125,-924.31640625,0.0,0,0
1772201157.7968051,1772201157.7290235,381.34765625,-106.93359375,-678.22265625,830.078125,0.0,0,0
1772201157.8122308,1772201157.733034,-928.7109375,-224.12109375,-776.85546875,-518.06640625,0.0,0,0
1772201157.812272,1772201157.7369258,-1000.0,-125.9765625,86.42578125,-1000.0,0.0,0,0
1772201157.812292,1772201157.7408178,-113.28125,64.94140625,797.36328125,-178.7109375,0.0,0,0
1772201157.81231,1772201157.7447097,-846.6796875,107.421875,458.49609375,-984.86328125,0.0,0,0
1772201157.812327,1772201157.7486017,595.703125,-48.828125,-618.65234375,-979.4921875,0.0,0,0
1772201157.812344,1772201157.7524936,-761.23046875,-191.40625,-856.93359375,-176.7578125,0.0,0,0
1772201157.81236,1772201157.7563856,-1000.0,-149.90234375,-80.078125,-1000.0,0.0,0,0
1772201157.81246,1772201157.7602775,-184.08203125,51.7578125,766.6015625,-268.06640625,0.0,0,0
1772201157.812479,1772201157.7641695,-919.921875,109.86328125,478.515625,964.35546875,0.0,0,0
1772201157.812496,1772201157.7680614,821.2890625,-14.6484375,-482.421875,-924.31640625,0.0,0,0
1772201157.812512,1772201157.7719533,-496.09375,-169.921875,-900.390625,25.390625,0.0,0,0
1772201157.8125281,1772201157.7758453,-1000.0,-158.69140625,-250.9765625,-1000.0,0.0,0,0
1772201157.857067,1772201157.779917,-200.68359375,41.9921875,801.7578125,-464.84375,0.0,0,0
1772201157.857132,1772201157.7838092,-980.95703125,108.3984375,528.3203125,869.140625,0.0,0,0
1772201157.857162,1772201157.7877011,987.79296875,20.99609375,-347.16796875,-872.55859375,0.0,0,0
1772201157.857187,1772201157.791593,-206.0546875,-160.64453125,-855.95703125,193.84765625,0.0,0,0
1772201157.857217,1772201157.795485,-1000.0,-174.31640625,-404.296875,-1000.0,0.0,0,0
1772201157.85724,1772201157.799377,-283.69140625,52.734375,792.48046875,-703.61328125,0.0,0,0
1772201157.857264,1772201157.803269,956.0546875,96.6796875,645.01953125,688.96484375,0.0,0,0
1772201157.857288,1772201157.8071609,-924.8046875,-3.41796875,-206.0546875,-827.1484375,0.0,0,0
1772201157.857311,1772201157.811053,25.390625,-170.41015625,-797.36328125,170.41015625,0.0,0,0
1772201157.857335,1772201157.814945,-1000.0,-189.94140625,-453.125,-1000.0,0.0,0,0
1772201157.857357,1772201157.818837,-439.453125,12.20703125,737.3046875,-936.03515625,0.0,0,0
1772201157.857381,1772201157.8227289,874.0234375,108.88671875,778.3203125,370.1171875,0.0,0,0
1772201157.902411,1772201157.826791,-881.8359375,43.45703125,13.18359375,-777.83203125,0.0,0,0
1772201157.9024808,1772201157.830683,144.53125,-150.87890625,-741.2109375,144.53125,0.0,0,0
1772201157.902508,1772201157.8345752,-1000.0,-191.40625,-482.91015625,-1000.0,0.0,0,0
1772201157.902533,1772201157.8384671,-659.1796875,-32.2265625,641.11328125,-1000.0,0.0,0,0
1772201157.90256,1772201157.842359,692.3828125,96.19140625,873.53515625,73.2421875,0.0,0,0
1772201157.902584,1772201157.846251,-835.44921875,93.26171875,241.2109375,-763.671875,0.0,0,0
1772201157.902611,1772201157.8501432,172.8515625,-103.515625,-674.31640625,295.41015625,0.0,0,0
1772201157.902636,1772201157.8540351,-1000.0,-193.84765625,-526.3671875,-967.7734375,0.0,0,0
1772201157.902661,1772201157.857927,-874.51171875,-43.45703125,492.67578125,-1000.0,0.0,0,0
1772201157.902685,1772201157.861819,422.8515625,123.046875,894.53125,-112.79296875,0.0,0,0
1772201157.902708,1772201157.8657112,-793.45703125,108.88671875,373.046875,-808.10546875,0.0,0,0
1772201157.902735,1772201157.8696032,188.96484375,-92.7734375,-699.70703125,479.00390625,0.0,0,0
1772201157.949366,1772201157.8736558,-1000.0,-165.52734375,-576.66015625,-878.41796875,0.0,0,0
1772201157.949486,1772201157.8775477,-1000.0,-59.08203125,391.11328125,-1000.0,0.0,0,0
1772201157.9495418,1772201157.8814397,152.83203125,90.8203125,856.93359375,-227.5390625,0.0,0,0
1772201157.949596,1772201157.8853319,-780.76171875,96.6796875,419.921875,-895.01953125,0.0,0,0
1772201157.9496489,1772201157.8892238,303.22265625,-101.07421875,-708.984375,726.07421875,0.0,0,0
1772201157.949701,1772201157.893116,-966.30859375,-202.1484375,-706.54296875,-657.2265625,0.0,0,0
1772201157.949756,1772201157.897008,-1000.0,-124.51171875,192.3828125,-1000.0,0.0,0,0
1772201157.9498072,1772201157.9009,-67.3828125,47.36328125,809.5703125,-194.82421875,0.0,0,0
1772201157.94986,1772201157.904792,-818.359375,72.75390625,431.15234375,-954.58984375,0.0,0,0
1772201157.94991,1772201157.908684,495.60546875,-82.03125,-675.29296875,931.15234375,0.0,0,0
1772201157.949961,1772201157.912576,-851.5625,-197.265625,-817.3828125,-359.375,0.0,0,0
1772201157.950012,1772201157.9164681,-1000.0,-145.99609375,24.4140625,-1000.0,0.0,0,0
1772201157.993623,1772201157.920512,-159.1796875,53.7109375,800.78125,-184.08203125,0.0,0,0
1772201157.993741,1772201157.924404,-886.23046875,103.515625,447.265625,-999.51171875,0.0,0,0
1772201157.9937851,1772201157.928296,723.6328125,-39.0625,-574.21875,-954.58984375,0.0,0,0
1772201157.993824,1772201157.932188,-624.0234375,-178.7109375,-901.3671875,-72.265625,0.0,0,0
1772201157.9938638,1772201157.9360802,-1000.0,-154.296875,-165.0390625,-1000.0,0.0,0,0
1772201157.993902,1772201157.9399722,-186.5234375,48.33984375,815.4296875,-366.2109375,0.0,0,0
1772201157.9939399,1772201157.9438643,-955.078125,106.93359375,484.375,918.45703125,0.0,0,0
1772201157.993978,1772201157.9477563,925.78125,-32.71484375,-449.70703125,-895.99609375,0.0,0,0
1772201157.994015,1772201157.9516485,-327.1484375,-194.3359375,-888.18359375,120.1171875,0.0,0,0
1772201157.994058,1772201157.9555404,-1000.0,-163.57421875,-306.15234375,-1000.0,0.0,0,0
1772201157.994099,1772201157.9594326,-235.83984375,57.6171875,820.3125,-564.94140625,0.0,0,0
1772201157.9941351,1772201157.9633245,985.83984375,139.16015625,570.80078125,818.84765625,0.0,0,0
1772201158.03826,1772201157.9673533,-956.54296875,53.22265625,-284.1796875,-853.515625,0.0,0,0
1772201158.0384178,1772201157.9712453,-68.359375,-115.234375,-817.87109375,187.5,0.0,0,0
1772201158.0384781,1772201157.9751375,-1000.0,-145.01953125,-422.36328125,-1000.0,0.0,0,0
1772201158.0385349,1772201157.9790294,-368.1640625,49.31640625,777.83203125,-833.984375,0.0,0,0
1772201158.0385878,1772201157.9829216,914.55078125,137.20703125,715.33203125,525.390625,0.0,0,0
1772201158.03864,1772201157.9868138,-899.4140625,79.58984375,-63.4765625,-797.8515625,0.0,0,0
1772201158.038697,1772201157.9907057,102.5390625,-133.30078125,-748.046875,152.83203125,0.0,0,0
1772201158.038749,1772201157.994598,-1000.0,-216.796875,-471.19140625,-1000.0,0.0,0,0
1772201158.0387998,1772201157.9984899,-570.80078125,-8.30078125,698.73046875,-1000.0,0.0,0,0
1772201158.0388522,1772201158.002382,771.97265625,131.34765625,832.51953125,179.19921875,0.0,0,0
1772201158.038902,1772201158.006274,-843.75,103.02734375,127.9296875,-760.7421875,0.0,0,0
1772201158.0389519,1772201158.0101662,143.5546875,-98.6328125,-714.35546875,210.44921875,0.0,0,0
1772201158.097634,1772201158.0142643,-1000.0,-164.55078125,-471.6796875,-1000.0,0.0,0,0
1772201158.097742,1772201158.0181563,-664.55078125,-9.765625,624.0234375,-1000.0,0.0,0,0
1772201158.097784,1772201158.0220485,535.64453125,112.79296875,891.11328125,-29.296875,0.0,0,0
1772201158.097823,1772201158.0259407,-812.98828125,97.65625,290.52734375,-783.203125,0.0,0,0
1772201158.09786,1772201158.0298328,176.26953125,-96.19140625,-699.21875,399.90234375,0.0,0,0
1772201158.097897,1772201158.0337248,-1000.0,-167.48046875,-536.62109375,-916.9921875,0.0,0,0
1772201158.097934,1772201158.037617,-974.609375,-71.77734375,429.6875,-1000.0,0.0,0,0
1772201158.097972,1772201158.0415092,251.46484375,80.56640625,868.65234375,-199.21875,0.0,0,0
1772201158.098009,1772201158.045401,-779.78515625,122.55859375,403.80859375,-855.95703125,0.0,0,0
1772201158.098046,1772201158.0492933,244.62890625,-76.171875,-709.9609375,611.81640625,0.0,0,0
1772201158.098082,1772201158.0531855,-1000.0,-175.29296875,-654.78515625,-779.296875,0.0,0,0
1772201158.0981178,1772201158.0570774,-1000.0,-87.890625,251.953125,-1000.0,0.0,0,0
1772201158.142962,1772201158.0610821,23.92578125,81.0546875,817.3828125,-208.984375,0.0,0,0
1772201158.143095,1772201158.0649743,-792.96875,119.140625,441.40625,-929.6875,0.0,0,0
1772201158.143158,1772201158.0688665,391.6015625,-58.59375,-688.4765625,847.16796875,0.0,0,0
1772201158.143213,1772201158.0727584,-919.921875,-177.24609375,-771.484375,-491.69921875,0.0,0,0
1772201158.143266,1772201158.0766506,-1000.0,-116.69921875,78.61328125,-1000.0,0.0,0,0
1772201158.143318,1772201158.0805428,-137.20703125,68.359375,784.1796875,-178.22265625,0.0,0,0
1772201158.143369,1772201158.084435,-852.05078125,108.88671875,431.15234375,-985.3515625,0.0,0,0
1772201158.143421,1772201158.0883272,611.81640625,-68.84765625,-648.4375,-977.5390625,0.0,0,0
1772201158.1434722,1772201158.092219,-747.55859375,-190.4296875,-867.1875,-168.45703125,0.0,0,0
1772201158.143522,1772201158.0961113,-1000.0,-163.57421875,-116.2109375,-1000.0,0.0,0,0
1772201158.143571,1772201158.1000035,-187.01171875,13.671875,766.11328125,-283.203125,0.0,0,0
1772201158.143767,1772201158.1038957,-926.7578125,124.0234375,445.80078125,958.984375,0.0,0,0
1772201158.188409,1772201158.107975,841.30859375,3.41796875,-550.78125,-921.875,0.0,0,0
1772201158.188566,1772201158.1118672,-467.28515625,-168.9453125,-916.50390625,24.4140625,0.0,0,0
1772201158.1886332,1772201158.1157591,-1000.0,-151.3671875,-270.01953125,-1000.0,0.0,0,0
1772201158.188685,1772201158.1196513,-202.1484375,50.78125,799.8046875,-464.35546875,0.0,0,0
1772201158.188737,1772201158.1235435,-984.86328125,103.515625,515.13671875,868.1640625,0.0,0,0
1772201158.188788,1772201158.1274357,997.0703125,6.8359375,-380.859375,-871.58203125,0.0,0,0
1772201158.188838,1772201158.1313279,-185.05859375,-169.921875,-863.76953125,205.078125,0.0,0,0
1772201158.188889,1772201158.13522,-1000.0,-183.59375,-398.4375,-1000.0,0.0,0,0
1772201158.188938,1772201158.1391122,-289.0625,40.52734375,799.8046875,-719.23828125,0.0,0,0
1772201158.1889868,1772201158.1430044,953.125,102.5390625,655.76171875,674.8046875,0.0,0,0
1772201158.189038,1772201158.1468966,-921.875,17.578125,-179.19921875,-823.73046875,0.0,0,0
1772201158.189087,1772201158.1507885,39.55078125,-137.6953125,-783.69140625,168.45703125,0.0,0,0
1772201158.233053,1772201158.1548555,-1000.0,-171.875,-444.82421875,-1000.0,0.0,0,0
1772201158.233193,1772201158.1587477,-463.37890625,10.7421875,754.39453125,-947.265625,0.0,0,0
1772201158.233253,1772201158.1626399,857.421875,120.1171875,781.25,353.02734375,0.0,0,0
1772201158.233305,1772201158.166532,-875.9765625,65.91796875,2.9296875,-775.390625,0.0,0,0
1772201158.233357,1772201158.1704242,152.83203125,-130.859375,-744.140625,144.04296875,0.0,0,0
1772201158.233408,1772201158.1743164,-1000.0,-188.96484375,-474.12109375,-1000.0,0.0,0,0
1772201158.2334569,1772201158.1782086,-687.98828125,-29.78515625,645.01953125,-1000.0,0.0,0,0
1772201158.233506,1772201158.1821008,663.57421875,121.58203125,878.41796875,61.5234375,0.0,0,0
1772201158.233564,1772201158.185993,-830.078125,87.40234375,219.23828125,-765.13671875,0.0,0,0
1772201158.233614,1772201158.1898851,169.921875,-142.578125,-704.1015625,309.5703125,0.0,0,0
1772201158.233664,1772201158.1937773,-1000.0,-177.734375,-508.30078125,-960.9375,0.0,0,0
1772201158.233713,1772201158.1976695,-894.53125,-23.92578125,505.859375,-1000.0,0.0,0,0
1772201158.278473,1772201158.201731,391.6015625,111.328125,894.04296875,-124.51171875,0.0,0,0
1772201158.278581,1772201158.2056231,-790.0390625,114.2578125,367.1875,-812.98828125,0.0,0,0
1772201158.278625,1772201158.2095153,196.77734375,-73.2421875,-716.30859375,496.58203125,0.0,0,0
1772201158.2786639,1772201158.2134075,-1000.0,-155.76171875,-592.7734375,-869.140625,0.0,0,0
1772201158.278702,1772201158.2173,-1000.0,-62.5,365.234375,-1000.0,0.0,0,0
1772201158.278738,1772201158.2211921,112.79296875,83.984375,856.4453125,-224.12109375,0.0,0,0
1772201158.278811,1772201158.2250843,-781.25,95.21484375,426.26953125,-902.34375,0.0,0,0
1772201158.278859,1772201158.2289765,312.98828125,-92.28515625,-714.84375,750.9765625,0.0,0,0
1772201158.278898,1772201158.2328687,-958.984375,-177.24609375,-718.75,-624.51171875,0.0,0,0
1772201158.278935,1772201158.2367609,-1000.0,-92.28515625,191.40625,-1000.0,0.0,0,0
1772201158.27897,1772201158.240653,-96.6796875,61.03515625,813.4765625,-190.4296875,0.0,0,0
1772201158.279006,1772201158.2445452,-822.75390625,108.88671875,455.078125,-962.890625,0.0,0,0
1772201158.323999,1772201158.2485986,505.859375,-44.921875,-654.296875,955.56640625,0.0,0,0
1772201158.324131,1772201158.2524908,-842.28515625,-171.38671875,-820.80078125,-309.5703125,0.0,0,0
1772201158.3241751,1772201158.256383,-1000.0,-99.12109375,33.69140625,-1000.0,0.0,0,0
1772201158.324214,1772201158.2602751,-181.640625,98.14453125,801.26953125,-208.984375,0.0,0,0
1772201158.3242528,1772201158.2641673,-893.5546875,148.92578125,439.94140625,992.1875,0.0,0,0
1772201158.32429,1772201158.2680597,737.3046875,-2.44140625,-559.5703125,-948.2421875,0.0,0,0
1772201158.324328,1772201158.271952,-612.3046875,-175.29296875,-893.06640625,-58.59375,0.0,0,0
1772201158.3243678,1772201158.275844,-1000.0,-145.01953125,-199.21875,-1000.0,0.0,0,0
1772201158.324403,1772201158.2797363,-184.5703125,81.54296875,790.0390625,-387.20703125,0.0,0,0
1772201158.32444,1772201158.2836285,-957.51953125,149.90234375,479.98046875,909.1796875,0.0,0,0
1772201158.324477,1772201158.287521,934.08203125,26.3671875,-451.66015625,-892.578125,0.0,0,0
1772201158.3245142,1772201158.291413,-310.05859375,-154.296875,-893.5546875,118.1640625,0.0,0,0
1772201158.3983538,1772201158.2956147,-1000.0,-157.71484375,-302.734375,-1000.0,0.0,0,0
1772201158.398488,1772201158.299507,-248.046875,33.69140625,841.30859375,-566.40625,0.0,0,0
1772201158.398548,1772201158.3033993,980.95703125,92.28515625,581.54296875,817.87109375,0.0,0,0
1772201158.398605,1772201158.3072915,-953.61328125,7.32421875,-268.06640625,-853.02734375,0.0,0,0
1772201158.398657,1772201158.3111837,-63.4765625,-159.1796875,-809.08203125,186.5234375,0.0,0,0
1772201158.398709,1772201158.315076,-1000.0,-197.75390625,-423.33984375,-1000.0,0.0,0,0
1772201158.39875,1772201158.3189683,-382.32421875,-17.08984375,777.83203125,-844.7265625,0.0,0,0
1772201158.3987882,1772201158.3228607,907.2265625,94.7265625,729.00390625,510.7421875,0.0,0,0
1772201158.398825,1772201158.326753,-895.99609375,45.8984375,-62.5,-795.41015625,0.0,0,0
1772201158.3988612,1772201158.330645,109.375,-133.7890625,-753.90625,151.3671875,0.0,0,0
1772201158.398897,1772201158.3345375,-1000.0,-178.22265625,-457.03125,-1000.0,0.0,0,0
1772201158.3989341,1772201158.3384297,-591.796875,-18.5546875,698.73046875,-1000.0,0.0,0,0
1772201158.414033,1772201158.3424652,758.30078125,99.609375,843.75,165.52734375,0.0,0,0
1772201158.4141319,1772201158.3463573,-849.12109375,74.70703125,151.3671875,-759.27734375,0.0,0,0
1772201158.414175,1772201158.3502498,169.921875,-110.3515625,-711.9140625,221.6796875,0.0,0,0
1772201158.4142148,1772201158.354142,-1000.0,-194.3359375,-486.328125,-999.0234375,0.0,0,0
1772201158.414253,1772201158.3580344,-819.82421875,-64.453125,587.40234375,-1000.0,0.0,0,0
1772201158.41429,1772201158.3619266,532.2265625,95.703125,904.78515625,-22.94921875,0.0,0,0
1772201158.414326,1772201158.365819,-861.328125,83.0078125,268.5546875,-842.28515625,0.0,0,0
1772201158.4143622,1772201158.3697112,83.49609375,-118.1640625,-747.55859375,322.265625,0.0,0,0
1772201158.414399,1772201158.3736036,-1000.0,-179.19921875,-552.24609375,-900.390625,0.0,0,0
1772201158.414434,1772201158.3774958,-982.421875,-76.171875,409.66796875,-1000.0,0.0,0,0
1772201158.414469,1772201158.3813882,231.4453125,98.14453125,868.65234375,-214.35546875,0.0,0,0
1772201158.414506,1772201158.3852804,-780.2734375,129.8828125,404.78515625,-863.28125,0.0,0,0
1772201158.4588149,1772201158.3893025,253.90625,-76.66015625,-721.6796875,628.41796875,0.0,0,0
1772201158.4589472,1772201158.393195,-999.0234375,-186.5234375,-653.3203125,-764.6484375,0.0,0,0
1772201158.458991,1772201158.397087,-1000.0,-74.21875,285.15625,-1000.0,0.0,0,0
1772201158.459029,1772201158.4009795,22.94921875,107.91015625,833.0078125,-205.078125,0.0,0,0
1772201158.459073,1772201158.404872,-798.33984375,128.90625,439.94140625,-937.98828125,0.0,0,0
1772201158.4591098,1772201158.4087641,416.015625,-33.69140625,-682.12890625,874.51171875,0.0,0,0
1772201158.459147,1772201158.4126565,-901.3671875,-151.85546875,-775.390625,-449.70703125,0.0,0,0
1772201158.4591842,1772201158.4165487,-1000.0,-97.16796875,92.28515625,-1000.0,0.0,0,0
1772201158.459221,1772201158.4204412,-148.4375,74.21875,803.7109375,-176.26953125,0.0,0,0
1772201158.4592588,1772201158.4243336,-860.3515625,122.55859375,442.87109375,-987.79296875,0.0,0,0
1772201158.459296,1772201158.4282258,635.25390625,-34.1796875,-625.48828125,-971.6796875,0.0,0,0
1772201158.4593332,1772201158.4321182,-723.6328125,-185.546875,-875.9765625,-140.625,0.0,0,0
1772201158.518121,1772201158.4361272,-1000.0,-131.8359375,-94.23828125,-1000.0,0.0,0,0
1772201158.5182688,1772201158.4400196,-187.98828125,73.2421875,797.8515625,-305.17578125,0.0,0,0
1772201158.518332,1772201158.443912,-932.6171875,134.765625,452.63671875,949.21875,0.0,0,0
1772201158.518537,1772201158.4478042,859.375,-0.48828125,-514.6484375,-916.015625,0.0,0,0
1772201158.5185962,1772201158.4516966,-440.4296875,-167.48046875,-903.3203125,41.9921875,0.0,0,0
1772201158.518649,1772201158.4555888,-1000.0,-150.87890625,-252.44140625,-1000.0,0.0,0,0
1772201158.5187001,1772201158.4594812,-205.56640625,28.80859375,820.3125,-488.76953125,0.0,0,0
1772201158.518751,1772201158.4633737,-990.234375,95.21484375,527.83203125,855.46875,0.0,0,0
1772201158.518802,1772201158.4672658,-992.67578125,28.3203125,-348.14453125,-867.1875,0.0,0,0
1772201158.5188532,1772201158.4711583,-160.64453125,-156.25,-847.65625,202.63671875,0.0,0,0
1772201158.518902,1772201158.4750507,-1000.0,-194.82421875,-408.69140625,-1000.0,0.0,0,0
1772201158.51895,1772201158.4789429,-306.15234375,22.4609375,786.1328125,-726.07421875,0.0,0,0
1772201158.563989,1772201158.4830227,945.80078125,120.1171875,662.109375,665.52734375,0.0,0,0
1772201158.564137,1772201158.486915,-917.96875,43.45703125,-180.6640625,-822.265625,0.0,0,0
1772201158.5641952,1772201158.4908075,50.78125,-143.06640625,-787.59765625,166.9921875,0.0,0,0
1772201158.564249,1772201158.4946997,-1000.0,-181.15234375,-445.3125,-1000.0,0.0,0,0
1772201158.564302,1772201158.4985921,-480.46875,9.765625,732.91015625,-957.03125,0.0,0,0
1772201158.564352,1772201158.5024846,845.703125,108.88671875,790.0390625,337.40234375,0.0,0,0
1772201158.564403,1772201158.506377,-873.046875,39.0625,21.97265625,-773.4375,0.0,0,0
1772201158.5644522,1772201158.5102692,153.80859375,-139.6484375,-751.953125,143.06640625,0.0,0,0
1772201158.5645041,1772201158.5141616,-1000.0,-177.734375,-471.19140625,-1000.0,0.0,0,0
1772201158.5645518,1772201158.518054,-714.35546875,-31.25,646.484375,-1000.0,0.0,0,0
1772201158.5646,1772201158.5219464,635.7421875,106.93359375,882.32421875,51.26953125,0.0,0,0
1772201158.564651,1772201158.5258389,-824.21875,92.28515625,220.21484375,-766.11328125,0.0,0,0
1772201158.60933,1772201158.529909,170.8984375,-118.65234375,-715.33203125,320.80078125,0.0,0,0
1772201158.6094642,1772201158.5338013,-1000.0,-199.70703125,-515.625,-955.56640625,0.0,0,0
1772201158.609507,1772201158.5376937,-916.50390625,-51.26953125,502.44140625,-1000.0,0.0,0,0
1772201158.609617,1772201158.5415862,356.4453125,108.88671875,895.01953125,-135.25390625,0.0,0,0
1772201158.6096818,1772201158.5454783,-786.62109375,104.4921875,385.25390625,-817.3828125,0.0,0,0
1772201158.60973,1772201158.5493708,204.1015625,-101.5625,-692.87109375,513.671875,0.0,0,0
1772201158.60977,1772201158.5532632,-1000.0,-175.78125,-603.02734375,-859.86328125,0.0,0,0
1772201158.609807,1772201158.5571556,-1000.0,-50.78125,321.77734375,-1000.0,0.0,0,0
1772201158.6098418,1772201158.561048,102.5390625,68.84765625,825.68359375,-220.703125,0.0,0,0
1772201158.60988,1772201158.5649405,-783.69140625,67.87109375,441.89453125,-908.69140625,0.0,0,0
1772201158.609916,1772201158.5688329,331.0546875,-67.87109375,-692.3828125,773.92578125,0.0,0,0
1772201158.609954,1772201158.5727253,-952.1484375,-161.1328125,-733.88671875,-594.7265625,0.0,0,0
1772201158.653802,1772201158.5767794,-1000.0,-106.4453125,145.01953125,-1000.0,0.0,0,0
1772201158.653933,1772201158.5806718,-91.796875,46.875,796.875,-186.03515625,0.0,0,0
1772201158.653993,1772201158.5845642,-829.1015625,107.421875,454.1015625,-971.6796875,0.0,0,0
1772201158.654046,1772201158.5884566,535.64453125,-25.87890625,-646.484375,981.4453125,0.0,0,0
1772201158.654101,1772201158.592349,-815.91796875,-160.64453125,-835.44921875,-258.30078125,0.0,0,0
1772201158.654152,1772201158.5962415,-1000.0,-106.93359375,-5.37109375,-1000.0,0.0,0,0
1772201158.6542,1772201158.600134,-171.875,72.75390625,796.38671875,-224.609375,0.0,0,0
1772201158.65425,1772201158.6040263,-897.4609375,97.65625,443.84765625,987.3046875,0.0,0,0
1772201158.654301,1772201158.6079187,754.39453125,-64.453125,-586.42578125,-943.84765625,0.0,0,0
1772201158.654351,1772201158.6118112,-587.40234375,-212.40234375,-913.0859375,-45.8984375,0.0,0,0
1772201158.654402,1772201158.6157036,-1000.0,-178.22265625,-166.015625,-1000.0,0.0,0,0
1772201158.654449,1772201158.619596,-178.22265625,23.92578125,823.73046875,-400.87890625,0.0,0,0
1772201158.728169,1772201158.623801,-959.9609375,101.07421875,485.83984375,900.87890625,0.0,0,0
1772201158.72832,1772201158.6276937,944.3359375,1.953125,-431.640625,-888.18359375,0.0,0,0
1772201158.728364,1772201158.631586,-289.0625,-158.69140625,-888.671875,140.625,0.0,0,0
1772201158.728402,1772201158.6354785,-1000.0,-172.36328125,-348.6328125,-1000.0,0.0,0,0
1772201158.728441,1772201158.639371,-252.9296875,23.4375,813.4765625,-596.6796875,0.0,0,0
1772201158.728477,1772201158.6432633,976.5625,92.7734375,590.33203125,790.52734375,0.0,0,0
1772201158.7285151,1772201158.6471558,-947.265625,22.94921875,-283.69140625,-847.65625,0.0,0,0
1772201158.728553,1772201158.6510484,-43.9453125,-150.87890625,-819.3359375,183.59375,0.0,0,0
1772201158.728595,1772201158.6549408,-1000.0,-214.84375,-438.4765625,-1000.0,0.0,0,0
1772201158.7286332,1772201158.6588333,-393.06640625,-22.94921875,754.8828125,-859.375,0.0,0,0
1772201158.728669,1772201158.6627257,902.83203125,97.16796875,731.93359375,487.79296875,0.0,0,0
1772201158.7287061,1772201158.666618,-893.5546875,36.62109375,-90.33203125,-792.96875,0.0,0,0
1772201158.744237,1772201158.6706607,115.234375,-159.66796875,-779.78515625,149.90234375,0.0,0,0
1772201158.744372,1772201158.6745534,-1000.0,-210.44921875,-465.8203125,-1000.0,0.0,0,0
1772201158.744413,1772201158.6784458,-600.09765625,-20.99609375,684.5703125,-1000.0,0.0,0,0
1772201158.744454,1772201158.6823382,749.51171875,123.53515625,847.16796875,148.4375,0.0,0,0
1772201158.744492,1772201158.686231,-847.16796875,89.84375,129.8828125,-757.8125,0.0,0,0
1772201158.744529,1772201158.6901233,172.8515625,-106.93359375,-721.19140625,237.3046875,0.0,0,0
1772201158.7445672,1772201158.6940157,-1000.0,-173.33984375,-505.37109375,-994.140625,0.0,0,0
1772201158.744603,1772201158.6979082,-812.98828125,-39.55078125,544.43359375,-1000.0,0.0,0,0
1772201158.744641,1772201158.7018008,508.7890625,121.09375,896.97265625,-54.19921875,0.0,0,0
1772201158.744679,1772201158.7056932,-805.17578125,122.0703125,293.45703125,-789.0625,0.0,0,0
1772201158.744716,1772201158.7095857,177.24609375,-93.26171875,-727.5390625,425.29296875,0.0,0,0
1772201158.744753,1772201158.7134783,-1000.0,-197.75390625,-547.8515625,-903.3203125,0.0,0,0
1772201158.787782,1772201158.7175026,-987.3046875,-76.66015625,418.45703125,-1000.0,0.0,0,0
1772201158.787911,1772201158.721395,222.16796875,87.40234375,864.2578125,-225.09765625,0.0,0,0
1772201158.7879522,1772201158.7252877,-780.2734375,124.51171875,409.66796875,-874.0234375,0.0,0,0
1772201158.787991,1772201158.72918,264.6484375,-47.8515625,-712.890625,658.69140625,0.0,0,0
1772201158.788028,1772201158.7330725,-988.76953125,-167.48046875,-677.734375,-735.83984375,0.0,0,0
1772201158.788067,1772201158.7369652,-1000.0,-78.125,248.53515625,-1000.0,0.0,0,0
1772201158.7881029,1772201158.7408576,-10.7421875,95.703125,823.73046875,-202.1484375,0.0,0,0
1772201158.78814,1772201158.7447503,-802.734375,144.04296875,447.265625,-942.3828125,0.0,0,0
1772201158.788181,1772201158.7486427,434.5703125,-41.50390625,-677.24609375,889.6484375,0.0,0,0
1772201158.788218,1772201158.752535,-891.6015625,-174.8046875,-784.1796875,-426.26953125,0.0,0,0
1772201158.788255,1772201158.7564278,-1000.0,-109.86328125,70.80078125,-1000.0,0.0,0,0
1772201158.7882931,1772201158.7603202,-147.94921875,53.22265625,789.0625,-174.8046875,0.0,0,0
1772201158.846821,1772201158.7643323,-867.1875,86.9140625,448.73046875,-989.74609375,0.0,0,0
1772201158.846952,1772201158.7682247,663.57421875,-49.8046875,-607.421875,-967.7734375,0.0,0,0
1772201158.847012,1772201158.7721174,-692.3828125,-180.17578125,-874.51171875,-122.0703125,0.0,0,0
1772201158.847065,1772201158.7760098,-1000.0,-136.71875,-89.84375,-1000.0,0.0,0,0
1772201158.847114,1772201158.7799022,-183.59375,64.453125,806.640625,-325.1953125,0.0,0,0
1772201158.847166,1772201158.7837949,-936.5234375,114.74609375,460.44921875,939.453125,0.0,0,0
1772201158.8472161,1772201158.7876873,872.55859375,-20.5078125,-504.39453125,-910.15625,0.0,0,0
1772201158.847418,1772201158.79158,-416.9921875,-170.8984375,-911.62109375,61.5234375,0.0,0,0
1772201158.847473,1772201158.7954724,-1000.0,-157.2265625,-265.13671875,-1000.0,0.0,0,0
1772201158.847521,1772201158.799365,-210.9375,25.390625,825.68359375,-510.7421875,0.0,0,0
1772201158.84757,1772201158.8032575,-994.140625,95.21484375,547.36328125,844.23828125,0.0,0,0
1772201158.84762,1772201158.80715,-987.79296875,16.11328125,-317.3828125,-863.28125,0.0,0,0
1772201158.893034,1772201158.8111527,-147.94921875,-152.34375,-843.75,198.2421875,0.0,0,0
1772201158.893163,1772201158.8150454,-1000.0,-180.17578125,-380.859375,-1000.0,0.0,0,0
1772201158.893219,1772201158.8189378,-319.3359375,8.7890625,820.80078125,-758.7890625,0.0,0,0
1772201158.8932722,1772201158.8228304,937.98828125,103.02734375,674.8046875,623.53515625,0.0,0,0
1772201158.893326,1772201158.8267229,-912.59765625,35.15625,-150.390625,-815.4296875,0.0,0,0
1772201158.893366,1772201158.8306155,65.91796875,-154.296875,-781.25,164.55078125,0.0,0,0
1772201158.8934028,1772201158.834508,-1000.0,-202.1484375,-440.4296875,-1000.0,0.0,0,0
1772201158.8934379,1772201158.8384006,-488.28125,-12.6953125,751.46484375,-970.21484375,0.0,0,0
1772201158.893474,1772201158.842293,840.33203125,101.07421875,793.9453125,312.98828125,0.0,0,0
1772201158.8935108,1772201158.8461857,-870.60546875,27.34375,27.34375,-771.484375,0.0,0,0
1772201158.8935459,1772201158.850078,161.62109375,-163.57421875,-740.234375,143.06640625,0.0,0,0
1772201158.893591,1772201158.8539708,-1000.0,-187.5,-477.5390625,-1000.0,0.0,0,0
1772201158.937741,1772201158.858043,-724.609375,-30.76171875,626.953125,-1000.0,0.0,0,0
1772201158.937851,1772201158.8619356,624.0234375,99.12109375,887.6953125,41.50390625,0.0,0,0
1772201158.9378948,1772201158.8658283,-822.265625,86.9140625,246.58203125,-767.08984375,0.0,0,0
1772201158.937933,1772201158.8697207,170.41015625,-107.91015625,-709.47265625,337.890625,0.0,0,0
1772201158.9379709,1772201158.8736134,-1000.0,-183.10546875,-514.16015625,-947.265625,0.0,0,0
1772201158.938008,1772201158.877506,-916.50390625,-56.640625,520.01953125,-1000.0,0.0,0,0
1772201158.9380438,1772201158.8813984,350.5859375,86.9140625,906.73828125,-147.94921875,0.0,0,0
1772201158.938081,1772201158.885291,-787.109375,89.84375,347.65625,-821.77734375,0.0,0,0
1772201158.938117,1772201158.8891835,216.30859375,-104.4921875,-731.4453125,525.87890625,0.0,0,0
1772201158.938154,1772201158.8930762,-1000.0,-208.984375,-607.91015625,-854.00390625,0.0,0,0
1772201158.938189,1772201158.8969688,-1000.0,-98.14453125,337.40234375,-1000.0,0.0,0,0
1772201158.938224,1772201158.9008613,103.515625,91.796875,849.12109375,-218.75,0.0,0,0
1772201158.997806,1772201158.9050026,-786.62109375,128.90625,423.828125,-913.0859375,0.0,0,0
1772201158.997911,1772201158.9088953,346.19140625,-70.3125,-711.9140625,788.0859375,0.0,0,0
1772201158.997953,1772201158.9127877,-944.3359375,-190.91796875,-736.328125,-575.68359375,0.0,0,0
1772201158.997992,1772201158.9166803,-1000.0,-107.421875,171.38671875,-1000.0,0.0,0,0
1772201158.998028,1772201158.920573,-96.6796875,82.51953125,817.3828125,-184.08203125,0.0,0,0
1772201158.998065,1772201158.9244657,-834.47265625,117.67578125,452.63671875,-975.09765625,0.0,0,0
1772201158.9981031,1772201158.9283583,552.24609375,-49.31640625,-633.7890625,991.2109375,0.0,0,0
1772201158.998139,1772201158.9322507,-800.29296875,-167.96875,-841.30859375,-236.328125,0.0,0,0
1772201158.998176,1772201158.9361434,-1000.0,-130.37109375,-40.52734375,-1000.0,0.0,0,0
1772201158.99821,1772201158.940036,-174.31640625,41.9921875,786.62109375,-243.65234375,0.0,0,0
1772201158.998246,1772201158.9439287,-904.78515625,104.4921875,433.59375,977.05078125,0.0,0,0
1772201158.998282,1772201158.9478211,776.3671875,-25.390625,-598.14453125,-936.03515625,0.0,0,0
1772201159.028712,1772201158.9518757,-555.17578125,-173.33984375,-907.71484375,-19.53125,0.0,0,0
1772201159.028852,1772201158.9557683,-1000.0,-137.6953125,-202.1484375,-1000.0,0.0,0,0
1772201159.028896,1772201158.959661,-194.3359375,62.01171875,790.52734375,-427.734375,0.0,0,0
1772201159.028938,1772201158.9635537,-969.23828125,103.02734375,487.3046875,888.18359375,0.0,0,0
1772201159.0289762,1772201158.9674463,960.9375,-7.32421875,-437.01171875,-882.8125,0.0,0,0
1772201159.029012,1772201158.971339,-260.25390625,-157.71484375,-887.6953125,151.85546875,0.0,0,0
1772201159.02905,1772201158.9752316,-1000.0,-173.828125,-356.93359375,-1000.0,0.0,0,0
1772201159.029084,1772201158.9791243,-255.37109375,39.0625,807.6171875,-640.13671875,0.0,0,0
1772201159.029121,1772201158.9830167,973.14453125,145.99609375,605.46875,746.58203125,0.0,0,0
1772201159.0291579,1772201158.9869094,-941.40625,71.77734375,-239.2578125,-838.8671875,0.0,0,0
1772201159.029195,1772201158.990802,-21.484375,-114.2578125,-796.875,179.19921875,0.0,0,0
1772201159.02923,1772201158.9946947,-1000.0,-156.25,-431.640625,-1000.0,0.0,0,0
1772201159.072906,1772201158.9987378,-412.59765625,35.64453125,761.71875,-879.8828125,0.0,0,0
1772201159.07303,1772201159.0026305,890.13671875,129.39453125,745.1171875,456.54296875,0.0,0,0
1772201159.073073,1772201159.0065231,-888.18359375,77.1484375,-32.71484375,-788.57421875,0.0,0,0
1772201159.0731142,1772201159.0104158,125.48828125,-113.76953125,-747.55859375,148.92578125,0.0,0,0
1772201159.073153,1772201159.0143082,-1000.0,-169.921875,-479.00390625,-1000.0,0.0,0,0
1772201159.073191,1772201159.0182009,-604.98046875,6.8359375,672.36328125,-1000.0,0.0,0,0
1772201159.0732281,1772201159.0220935,743.1640625,123.046875,855.46875,130.37109375,0.0,0,0
1772201159.0732648,1772201159.0259862,-845.703125,93.75,153.80859375,-758.7890625,0.0,0,0
1772201159.073302,1772201159.0298789,172.36328125,-91.796875,-713.37890625,240.72265625,0.0,0,0
1772201159.073338,1772201159.0337715,-1000.0,-187.98828125,-495.1171875,-994.62890625,0.0,0,0
1772201159.073374,1772201159.0376642,-852.5390625,-59.08203125,551.26953125,-1000.0,0.0,0,0
1772201159.07341,1772201159.0415568,460.44921875,106.93359375,900.87890625,-54.19921875,0.0,0,0
1772201159.1175601,1772201159.045588,-797.36328125,111.328125,316.89453125,-790.0390625,0.0,0,0
1772201159.117662,1772201159.0494807,177.734375,-97.65625,-713.8671875,435.546875,0.0,0,0
1772201159.117728,1772201159.0533733,-1000.0,-179.19921875,-568.84765625,-896.484375,0.0,0,0
1772201159.117815,1772201159.057266,-999.0234375,-57.6171875,378.90625,-1000.0,0.0,0,0
1772201159.1178591,1772201159.0611587,197.75390625,98.6328125,855.95703125,-234.86328125,0.0,0,0
1772201159.117898,1772201159.0650513,-779.78515625,105.46875,418.45703125,-880.859375,0.0,0,0
1772201159.1179361,1772201159.068944,272.4609375,-90.33203125,-714.84375,674.31640625,0.0,0,0
1772201159.117973,1772201159.0728366,-984.86328125,-167.96875,-698.2421875,-721.19140625,0.0,0,0
1772201159.118011,1772201159.0767293,-1000.0,-81.54296875,177.24609375,-1000.0,0.0,0,0
1772201159.118046,1772201159.080622,-23.4375,72.75390625,792.48046875,-199.21875,0.0,0,0
1772201159.118083,1772201159.0845146,-806.640625,112.79296875,449.21875,-947.265625,0.0,0,0
1772201159.118119,1772201159.0884073,454.58984375,-55.17578125,-676.26953125,905.76171875,0.0,0,0
1772201159.1632671,1772201159.0924294,-877.44140625,-173.33984375,-807.12890625,-401.3671875,0.0,0,0
1772201159.163401,1772201159.096322,-1000.0,-104.4921875,36.1328125,-1000.0,0.0,0,0
1772201159.163462,1772201159.100215,-158.203125,79.1015625,785.15625,-173.33984375,0.0,0,0
1772201159.1635141,1772201159.1041076,-872.55859375,125.0,461.9140625,-992.1875,0.0,0,0
1772201159.163566,1772201159.1080003,674.8046875,-26.85546875,-593.75,-963.37890625,0.0,0,0
1772201159.163616,1772201159.111893,-680.17578125,-170.41015625,-885.7421875,-101.07421875,0.0,0,0
1772201159.163667,1772201159.1157856,-1000.0,-132.8125,-127.9296875,-1000.0,0.0,0,0
1772201159.1637151,1772201159.1196783,-187.98828125,57.6171875,779.296875,-345.21484375,0.0,0,0
1772201159.163768,1772201159.123571,-942.3828125,115.72265625,460.9375,930.17578125,0.0,0,0
1772201159.163817,1772201159.1274638,888.18359375,14.6484375,-486.328125,-904.78515625,0.0,0,0
1772201159.163867,1772201159.1313565,-391.6015625,-147.4609375,-902.34375,80.56640625,0.0,0,0
1772201159.164068,1772201159.1352491,-1000.0,-167.96875,-320.3125,-1000.0,0.0,0,0
1772201159.2080379,1772201159.1392627,-217.7734375,40.0390625,790.52734375,-526.85546875,0.0,0,0
1772201159.2081769,1772201159.1431553,-999.51171875,130.37109375,557.6171875,837.40234375,0.0,0,0
1772201159.208221,1772201159.147048,-979.00390625,33.69140625,-320.80078125,-860.3515625,0.0,0,0
1772201159.20826,1772201159.150941,-125.9765625,-142.578125,-841.30859375,195.3125,0.0,0,0
1772201159.208298,1772201159.1548336,-1000.0,-167.96875,-414.55078125,-1000.0,0.0,0,0
1772201159.2083368,1772201159.1587262,-331.54296875,27.83203125,791.015625,-776.3671875,0.0,0,0
1772201159.208374,1772201159.1626189,932.12890625,104.00390625,684.5703125,600.09765625,0.0,0,0
1772201159.208411,1772201159.1665118,-910.15625,24.90234375,-170.8984375,-811.03515625,0.0,0,0
1772201159.208448,1772201159.1704044,75.1953125,-138.18359375,-794.43359375,161.1328125,0.0,0,0
1772201159.2084851,1772201159.174297,-1000.0,-175.78125,-456.0546875,-1000.0,0.0,0,0
1772201159.208519,1772201159.1781898,-513.671875,-12.6953125,711.42578125,-990.234375,0.0,0,0
1772201159.208556,1772201159.1820824,821.77734375,96.6796875,803.7109375,272.4609375,0.0,0,0
1772201159.296395,1772201159.186085,-865.234375,86.9140625,67.87109375,-768.5546875,0.0,0,0
1772201159.296521,1772201159.189978,165.0390625,-98.6328125,-714.35546875,158.203125,0.0,0,0
1772201159.29658,1772201159.1938705,-1000.0,-178.22265625,-491.69921875,-1000.0,0.0,0,0
1772201159.2966342,1772201159.1977632,-740.72265625,-27.83203125,597.65625,-1000.0,0.0,0,0
1772201159.296685,1772201159.2016559,605.46875,108.88671875,887.6953125,23.92578125,0.0,0,0
1772201159.296772,1772201159.2055488,-819.3359375,90.33203125,274.90234375,-770.01953125,0.0,0,0
1772201159.296891,1772201159.2094414,168.45703125,-119.62890625,-687.5,339.35546875,0.0,0,0
1772201159.2969542,1772201159.213334,-1000.0,-197.265625,-533.69140625,-948.2421875,0.0,0,0
1772201159.296996,1772201159.217227,-922.36328125,-55.6640625,453.61328125,-1000.0,0.0,0,0
1772201159.297034,1772201159.2211196,337.890625,110.83984375,881.34765625,-149.4140625,0.0,0,0
1772201159.2971141,1772201159.2250123,-786.1328125,106.4453125,388.18359375,-823.73046875,0.0,0,0
1772201159.297179,1772201159.228905,222.16796875,-86.42578125,-715.8203125,536.62109375,0.0,0,0
1772201159.314525,1772201159.2329078,-1000.0,-166.9921875,-614.74609375,-847.65625,0.0,0,0
1772201159.31462,1772201159.2368004,-1000.0,-75.68359375,324.70703125,-1000.0,0.0,0,0
1772201159.314663,1772201159.240693,73.2421875,93.26171875,834.9609375,-216.796875,0.0,0,0
1772201159.314701,1772201159.244586,-787.59765625,114.74609375,434.08203125,-916.50390625,0.0,0,0
1772201159.314738,1772201159.2484787,360.83984375,-90.8203125,-693.359375,801.7578125,0.0,0,0
1772201159.314804,1772201159.2523713,-937.5,-195.3125,-751.953125,-558.59375,0.0,0,0
1772201159.3148549,1772201159.2562642,-1000.0,-102.5390625,130.37109375,-1000.0,0.0,0,0
1772201159.314893,1772201159.2601569,-105.95703125,84.47265625,806.640625,-181.15234375,0.0,0,0
1772201159.314931,1772201159.2640495,-840.33203125,120.1171875,457.03125,-980.46875,0.0,0,0
1772201159.314968,1772201159.2679424,576.66015625,-42.96875,-629.39453125,-994.140625,0.0,0,0
1772201159.3150048,1772201159.271835,-779.78515625,-173.828125,-847.16796875,-206.54296875,0.0,0,0
1772201159.315042,1772201159.275728,-1000.0,-129.39453125,-51.7578125,-1000.0,0.0,0,0
1772201159.373266,1772201159.2797954,-176.7578125,66.40625,777.83203125,-255.859375,0.0,0,0
1772201159.3734028,1772201159.283688,-911.62109375,123.046875,459.47265625,971.19140625,0.0,0,0
1772201159.373461,1772201159.287581,799.8046875,-13.671875,-523.4375,-931.15234375,0.0,0,0
1772201159.373514,1772201159.2914736,-525.87890625,-150.87890625,-901.85546875,-1.953125,0.0,0,0
1772201159.3735669,1772201159.2953665,-1000.0,-145.99609375,-221.6796875,-1000.0,0.0,0,0
1772201159.3736188,1772201159.2992592,-187.5,52.24609375,814.94140625,-441.40625,0.0,0,0
1772201159.3736691,1772201159.303152,-971.6796875,118.1640625,506.34765625,880.859375,0.0,0,0
1772201159.373719,1772201159.3070447,969.7265625,-1.953125,-411.62109375,-878.41796875,0.0,0,0
1772201159.373769,1772201159.3109374,-238.28125,-175.29296875,-882.32421875,173.828125,0.0,0,0
1772201159.3738189,1772201159.3148303,-1000.0,-196.77734375,-365.234375,-1000.0,0.0,0,0
1772201159.373868,1772201159.318723,-266.11328125,28.3203125,805.17578125,-663.0859375,0.0,0,0
1772201159.3739169,1772201159.3226159,966.796875,131.8359375,626.953125,727.5390625,0.0,0,0
1772201159.4043021,1772201159.3266766,-934.5703125,59.5703125,-227.05078125,-834.47265625,0.0,0,0
1772201159.4044118,1772201159.3305695,-0.9765625,-128.41796875,-808.59375,174.8046875,0.0,0,0
1772201159.4044569,1772201159.3344622,-1000.0,-175.29296875,-432.6171875,-1000.0,0.0,0,0
1772201159.404499,1772201159.338355,-418.45703125,12.6953125,774.90234375,-910.64453125,0.0,0,0
1772201159.4045372,1772201159.3422477,886.23046875,101.5625,757.8125,408.69140625,0.0,0,0
1772201159.404574,1772201159.3461406,-887.20703125,47.36328125,-19.53125,-783.203125,0.0,0,0
1772201159.404611,1772201159.3500335,133.30078125,-122.55859375,-741.69921875,146.97265625,0.0,0,0
1772201159.4046478,1772201159.3539262,-1000.0,-173.828125,-480.95703125,-1000.0,0.0,0,0
1772201159.404683,1772201159.357819,-645.5078125,-30.76171875,662.109375,-1000.0,0.0,0,0
1772201159.4047182,1772201159.3617117,707.03125,108.88671875,865.234375,107.91015625,0.0,0,0
1772201159.404754,1772201159.3656046,-837.890625,83.984375,175.78125,-760.7421875,0.0,0,0
1772201159.40479,1772201159.3694973,170.8984375,-126.46484375,-711.42578125,257.32421875,0.0,0,0
1772201159.447967,1772201159.3735394,-1000.0,-184.5703125,-498.046875,-985.3515625,0.0,0,0
1772201159.448101,1772201159.377432,-862.3046875,-49.8046875,548.828125,-1000.0,0.0,0,0
1772201159.448143,1772201159.381325,442.87109375,104.4921875,895.01953125,-81.54296875,0.0,0,0
1772201159.448182,1772201159.385218,-795.41015625,116.2109375,347.16796875,-795.8984375,0.0,0,0
1772201159.44822,1772201159.3891106,180.17578125,-102.5390625,-690.4296875,438.96484375,0.0,0,0
1772201159.4482582,1772201159.3930035,-1000.0,-189.453125,-557.12890625,-898.92578125,0.0,0,0
1772201159.4482949,1772201159.3968964,-1000.0,-76.171875,431.15234375,-1000.0,0.0,0,0
1772201159.448331,1772201159.400789,166.015625,83.0078125,873.53515625,-233.88671875,0.0,0,0
1772201159.448368,1772201159.404682,-779.296875,104.98046875,418.45703125,-884.765625,0.0,0,0
1772201159.4484081,1772201159.4085748,285.64453125,-92.7734375,-700.68359375,690.4296875,0.0,0,0
1772201159.448459,1772201159.4124675,-977.5390625,-187.01171875,-691.40625,-703.61328125,0.0,0,0
1772201159.448506,1772201159.4163604,-1000.0,-98.14453125,224.12109375,-1000.0,0.0,0,0
1772201159.493857,1772201159.4203928,-41.015625,72.75390625,815.91796875,-197.265625,0.0,0,0
1772201159.494018,1772201159.4242857,-814.94140625,110.3515625,457.03125,-954.58984375,0.0,0,0
1772201159.494076,1772201159.4281785,484.86328125,-56.15234375,-651.85546875,931.15234375,0.0,0,0
1772201159.494138,1772201159.4320714,-903.80859375,-179.19921875,-820.80078125,-421.875,0.0,0,0
1772201159.494195,1772201159.435964,-1000.0,-108.88671875,77.63671875,-1000.0,0.0,0,0
1772201159.494244,1772201159.439857,22.4609375,80.078125,855.95703125,9.27734375,0.0,0,0
1772201159.494297,1772201159.44375,-896.484375,105.46875,441.89453125,988.28125,0.0,0,0
1772201159.494347,1772201159.4476426,696.2890625,-34.66796875,-592.28515625,-961.9140625,0.0,0,0
1772201159.494397,1772201159.4515355,-648.4375,-163.57421875,-882.32421875,-80.56640625,0.0,0,0
1772201159.494447,1772201159.4554284,-1000.0,-125.9765625,-135.7421875,-1000.0,0.0,0,0
1772201159.494495,1772201159.4593213,-191.40625,75.68359375,789.0625,-356.93359375,0.0,0,0
1772201159.4945438,1772201159.463214,-947.265625,155.2734375,480.46875,924.31640625,0.0,0,0
1772201159.537919,1772201159.4672353,900.390625,51.7578125,-440.91796875,-900.87890625,0.0,0,0
1772201159.538038,1772201159.471128,-370.1171875,-116.2109375,-889.6484375,96.19140625,0.0,0,0
1772201159.538079,1772201159.475021,-1000.0,-111.81640625,-314.453125,-1000.0,0.0,0,0
1772201159.538235,1772201159.4789138,-229.98046875,86.9140625,804.19921875,-541.9921875,0.0,0,0
1772201159.5382762,1772201159.4828067,993.65234375,143.5546875,565.4296875,830.078125,0.0,0,0
1772201159.538317,1772201159.4866996,-971.19140625,49.8046875,-288.0859375,-857.421875,0.0,0,0
1772201159.538354,1772201159.4905925,-107.91015625,-126.953125,-823.73046875,191.40625,0.0,0,0
1772201159.53839,1772201159.4944851,-1000.0,-174.31640625,-415.52734375,-1000.0,0.0,0,0
1772201159.5384269,1772201159.498378,-353.02734375,21.97265625,787.59765625,-808.59375,0.0,0,0
1772201159.5384629,1772201159.502271,921.875,109.86328125,698.73046875,558.59375,0.0,0,0
1772201159.538499,1772201159.5061638,-904.78515625,33.69140625,-128.41796875,-804.19921875,0.0,0,0
1772201159.5385349,1772201159.5100567,84.47265625,-151.85546875,-780.2734375,157.2265625,0.0,0,0
1772201159.598506,1772201159.5141504,-1000.0,-190.4296875,-453.125,-1000.0,0.0,0,0
1772201159.598637,1772201159.5180433,-543.9453125,-0.48828125,718.75,-1000.0,0.0,0,0
1772201159.5986938,1772201159.5219362,797.36328125,107.91015625,820.80078125,235.83984375,0.0,0,0
1772201159.598748,1772201159.525829,-859.375,58.59375,114.2578125,-765.625,0.0,0,0
1772201159.598797,1772201159.529722,163.0859375,-124.51171875,-700.1953125,177.24609375,0.0,0,0
1772201159.598848,1772201159.5336149,-1000.0,-173.828125,-485.3515625,-1000.0,0.0,0,0
1772201159.598896,1772201159.5375078,-767.08984375,-51.26953125,600.09765625,-1000.0,0.0,0,0
1772201159.598948,1772201159.5414007,574.21875,92.7734375,895.99609375,2.44140625,0.0,0,0
1772201159.599,1772201159.5452936,-813.96484375,115.72265625,279.78515625,-774.90234375,0.0,0,0
1772201159.599051,1772201159.5491865,167.48046875,-97.16796875,-698.73046875,360.83984375,0.0,0,0
1772201159.5991008,1772201159.5530791,-1000.0,-175.29296875,-539.55078125,-937.01171875,0.0,0,0
1772201159.5991502,1772201159.556972,-942.3828125,-45.8984375,431.640625,-1000.0,0.0,0,0
1772201159.6431942,1772201159.5609734,306.640625,117.1875,867.67578125,-171.875,0.0,0,0
1772201159.643329,1772201159.5648663,-783.203125,133.7890625,395.99609375,-832.51953125,0.0,0,0
1772201159.643379,1772201159.5687592,224.12109375,-71.77734375,-704.1015625,548.828125,0.0,0,0
1772201159.643445,1772201159.572652,-1000.0,-172.36328125,-625.48828125,-840.33203125,0.0,0,0
1772201159.643518,1772201159.576545,-1000.0,-68.359375,293.9453125,-1000.0,0.0,0,0
1772201159.643559,1772201159.580438,43.9453125,102.5390625,820.80078125,-214.84375,0.0,0,0
1772201159.643598,1772201159.5843308,-788.0859375,139.6484375,439.94140625,-920.8984375,0.0,0,0
1772201159.643636,1772201159.5882237,371.09375,-50.29296875,-692.87109375,815.91796875,0.0,0,0
1772201159.6436732,1772201159.5921166,-933.10546875,-162.109375,-771.484375,-539.55078125,0.0,0,0
1772201159.643711,1772201159.5960095,-1000.0,-105.46875,104.98046875,-1000.0,0.0,0,0
1772201159.6437461,1772201159.5999024,-113.28125,50.29296875,805.17578125,-179.19921875,0.0,0,0
1772201159.6437829,1772201159.6037953,-845.21484375,119.62890625,443.359375,-983.88671875,0.0,0,0
1772201159.6879601,1772201159.6078637,592.7734375,-30.2734375,-643.06640625,-982.91015625,0.0,0,0
1772201159.688092,1772201159.6117566,-763.671875,-165.0390625,-847.65625,-183.59375,0.0,0,0
1772201159.688148,1772201159.6156495,-1000.0,-114.74609375,-64.94140625,-1000.0,0.0,0,0
1772201159.6882,1772201159.6195424,-181.640625,68.359375,762.6953125,-268.5546875,0.0,0,0
1772201159.68825,1772201159.6234353,-916.9921875,122.55859375,460.44921875,965.8203125,0.0,0,0
1772201159.688301,1772201159.6273284,814.453125,-7.8125,-509.27734375,-926.26953125,0.0,0,0
1772201159.68835,1772201159.6312213,-505.37109375,-158.203125,-900.87890625,13.18359375,0.0,0,0
1772201159.6883998,1772201159.6351142,-1000.0,-132.32421875,-230.95703125,-1000.0,0.0,0,0
1772201159.688449,1772201159.639007,-200.1953125,65.91796875,809.08203125,-453.125,0.0,0,0
1772201159.6884952,1772201159.6429,-979.4921875,104.4921875,515.625,875.0,0.0,0,0
1772201159.68853,1772201159.646793,982.91015625,0.48828125,-353.02734375,-875.48828125,0.0,0,0
1772201159.688567,1772201159.6506858,-216.796875,-149.4140625,-851.5625,182.6171875,0.0,0,0
1772201159.733357,1772201159.6547441,-1000.0,-173.33984375,-388.18359375,-1000.0,0.0,0,0
1772201159.733525,1772201159.658637,-281.73828125,23.92578125,795.8984375,-690.4296875,0.0,0,0
1772201159.733584,1772201159.6625302,958.984375,105.95703125,639.6484375,700.1953125,0.0,0,0
1772201159.7336938,1772201159.666423,-929.6875,25.390625,-203.61328125,-829.58984375,0.0,0,0
1772201159.733782,1772201159.670316,9.765625,-150.87890625,-794.921875,172.36328125,0.0,0,0
1772201159.73384,1772201159.6742089,-1000.0,-183.10546875,-452.1484375,-1000.0,0.0,0,0
1772201159.733891,1772201159.678102,-441.40625,11.23046875,739.2578125,-921.38671875,0.0,0,0
1772201159.7339442,1772201159.681995,871.09375,120.60546875,766.11328125,392.08984375,0.0,0,0
1772201159.733995,1772201159.6858878,-881.34765625,75.1953125,-12.6953125,-780.76171875,0.0,0,0
1772201159.734046,1772201159.6897807,140.13671875,-102.5390625,-744.62890625,145.5078125,0.0,0,0
1772201159.734097,1772201159.6936736,-1000.0,-171.38671875,-477.5390625,-1000.0,0.0,0,0
1772201159.734145,1772201159.6975667,-675.29296875,-27.83203125,649.90234375,-1000.0,0.0,0,0
1772201159.778723,1772201159.7016208,677.734375,107.91015625,879.8828125,82.03125,0.0,0,0
1772201159.778867,1772201159.7055137,-832.51953125,93.75,194.3359375,-763.18359375,0.0,0,0
1772201159.77891,1772201159.7094066,171.875,-108.3984375,-667.96875,277.83203125,0.0,0,0
1772201159.77895,1772201159.7132998,-1000.0,-171.38671875,-430.17578125,-977.5390625,0.0,0,0
1772201159.77899,1772201159.7171926,-860.3515625,-23.92578125,526.85546875,-1000.0,0.0,0,0
1772201159.779027,1772201159.7210855,441.89453125,120.60546875,888.671875,-90.8203125,0.0,0,0
1772201159.7790642,1772201159.7249784,-795.8984375,114.74609375,361.328125,-800.78125,0.0,0,0
1772201159.779101,1772201159.7288716,185.546875,-92.7734375,-694.3359375,457.03125,0.0,0,0
1772201159.779139,1772201159.7327645,-1000.0,-145.5078125,-581.54296875,-888.671875,0.0,0,0
1772201159.779176,1772201159.7366574,-1000.0,-42.48046875,363.76953125,-1000.0,0.0,0,0
1772201159.779211,1772201159.7405505,160.64453125,72.265625,845.21484375,-232.421875,0.0,0,0
1772201159.779247,1772201159.7444434,-780.76171875,108.3984375,440.91796875,-884.765625,0.0,0,0
1772201159.8230999,1772201159.7484868,293.9453125,-80.078125,-689.453125,690.4296875,0.0,0,0
1772201159.823203,1772201159.7523797,-972.65625,-184.5703125,-700.68359375,-703.61328125,0.0,0,0
1772201159.823244,1772201159.7562728,-1000.0,-99.609375,208.49609375,-1000.0,0.0,0,0
1772201159.8232808,1772201159.7601657,-52.24609375,68.84765625,807.12890625,-196.2890625,0.0,0,0
1772201159.823318,1772201159.7640586,-814.94140625,97.65625,459.47265625,-954.1015625,0.0,0,0
1772201159.823355,1772201159.7679517,482.91015625,-83.0078125,-643.5546875,928.7109375,0.0,0,0
1772201159.823391,1772201159.7718446,-857.421875,-188.96484375,-809.08203125,-366.2109375,0.0,0,0
1772201159.8234282,1772201159.7757378,-1000.0,-122.55859375,23.4375,-1000.0,0.0,0,0
1772201159.823467,1772201159.7796307,-166.9921875,56.640625,775.390625,-171.38671875,0.0,0,0
1772201159.823503,1772201159.7835236,-884.27734375,129.39453125,462.40234375,-995.1171875,0.0,0,0
1772201159.823539,1772201159.7874167,712.890625,-15.13671875,-557.12890625,-956.54296875,0.0,0,0
1772201159.823576,1772201159.7913096,-638.18359375,-180.17578125,-885.7421875,-71.2890625,0.0,0,0
1772201159.9005382,1772201159.7955062,-1000.0,-152.83203125,-179.6875,-1000.0,0.0,0,0
1772201159.900667,1772201159.7993994,-184.5703125,48.828125,773.4375,-367.1875,0.0,0,0
1772201159.9007092,1772201159.8032925,-952.1484375,127.44140625,484.86328125,919.43359375,0.0,0,0
1772201159.900749,1772201159.8071854,918.45703125,8.7890625,-452.1484375,-897.94921875,0.0,0,0
1772201159.900786,1772201159.8110785,-339.84375,-156.25,-898.4375,107.91015625,0.0,0,0
1772201159.900823,1772201159.8149714,-1000.0,-148.92578125,-302.734375,-1000.0,0.0,0,0
1772201159.9008589,1772201159.8188646,-231.4453125,50.78125,824.70703125,-553.22265625,0.0,0,0
1772201159.901033,1772201159.8227575,988.76953125,119.140625,575.1953125,824.70703125,0.0,0,0
1772201159.901075,1772201159.8266506,-960.9375,21.97265625,-261.71875,-855.46875,0.0,0,0
1772201159.901112,1772201159.8305438,-81.54296875,-154.296875,-808.10546875,189.453125,0.0,0,0
1772201159.90115,1772201159.8344367,-1000.0,-195.3125,-438.4765625,-1000.0,0.0,0,0
1772201159.901184,1772201159.8383298,-359.86328125,-1.46484375,759.765625,-822.75390625,0.0,0,0
1772201159.928549,1772201159.842361,918.45703125,113.76953125,713.8671875,539.55078125,0.0,0,0
1772201159.928689,1772201159.846254,-901.3671875,47.36328125,-100.5859375,-800.78125,0.0,0,0
1772201159.928746,1772201159.8501472,96.6796875,-152.34375,-769.53125,155.2734375,0.0,0,0
1772201159.928808,1772201159.8540401,-1000.0,-198.2421875,-461.42578125,-1000.0,0.0,0,0
1772201159.928908,1772201159.8579333,-540.0390625,-21.484375,696.77734375,-1000.0,0.0,0,0
1772201159.9290009,1772201159.8618264,799.31640625,91.796875,818.359375,208.984375,0.0,0,0
1772201159.929059,1772201159.8657193,-859.375,62.01171875,131.8359375,-763.18359375,0.0,0,0
1772201159.929112,1772201159.8696125,170.8984375,-140.625,-680.17578125,197.265625,0.0,0,0
1772201159.9292421,1772201159.8735056,-1000.0,-219.23828125,-510.25390625,-1000.0,0.0,0,0
1772201159.929302,1772201159.8773985,-748.046875,-61.5234375,565.91796875,-1000.0,0.0,0,0
1772201159.929354,1772201159.8812916,587.890625,73.2421875,895.5078125,-13.671875,0.0,0,0
1772201159.929405,1772201159.8851848,-817.87109375,64.453125,309.5703125,-778.80859375,0.0,0,0
1772201159.9878788,1772201159.8893476,172.36328125,-130.37109375,-676.7578125,375.0,0.0,0,0
1772201159.987984,1772201159.8932407,-1000.0,-204.58984375,-552.734375,-929.6875,0.0,0,0
1772201159.9880252,1772201159.8971336,-949.21875,-97.16796875,409.1796875,-1000.0,0.0,0,0
1772201159.988062,1772201159.9010267,292.48046875,64.94140625,868.65234375,-186.03515625,0.0,0,0
1772201159.988102,1772201159.9049199,-783.203125,122.55859375,413.57421875,-843.26171875,0.0,0,0
1772201159.988139,1772201159.908813,238.28125,-81.54296875,-698.2421875,578.61328125,0.0,0,0
1772201159.9881752,1772201159.9127061,-1000.0,-203.61328125,-652.83203125,-811.5234375,0.0,0,0
1772201159.988211,1772201159.916599,-1000.0,-98.6328125,269.53125,-1000.0,0.0,0,0
1772201159.988246,1772201159.9204922,53.22265625,83.49609375,824.70703125,-213.37890625,0.0,0,0
1772201159.9882822,1772201159.9243853,-791.50390625,104.4921875,463.8671875,-920.8984375,0.0,0,0
1772201159.988319,1772201159.9282784,383.30078125,-91.30859375,-656.25,817.87109375,0.0,0,0
1772201159.9883552,1772201159.9321716,-926.26953125,-187.98828125,-768.5546875,-536.1328125,0.0,0,0
1772201160.016899,1772201159.9361753,-1000.0,-109.375,90.33203125,-1000.0,0.0,0,0
1772201160.016973,1772201159.9400685,-119.140625,57.12890625,786.62109375,-178.7109375,0.0,0,0
1772201160.017001,1772201159.9439616,-850.5859375,112.79296875,449.70703125,-985.3515625,0.0,0,0
1772201160.017026,1772201159.9478548,610.83984375,-37.59765625,-622.55859375,-979.00390625,0.0,0,0
1772201160.017051,1772201159.951748,-746.58203125,-164.0625,-864.74609375,-176.7578125,0.0,0,0
1772201160.017075,1772201159.955641,-1000.0,-109.86328125,-72.75390625,-1000.0,0.0,0,0
1772201160.017098,1772201159.9595342,-184.5703125,82.03125,791.50390625,-268.06640625,0.0,0,0
1772201160.017122,1772201159.963427,-921.38671875,125.48828125,454.1015625,964.84375,0.0,0,0
1772201160.0171452,1772201159.9673202,826.171875,-7.8125,-509.765625,-924.31640625,0.0,0,0
1772201160.0171678,1772201159.9712133,-489.2578125,-161.1328125,-905.2734375,25.390625,0.0,0,0
1772201160.017192,1772201159.9751065,-1000.0,-139.16015625,-246.09375,-1000.0,0.0,0,0
1772201160.017215,1772201159.9789996,-202.1484375,68.359375,819.82421875,-464.84375,0.0,0,0
1772201160.063694,1772201159.983065,-981.4453125,143.5546875,524.90234375,869.140625,0.0,0,0
1772201160.063821,1772201159.986958,987.79296875,-28.80859375,-362.3046875,-872.55859375,0.0,0,0
1772201160.0638778,1772201159.9908512,-204.58984375,-228.02734375,-858.3984375,193.359375,0.0,0,0
1772201160.063931,1772201159.9947443,-1000.0,-164.0625,-385.7421875,-1000.0,0.0,0,0
1772201160.0639832,1772201159.9986374,-299.8046875,29.78515625,800.29296875,-704.1015625,0.0,0,0
1772201160.064033,1772201160.0025306,951.171875,115.72265625,630.37109375,688.4765625,0.0,0,0
1772201160.064084,1772201160.0064237,-927.24609375,33.203125,-218.26171875,-826.66015625,0.0,0,0
1772201160.064134,1772201160.0103168,14.16015625,-131.8359375,-782.71484375,170.41015625,0.0,0,0
1772201160.064184,1772201160.01421,-1000.0,-142.08984375,-483.88671875,-1000.0,0.0,0,0
1772201160.064238,1772201160.0181031,-480.46875,55.17578125,685.05859375,-935.05859375,0.0,0,0
1772201160.064287,1772201160.0219963,846.19140625,165.52734375,773.92578125,371.58203125,0.0,0,0
1772201160.064338,1772201160.0258894,-875.0,111.328125,1.953125,-777.83203125,0.0,0,0
1772201160.107624,1772201160.0299444,133.30078125,-70.3125,-738.76953125,144.53125,0.0,0,0
1772201160.107768,1772201160.0338376,-1000.0,-112.3046875,-499.0234375,-1000.0,0.0,0,0
1772201160.1078668,1772201160.0377307,-710.9375,67.87109375,599.12109375,-1000.0,0.0,0,0
1772201160.107915,1772201160.041624,638.18359375,170.41015625,864.2578125,72.265625,0.0,0,0
1772201160.1079528,1772201160.0455172,-824.21875,121.09375,198.2421875,-764.16015625,0.0,0,0
1772201160.107991,1772201160.0494103,165.52734375,-62.01171875,-706.0546875,297.8515625,0.0,0,0
1772201160.108028,1772201160.0533035,-1000.0,-125.9765625,-531.25,-966.30859375,0.0,0,0
1772201160.108063,1772201160.0571966,-913.57421875,-1.46484375,444.3359375,-1000.0,0.0,0,0
1772201160.108099,1772201160.0610898,365.234375,141.11328125,875.48828125,-112.79296875,0.0,0,0
1772201160.108135,1772201160.064983,-787.109375,139.6484375,375.9765625,-808.10546875,0.0,0,0
1772201160.108171,1772201160.068876,191.40625,-59.08203125,-700.68359375,479.4921875,0.0,0,0
1772201160.108207,1772201160.0727692,-1000.0,-157.2265625,-599.12109375,-878.41796875,0.0,0,0
1772201160.153452,1772201160.0768166,-1000.0,-51.7578125,333.0078125,-1000.0,0.0,0,0
1772201160.1536279,1772201160.0807097,127.44140625,107.421875,841.30859375,-228.02734375,0.0,0,0
1772201160.153688,1772201160.0846028,-781.25,123.046875,443.84765625,-894.04296875,0.0,0,0
1772201160.153743,1772201160.088496,313.4765625,-71.77734375,-699.70703125,723.14453125,0.0,0,0
1772201160.153794,1772201160.0923893,-965.33203125,-170.8984375,-716.796875,-660.64453125,0.0,0,0
1772201160.153846,1772201160.0962825,-1000.0,-71.2890625,193.359375,-1000.0,0.0,0,0
1772201160.153899,1772201160.1001756,-55.17578125,82.51953125,811.03515625,-193.84765625,0.0,0,0
1772201160.153949,1772201160.1040688,-819.82421875,103.515625,438.4765625,-956.54296875,0.0,0,0
1772201160.1539998,1772201160.107962,501.953125,-80.56640625,-668.45703125,937.01171875,0.0,0,0
1772201160.154062,1772201160.111855,-846.19140625,-216.30859375,-818.359375,-348.6328125,0.0,0,0
1772201160.154113,1772201160.1157484,-1000.0,-143.5546875,17.578125,-1000.0,0.0,0,0
1772201160.154161,1772201160.1196415,-152.34375,37.109375,795.41015625,-182.6171875,0.0,0,0
1772201160.213512,1772201160.1237583,-887.6953125,85.9375,450.68359375,-998.53515625,0.0,0,0
1772201160.2136378,1772201160.1276515,729.98046875,-45.8984375,-579.58984375,-954.58984375,0.0,0,0
1772201160.213779,1772201160.1315446,-616.2109375,-177.24609375,-897.94921875,-72.265625,0.0,0,0
1772201160.213842,1772201160.135438,-1000.0,-155.2734375,-185.546875,-1000.0,0.0,0,0
1772201160.213875,1772201160.139331,-175.29296875,24.90234375,775.87890625,-366.2109375,0.0,0,0
1772201160.2139058,1772201160.1432242,-956.0546875,96.19140625,495.60546875,917.96875,0.0,0,0
1772201160.2140002,1772201160.1471176,934.08203125,-19.04296875,-414.0625,-895.99609375,0.0,0,0
1772201160.214051,1772201160.1510108,-310.546875,-195.80078125,-879.8828125,120.1171875,0.0,0,0
1772201160.214148,1772201160.154904,-1000.0,-212.890625,-338.37890625,-1000.0,0.0,0,0
1772201160.214209,1772201160.1587973,-231.4453125,-14.16015625,804.6875,-564.94140625,0.0,0,0
1772201160.2142432,1772201160.1626904,987.3046875,76.66015625,586.9140625,818.84765625,0.0,0,0
1772201160.2143528,1772201160.1665835,-956.0546875,10.7421875,-273.92578125,-853.515625,0.0,0,0
1772201160.257629,1772201160.1706843,-64.94140625,-152.83203125,-816.40625,187.98828125,0.0,0,0
1772201160.257746,1772201160.1745775,-1000.0,-191.89453125,-448.73046875,-1000.0,0.0,0,0
1772201160.257803,1772201160.1784708,-359.375,-3.41796875,742.67578125,-830.078125,0.0,0,0
1772201160.257857,1772201160.182364,917.96875,94.23828125,719.23828125,530.2734375,0.0,0,0
1772201160.257909,1772201160.1862574,-899.4140625,22.4609375,-100.09765625,-798.828125,0.0,0,0
1772201160.257969,1772201160.1901505,113.76953125,-158.69140625,-766.6015625,152.83203125,0.0,0,0
1772201160.258021,1772201160.1940439,-1000.0,-202.1484375,-483.3984375,-1000.0,0.0,0,0
1772201160.25807,1772201160.197937,-575.68359375,-52.734375,661.1328125,-1000.0,0.0,0,0
1772201160.2581298,1772201160.2018304,772.4609375,80.56640625,827.63671875,179.19921875,0.0,0,0
1772201160.2581801,1772201160.2057235,-853.02734375,58.10546875,100.5859375,-760.7421875,0.0,0,0
1772201160.258232,1772201160.2096167,168.45703125,-145.5078125,-722.16796875,208.49609375,0.0,0,0
1772201160.258282,1772201160.21351,-1000.0,-200.1953125,-504.8828125,-1000.0,0.0,0,0
1772201160.2882838,1772201160.217531,-783.203125,-36.1328125,547.36328125,-1000.0,0.0,0,0
1772201160.288416,1772201160.2214243,550.29296875,113.28125,896.97265625,-25.87890625,0.0,0,0
1772201160.288451,1772201160.2253175,-810.546875,85.44921875,282.2265625,-782.2265625,0.0,0,0
1772201160.288481,1772201160.2292109,171.875,-125.48828125,-728.02734375,395.01953125,0.0,0,0
1772201160.288511,1772201160.233104,-1000.0,-194.3359375,-544.921875,-918.45703125,0.0,0,0
1772201160.28854,1772201160.2369974,-972.65625,-78.125,446.2890625,-1000.0,0.0,0,0
1772201160.2886028,1772201160.2408905,250.48828125,80.078125,882.8125,-204.58984375,0.0,0,0
1772201160.288679,1772201160.2447839,-780.76171875,97.65625,405.76171875,-855.46875,0.0,0,0
1772201160.288716,1772201160.248677,241.69921875,-102.5390625,-706.0546875,605.95703125,0.0,0,0
1772201160.288748,1772201160.2525704,-1000.0,-180.17578125,-658.203125,-786.62109375,0.0,0,0
1772201160.2887812,1772201160.2564635,-1000.0,-60.05859375,267.578125,-1000.0,0.0,0,0
1772201160.28881,1772201160.260357,6.8359375,107.91015625,828.61328125,-208.49609375,0.0,0,0
1772201160.332326,1772201160.264363,-795.41015625,117.67578125,450.1953125,-931.640625,0.0,0,0
1772201160.3323982,1772201160.2682564,404.78515625,-64.94140625,-673.33984375,853.02734375,0.0,0,0
1772201160.3324249,1772201160.2721496,-912.109375,-170.8984375,-773.92578125,-482.421875,0.0,0,0
1772201160.3324502,1772201160.276043,-1000.0,-102.05078125,99.12109375,-1000.0,0.0,0,0
1772201160.332474,1772201160.279936,-138.18359375,56.640625,801.26953125,-177.734375,0.0,0,0
1772201160.3324978,1772201160.2838295,-854.4921875,103.515625,472.16796875,-985.83984375,0.0,0,0
1772201160.332522,1772201160.2877228,615.72265625,-1.953125,-585.44921875,-976.07421875,0.0,0,0
1772201160.332546,1772201160.291616,-744.62890625,-143.5546875,-875.48828125,-162.59765625,0.0,0,0
1772201160.33257,1772201160.2955093,-1000.0,-129.39453125,-91.30859375,-1000.0,0.0,0,0
1772201160.332592,1772201160.2994025,-180.6640625,69.3359375,801.26953125,-284.66796875,0.0,0,0
1772201160.3326159,1772201160.3032959,-928.7109375,112.79296875,464.84375,958.984375,0.0,0,0
1772201160.33264,1772201160.3071892,851.07421875,-10.7421875,-491.69921875,-921.38671875,0.0,0,0
1772201160.394648,1772201160.3111904,-452.63671875,-149.4140625,-891.6015625,23.92578125,0.0,0,0
1772201160.394746,1772201160.3150837,-1000.0,-140.625,-252.9296875,-1000.0,0.0,0,0
1772201160.394787,1772201160.3189769,-199.70703125,47.8515625,806.640625,-464.35546875,0.0,0,0
1772201160.394826,1772201160.3228703,-984.86328125,133.7890625,534.1796875,868.1640625,0.0,0,0
1772201160.394864,1772201160.3267636,997.55859375,41.9921875,-327.1484375,-871.58203125,0.0,0,0
1772201160.394902,1772201160.3306568,-180.17578125,-127.9296875,-845.703125,205.078125,0.0,0,0
1772201160.394939,1772201160.3345501,-1000.0,-145.5078125,-387.6953125,-1000.0,0.0,0,0
1772201160.394975,1772201160.3384435,-300.78125,23.4375,797.8515625,-719.23828125,0.0,0,0
1772201160.3950121,1772201160.3423367,947.75390625,114.2578125,656.73828125,674.8046875,0.0,0,0
1772201160.3950489,1772201160.34623,-918.9453125,46.875,-142.08984375,-824.21875,0.0,0,0
1772201160.395085,1772201160.3501234,44.921875,-145.01953125,-763.18359375,168.45703125,0.0,0,0
1772201160.3951209,1772201160.3540165,-1000.0,-176.7578125,-448.73046875,-1000.0,0.0,0,0
1772201160.438198,1772201160.3580837,-461.9140625,7.8125,748.53515625,-946.77734375,0.0,0,0
1772201160.438297,1772201160.361977,857.91015625,111.81640625,788.57421875,353.515625,0.0,0,0
1772201160.438338,1772201160.3658705,-875.9765625,83.0078125,48.828125,-775.390625,0.0,0,0
1772201160.438376,1772201160.3697636,152.83203125,-115.72265625,-719.7265625,143.5546875,0.0,0,0
1772201160.438415,1772201160.373657,-1000.0,-182.6171875,-481.4453125,-1000.0,0.0,0,0
1772201160.438451,1772201160.3775504,-680.17578125,-4.8828125,647.4609375,-1000.0,0.0,0,0
1772201160.438487,1772201160.3814437,665.52734375,131.8359375,879.8828125,57.6171875,0.0,0,0
1772201160.438524,1772201160.3853369,-830.56640625,99.12109375,214.84375,-765.625,0.0,0,0
1772201160.43856,1772201160.3892303,175.29296875,-93.75,-709.47265625,315.4296875,0.0,0,0
1772201160.438596,1772201160.3931236,-1000.0,-179.6875,-519.04296875,-958.49609375,0.0,0,0
1772201160.438632,1772201160.397017,-884.765625,-53.22265625,492.67578125,-1000.0,0.0,0,0
1772201160.438667,1772201160.4009101,400.390625,108.88671875,894.04296875,-126.46484375,0.0,0,0
1772201160.483341,1772201160.4049675,-792.48046875,99.12109375,335.9375,-813.96484375,0.0,0,0
1772201160.483551,1772201160.408861,204.1015625,-92.7734375,-734.375,503.41796875,0.0,0,0
1772201160.483628,1772201160.4127543,-1000.0,-160.64453125,-601.5625,-865.234375,0.0,0,0
1772201160.48367,1772201160.4166474,-1000.0,-47.8515625,331.54296875,-1000.0,0.0,0,0
1772201160.4837089,1772201160.4205408,140.13671875,111.328125,841.796875,-223.14453125,0.0,0,0
1772201160.483747,1772201160.4244342,-784.66796875,135.7421875,435.546875,-902.83203125,0.0,0,0
1772201160.483785,1772201160.4283276,323.73046875,-42.96875,-699.70703125,754.39453125,0.0,0,0
1772201160.4838212,1772201160.432221,-954.58984375,-142.578125,-734.375,-620.1171875,0.0,0,0
1772201160.483876,1772201160.4361143,-1000.0,-58.10546875,102.5390625,-1000.0,0.0,0,0
1772201160.483912,1772201160.4400077,-84.47265625,97.16796875,766.6015625,-188.4765625,0.0,0,0
1772201160.483949,1772201160.4439008,-827.1484375,123.53515625,445.80078125,-966.30859375,0.0,0,0
1772201160.483986,1772201160.4477942,529.296875,-34.1796875,-674.8046875,965.33203125,0.0,0,0
1772201160.559962,1772201160.4519928,-820.3125,-153.80859375,-837.890625,-289.55078125,0.0,0,0
1772201160.560069,1772201160.4558861,-1000.0,-105.95703125,-34.1796875,-1000.0,0.0,0,0
1772201160.560111,1772201160.4597795,-171.38671875,76.66015625,771.97265625,-212.890625,0.0,0,0
1772201160.560151,1772201160.4636729,-894.53125,144.04296875,439.94140625,990.72265625,0.0,0,0
1772201160.560193,1772201160.4675663,745.60546875,21.97265625,-594.23828125,-946.77734375,0.0,0,0
1772201160.560232,1772201160.4714596,-597.16796875,-125.0,-910.15625,-52.734375,0.0,0,0
1772201160.560269,1772201160.475353,-1000.0,-110.3515625,-211.9140625,-1000.0,0.0,0,0
1772201160.560353,1772201160.4792464,-186.5234375,75.68359375,774.4140625,-397.4609375,0.0,0,0
1772201160.5604439,1772201160.4831398,-961.9140625,139.6484375,480.95703125,903.3203125,0.0,0,0
1772201160.560491,1772201160.4870331,945.80078125,15.13671875,-451.171875,-889.6484375,0.0,0,0
1772201160.560566,1772201160.4909265,-290.0390625,-148.92578125,-889.6484375,127.44140625,0.0,0,0
1772201160.560631,1772201160.4948199,-1000.0,-138.671875,-345.703125,-1000.0,0.0,0,0
1772201160.5747619,1772201160.4988654,-247.55859375,57.6171875,802.24609375,-582.51953125,0.0,0,0
1772201160.574888,1772201160.5027587,980.46875,126.953125,591.796875,802.24609375,0.0,0,0
1772201160.574944,1772201160.506652,-951.66015625,26.3671875,-294.921875,-850.09765625,0.0,0,0
1772201160.575121,1772201160.5105457,-54.6875,-149.90234375,-836.42578125,186.03515625,0.0,0,0
1772201160.575178,1772201160.514439,-1000.0,-171.875,-437.98828125,-1000.0,0.0,0,0
1772201160.5752268,1772201160.5183325,-383.30078125,20.01953125,766.6015625,-844.7265625,0.0,0,0
1772201160.575279,1772201160.5222259,905.76171875,123.53515625,728.02734375,510.7421875,0.0,0,0
1772201160.575329,1772201160.5261192,-894.04296875,66.40625,-83.49609375,-795.41015625,0.0,0,0
1772201160.5753658,1772201160.5300126,120.1171875,-133.7890625,-758.30078125,149.90234375,0.0,0,0
1772201160.575403,1772201160.533906,-1000.0,-190.91796875,-452.1484375,-1000.0,0.0,0,0
1772201160.575438,1772201160.5377994,-594.23828125,0.0,702.1484375,-1000.0,0.0,0,0
1772201160.5754728,1772201160.5416927,754.39453125,117.67578125,841.796875,149.4140625,0.0,0,0
1772201160.618154,1772201160.5457208,-848.6328125,70.80078125,141.6015625,-758.30078125,0.0,0,0
1772201160.6182458,1772201160.5496142,169.43359375,-128.90625,-712.890625,224.12109375,0.0,0,0
1772201160.618288,1772201160.5535076,-1000.0,-188.4765625,-498.046875,-1000.0,0.0,0,0
1772201160.618325,1772201160.5574012,-818.84765625,-78.125,567.3828125,-1000.0,0.0,0,0
1772201160.6183622,1772201160.5612946,503.41796875,53.7109375,896.484375,-42.48046875,0.0,0,0
1772201160.618399,1772201160.565188,-803.7109375,112.79296875,327.63671875,-786.1328125,0.0,0,0
1772201160.618436,1772201160.5690813,176.26953125,-83.49609375,-691.40625,415.52734375,0.0,0,0
1772201160.6184719,1772201160.5729747,-1000.0,-186.03515625,-556.15234375,-907.2265625,0.0,0,0
1772201160.618509,1772201160.5768683,-988.76953125,-57.6171875,412.109375,-1000.0,0.0,0,0
1772201160.6185448,1772201160.5807617,221.6796875,113.28125,864.2578125,-223.14453125,0.0,0,0
1772201160.618581,1772201160.584655,-779.78515625,134.765625,432.12890625,-869.140625,0.0,0,0
1772201160.618617,1772201160.5885484,256.8359375,-63.96484375,-689.453125,641.11328125,0.0,0,0
1772201160.663722,1772201160.5925686,-993.1640625,-172.8515625,-683.59375,-753.90625,0.0,0,0
1772201160.663855,1772201160.596462,-1000.0,-91.30859375,256.34765625,-1000.0,0.0,0,0
1772201160.663896,1772201160.6003556,-5.859375,68.359375,842.7734375,-203.61328125,0.0,0,0
1772201160.663934,1772201160.604249,-802.734375,98.14453125,446.77734375,-940.4296875,0.0,0,0
1772201160.663973,1772201160.6081424,435.546875,-52.24609375,-668.9453125,882.8125,0.0,0,0
1772201160.66401,1772201160.612036,-890.625,-161.62109375,-785.15625,-436.5234375,0.0,0,0
1772201160.664047,1772201160.6159294,-1000.0,-121.58203125,65.4296875,-1000.0,0.0,0,0
1772201160.6640818,1772201160.6198227,-146.484375,41.50390625,792.96875,-175.29296875,0.0,0,0
1772201160.664118,1772201160.623716,-864.74609375,119.140625,440.4296875,-989.2578125,0.0,0,0
1772201160.6641579,1772201160.6276097,653.3203125,1.46484375,-625.9765625,-969.23828125,0.0,0,0
1772201160.664196,1772201160.631503,-703.125,-128.41796875,-880.859375,-128.90625,0.0,0,0
1772201160.664232,1772201160.6353965,-1000.0,-96.6796875,-123.53515625,-1000.0,0.0,0,0
1772201160.723209,1772201160.6394067,-186.5234375,83.49609375,781.73828125,-314.94140625,0.0,0,0
1772201160.723328,1772201160.6433,-934.5703125,126.46484375,457.03125,944.3359375,0.0,0,0
1772201160.723393,1772201160.6471937,866.2109375,8.7890625,-510.7421875,-912.59765625,0.0,0,0
1772201160.723453,1772201160.651087,-427.734375,-144.04296875,-905.2734375,55.17578125,0.0,0,0
1772201160.723504,1772201160.6549804,-1000.0,-153.3203125,-299.8046875,-1000.0,0.0,0,0
1772201160.723553,1772201160.658874,-210.9375,50.29296875,801.7578125,-497.55859375,0.0,0,0
1772201160.723603,1772201160.6627674,-993.1640625,84.9609375,535.15625,851.5625,0.0,0,0
1772201160.723653,1772201160.6666608,-988.76953125,-7.8125,-352.5390625,-865.72265625,0.0,0,0
1772201160.723704,1772201160.6705544,-150.87890625,-135.7421875,-848.14453125,200.68359375,0.0,0,0
1772201160.7237551,1772201160.6744478,-1000.0,-154.296875,-388.671875,-1000.0,0.0,0,0
1772201160.7238028,1772201160.6783412,-318.84765625,59.5703125,806.15234375,-742.67578125,0.0,0,0
1772201160.723853,1772201160.6822348,939.453125,163.0859375,672.36328125,644.04296875,0.0,0,0
1772201160.7683918,1772201160.6862433,-914.0625,80.56640625,-146.484375,-818.84765625,0.0,0,0
1772201160.768485,1772201160.690137,57.6171875,-114.2578125,-776.85546875,166.50390625,0.0,0,0
1772201160.768529,1772201160.6940303,-1000.0,-150.390625,-454.1015625,-1000.0,0.0,0,0
1772201160.768567,1772201160.697924,-486.328125,33.69140625,739.74609375,-957.03125,0.0,0,0
1772201160.768605,1772201160.7018173,841.30859375,150.87890625,778.80859375,337.40234375,0.0,0,0
1772201160.768642,1772201160.705711,-871.09375,110.83984375,52.734375,-773.4375,0.0,0,0
1772201160.768678,1772201160.7096043,160.15625,-90.8203125,-697.265625,142.578125,0.0,0,0
1772201160.768714,1772201160.7134976,-1000.0,-154.78515625,-496.58203125,-1000.0,0.0,0,0
1772201160.768749,1772201160.7173913,-722.16796875,-7.32421875,604.98046875,-1000.0,0.0,0,0
1772201160.768785,1772201160.7212846,626.46484375,139.16015625,881.34765625,42.96875,0.0,0,0
1772201160.768843,1772201160.7251782,-822.75390625,149.90234375,267.08984375,-766.6015625,0.0,0,0
1772201160.768907,1772201160.7290716,170.8984375,-59.5703125,-685.05859375,328.61328125,0.0,0,0
1772201160.8132951,1772201160.7331388,-1000.0,-132.32421875,-520.01953125,-951.66015625,0.0,0,0
1772201160.813387,1772201160.7370324,-912.59765625,7.32421875,496.09375,-1000.0,0.0,0,0
1772201160.81342,1772201160.7409258,356.93359375,134.765625,892.08984375,-141.6015625,0.0,0,0
1772201160.81345,1772201160.7448194,-787.59765625,126.953125,400.390625,-819.3359375,0.0,0,0
1772201160.81348,1772201160.7487128,212.40234375,-79.1015625,-688.4765625,520.99609375,0.0,0,0
1772201160.8135092,1772201160.7526064,-1000.0,-168.9453125,-612.3046875,-856.4453125,0.0,0,0
1772201160.8135371,1772201160.7564998,-1000.0,-64.453125,316.89453125,-1000.0,0.0,0,0
1772201160.813565,1772201160.7603934,84.9609375,92.7734375,826.66015625,-219.7265625,0.0,0,0
1772201160.8135948,1772201160.7642868,-785.15625,130.37109375,459.47265625,-910.15625,0.0,0,0
1772201160.8136241,1772201160.7681804,346.6796875,-35.15625,-669.43359375,779.78515625,0.0,0,0
1772201160.813653,1772201160.7720737,-944.3359375,-151.3671875,-737.79296875,-587.40234375,0.0,0,0
1772201160.8136818,1772201160.7759674,-1000.0,-68.359375,163.57421875,-1000.0,0.0,0,0
1772201160.872427,1772201160.7800922,-97.16796875,104.00390625,810.05859375,-184.5703125,0.0,1,0
1772201160.8725178,1772201160.7839859,-833.984375,132.8125,460.9375,-974.609375,0.0,0,0
1772201160.872549,1772201160.7878792,551.26953125,-16.6015625,-622.55859375,988.76953125,0.0,0,0
1772201160.87258,1772201160.7917728,-802.734375,-162.109375,-843.75,-242.67578125,0.0,0,0
1772201160.872608,1772201160.7956665,-1000.0,-109.375,-43.9453125,-1000.0,0.0,0,0
1772201160.8726358,1772201160.7995598,-171.875,92.7734375,782.71484375,-237.3046875,0.0,0,0
1772201160.8726652,1772201160.8034534,-904.296875,121.09375,447.75390625,979.98046875,0.0,0,0
1772201160.872694,1772201160.807347,777.34375,-6.34765625,-570.3125,-937.98828125,0.0,0,0
1772201160.872724,1772201160.8112404,-555.17578125,-160.15625,-906.73828125,-23.92578125,0.0,0,0
1772201160.872753,1772201160.815134,-1000.0,-172.36328125,-212.40234375,-1000.0,0.0,0,0
1772201160.872781,1772201160.8190274,-187.98828125,48.33984375,790.0390625,-418.9453125,0.0,0,0
1772201160.87281,1772201160.822921,-967.28515625,113.76953125,502.44140625,892.578125,0.0,0,0
1772201160.902648,1772201160.8269613,957.51953125,-0.48828125,-409.1796875,-884.765625,0.0,0,0
1772201160.902804,1772201160.830855,-263.671875,-148.4375,-882.32421875,149.90234375,0.0,0,0
1772201160.902913,1772201160.8347483,-1000.0,-164.0625,-378.41796875,-1000.0,0.0,0,0
1772201160.902993,1772201160.838642,-261.71875,29.296875,782.2265625,-630.859375,0.0,0,0
1772201160.903168,1772201160.8425355,970.21484375,110.83984375,619.140625,756.34765625,0.0,0,0
1772201160.9032278,1772201160.846429,-939.94140625,25.87890625,-235.3515625,-840.8203125,0.0,0,0
1772201160.903282,1772201160.8503225,-20.5078125,-148.4375,-808.10546875,180.17578125,0.0,0,0
1772201160.903426,1772201160.854216,-1000.0,-191.40625,-457.51953125,-1000.0,0.0,0,0
1772201160.903466,1772201160.8581097,-413.0859375,-17.578125,729.4921875,-877.44140625,0.0,0,0
1772201160.903504,1772201160.862003,889.6484375,107.421875,750.0,460.44921875,0.0,0,0
1772201160.903541,1772201160.8658967,-888.18359375,62.01171875,-48.828125,-789.55078125,0.0,0,0
1772201160.903578,1772201160.8697903,129.39453125,-128.90625,-759.27734375,149.4140625,0.0,0,0
1772201160.9478478,1772201160.8738222,-1000.0,-206.54296875,-489.2578125,-1000.0,0.0,0,0
1772201160.94794,1772201160.8777158,-628.90625,-52.734375,638.671875,-1000.0,0.0,0,0
1772201160.947981,1772201160.8816092,725.09765625,95.21484375,858.88671875,137.6953125,0.0,0,0
1772201160.948019,1772201160.8855028,-841.30859375,74.70703125,173.828125,-758.30078125,0.0,0,0
1772201160.9480572,1772201160.8893964,170.41015625,-124.51171875,-706.0546875,240.234375,0.0,0,0
1772201160.948094,1772201160.89329,-1000.0,-192.87109375,-518.06640625,-994.140625,0.0,0,0
1772201160.9481301,1772201160.8971837,-851.07421875,-60.05859375,497.0703125,-1000.0,0.0,0,0
1772201160.948166,1772201160.9010773,460.9375,61.5234375,881.34765625,-54.19921875,0.0,0,0
1772201160.948203,1772201160.9049706,-797.8515625,58.10546875,337.40234375,-789.55078125,0.0,0,0
1772201160.948239,1772201160.9088643,178.7109375,-105.95703125,-696.77734375,434.08203125,0.0,0,0
1772201160.948276,1772201160.9127579,-1000.0,-186.5234375,-573.73046875,-897.4609375,0.0,0,0
1772201160.948311,1772201160.9166515,-999.51171875,-76.171875,367.1875,-1000.0,0.0,0,0
1772201160.9922938,1772201160.920673,197.75390625,92.7734375,848.6328125,-234.86328125,0.0,0,0
1772201160.992408,1772201160.9245665,-781.73828125,117.1875,428.7109375,-882.32421875,0.0,0,0
1772201160.9924648,1772201160.9284601,285.64453125,-66.40625,-692.3828125,682.12890625,0.0,0,0
1772201160.9925172,1772201160.9323535,-1000.0,-172.36328125,-694.3359375,-739.2578125,0.0,0,0
1772201160.992569,1772201160.936247,-1000.0,-83.0078125,216.796875,-1000.0,0.0,0,0
1772201160.992617,1772201160.9401407,62.5,97.65625,828.125,-111.328125,0.0,0,0
1772201160.992665,1772201160.9440343,-817.3828125,122.55859375,439.453125,-957.51953125,0.0,0,0
1772201160.992716,1772201160.947928,452.1484375,-102.5390625,-686.5234375,904.296875,0.0,0,0
1772201160.992766,1772201160.9518216,-877.9296875,-221.6796875,-800.29296875,-401.3671875,0.0,0,0
1772201160.992817,1772201160.9557152,-1000.0,-107.421875,39.0625,-1000.0,0.0,0,0
1772201160.992883,1772201160.9596088,-154.78515625,72.265625,777.34375,-173.33984375,0.0,0,0
1772201160.992936,1772201160.9635024,-873.046875,122.0703125,456.0546875,-992.1875,0.0,0,0
1772201161.037792,1772201160.967517,676.26953125,-30.76171875,-598.14453125,-962.890625,0.0,0,0
1772201161.037944,1772201160.9714105,-676.7578125,-182.6171875,-894.53125,-100.5859375,0.0,0,0
1772201161.038029,1772201160.9753041,-1000.0,-145.5078125,-160.15625,-1000.0,0.0,0,0
1772201161.038118,1772201160.9791977,-187.98828125,53.7109375,767.08984375,-342.28515625,0.0,0,0
1772201161.038164,1772201160.9830914,-942.87109375,115.72265625,473.14453125,931.640625,0.0,0,0
1772201161.0382028,1772201160.986985,889.6484375,-0.48828125,-472.16796875,-905.76171875,0.0,0,0
1772201161.038242,1772201160.9908783,-387.6953125,-189.453125,-893.5546875,79.58984375,0.0,0,0
1772201161.0382788,1772201160.994772,-1000.0,-209.47265625,-349.609375,-1000.0,0.0,0,0
1772201161.0383139,1772201160.9986656,-224.609375,42.96875,754.39453125,-527.83203125,0.0,0,0
1772201161.038351,1772201161.0025592,998.046875,139.6484375,555.17578125,836.42578125,0.0,0,0
1772201161.038388,1772201161.0064528,-978.02734375,16.6015625,-335.44921875,-860.3515625,0.0,0,0
1772201161.038424,1772201161.0103464,-124.0234375,-150.87890625,-848.6328125,194.82421875,0.0,0,0
1772201161.082667,1772201161.0143523,-1000.0,-157.71484375,-414.55078125,-1000.0,0.0,0,0
1772201161.082771,1772201161.018246,-336.9140625,25.87890625,775.87890625,-782.2265625,0.0,0,0
1772201161.082814,1772201161.0221395,929.6875,119.62890625,700.1953125,592.7734375,0.0,0,0
1772201161.0828521,1772201161.0260332,-909.1796875,65.91796875,-124.51171875,-810.05859375,0.0,0,0
1772201161.08289,1772201161.0299268,76.171875,-118.1640625,-778.3203125,160.64453125,0.0,0,0
1772201161.082927,1772201161.0338204,-1000.0,-168.9453125,-455.56640625,-1000.0,0.0,0,0
1772201161.082962,1772201161.037714,-538.57421875,-34.1796875,704.1015625,-991.69921875,0.0,0,0
1772201161.0830002,1772201161.0416076,802.734375,53.7109375,808.10546875,270.01953125,0.0,0,0
1772201161.083037,1772201161.0455012,-860.3515625,49.8046875,74.70703125,-768.5546875,0.0,0,0
