timestamp,lsl_timestamp,TP9,AF7,AF8,TP10,Right AUX,keypress_A,keypress_B
1772023884.9650612,1772023884.8920958,26.3671875,-30.76171875,-182.6171875,53.22265625,0.0,0,0
1772023884.965194,1772023884.8959908,-193.84765625,-53.22265625,-384.27734375,-354.98046875,0.0,0,0
1772023884.9652228,1772023884.899886,-194.82421875,-45.8984375,-163.0859375,-342.28515625,0.0,0,0
1772023884.965248,1772023884.903781,42.48046875,-9.27734375,207.51953125,97.65625,0.0,0,0
1772023884.9652731,1772023884.907676,214.84375,7.8125,287.59765625,390.625,0.0,0,0
1772023884.965296,1772023884.911571,75.1953125,-25.390625,-160.64453125,99.609375,0.0,0,0
1772023884.965326,1772023884.915466,-159.1796875,-48.33984375,-402.34375,-327.63671875,0.0,0,0
1772023884.96535,1772023884.919361,-196.2890625,-30.2734375,-197.75390625,-374.51171875,0.0,0,0
1772023884.965376,1772023884.923256,20.5078125,-2.44140625,183.59375,45.41015625,0.0,0,0
1772023884.965399,1772023884.927151,202.1484375,13.18359375,313.4765625,373.53515625,0.0,0,0
1772023884.9654222,1772023884.931046,98.14453125,-6.8359375,-81.54296875,158.69140625,0.0,0,0
1772023884.965445,1772023884.934941,-154.78515625,-41.9921875,-378.41796875,-298.828125,0.0,0,0
1772023885.010605,1772023884.9389906,-230.95703125,-48.828125,-245.1171875,-417.48046875,0.0,0,0
1772023885.010709,1772023884.9428856,-25.390625,-22.4609375,151.85546875,-17.578125,0.0,0,0
1772023885.0107431,1772023884.9467807,169.43359375,4.8828125,309.5703125,341.796875,0.0,0,0
1772023885.010773,1772023884.9506757,99.12109375,-10.7421875,-31.73828125,211.9140625,0.0,0,0
1772023885.010804,1772023884.9545708,-153.3203125,-58.10546875,-359.375,-254.39453125,0.0,0,0
1772023885.0108328,1772023884.9584658,-248.046875,-62.01171875,-276.3671875,-435.546875,0.0,0,0
1772023885.010862,1772023884.9623609,-57.6171875,-18.06640625,139.6484375,-56.15234375,0.0,0,0
1772023885.010891,1772023884.966256,146.484375,4.39453125,318.84765625,320.3125,0.0,0,0
1772023885.0109189,1772023884.9701512,126.46484375,-19.53125,35.15625,252.44140625,0.0,0,0
1772023885.010952,1772023884.9740462,-113.28125,-55.6640625,-339.35546875,-218.75,0.0,0,0
1772023885.0109801,1772023884.9779413,-249.0234375,-69.82421875,-328.61328125,-466.796875,0.0,0,0
1772023885.011009,1772023884.9818363,-86.9140625,-32.71484375,113.76953125,-133.30078125,0.0,0,0
1772023885.0709782,1772023884.98596,133.7890625,3.41796875,338.8671875,281.25,0.0,0,0
1772023885.071079,1772023884.989855,169.43359375,-2.44140625,132.32421875,303.7109375,0.0,0,0
1772023885.071114,1772023884.99375,-71.2890625,-36.1328125,-278.3203125,-156.25,0.0,0,0
1772023885.0711439,1772023884.9976454,-250.9765625,-56.15234375,-354.98046875,-452.1484375,0.0,0,0
1772023885.071178,1772023885.0015404,-104.4921875,-21.97265625,78.61328125,-172.8515625,0.0,0,0
1772023885.0712068,1772023885.0054355,120.1171875,18.5546875,333.984375,242.67578125,0.0,0,0
1772023885.0712361,1772023885.0093305,164.55078125,10.25390625,175.78125,315.91796875,0.0,0,0
1772023885.071265,1772023885.0132256,-67.87109375,-34.1796875,-244.62890625,-124.51171875,0.0,0,0
1772023885.071309,1772023885.0171208,-258.30078125,-56.15234375,-371.58203125,-456.54296875,0.0,0,0
1772023885.071338,1772023885.021016,-145.99609375,-26.85546875,19.53125,-241.69921875,0.0,0,0
1772023885.0713658,1772023885.024911,93.75,6.34765625,313.4765625,195.3125,0.0,0,0
1772023885.071394,1772023885.028806,181.15234375,9.765625,211.9140625,347.65625,0.0,0,0
1772023885.101482,1772023885.0328398,-37.109375,-26.3671875,-202.63671875,-56.640625,0.0,0,0
1772023885.101671,1772023885.0367348,-248.53515625,-58.10546875,-355.95703125,-424.8046875,0.0,0,0
1772023885.101726,1772023885.04063,-184.08203125,-39.55078125,-21.97265625,-283.203125,0.0,0,0
1772023885.1017668,1772023885.0445251,62.98828125,0.0,306.640625,170.41015625,0.0,0,0
1772023885.101836,1772023885.0484202,174.8046875,9.27734375,257.32421875,370.60546875,0.0,0,0
1772023885.101873,1772023885.0523155,-34.1796875,-36.62109375,-178.22265625,-7.8125,0.0,0,0
1772023885.101919,1772023885.0562105,-236.81640625,-66.40625,-359.86328125,-391.11328125,0.0,0,0
1772023885.101953,1772023885.0601056,-199.70703125,-49.8046875,-89.35546875,-333.49609375,0.0,0,0
1772023885.101986,1772023885.0640006,42.48046875,-7.8125,260.25390625,112.79296875,0.0,0,0
1772023885.102029,1772023885.067896,194.3359375,0.0,282.71484375,376.953125,0.0,0,0
1772023885.102061,1772023885.071791,27.83203125,-30.2734375,-145.5078125,54.19921875,0.0,0,0
1772023885.1020968,1772023885.075686,-196.77734375,-46.38671875,-358.88671875,-354.98046875,0.0,0,0
1772023885.145911,1772023885.0797026,-219.23828125,-53.7109375,-164.0625,-369.62890625,0.0,0,0
1772023885.146032,1772023885.0835977,6.8359375,-22.94921875,203.61328125,65.4296875,0.0,0,0
1772023885.1460779,1772023885.087493,185.05859375,9.765625,307.6171875,376.46484375,0.0,0,0
1772023885.146121,1772023885.091388,46.38671875,-23.92578125,-107.421875,116.2109375,0.0,0,0
1772023885.146167,1772023885.095283,-193.359375,-61.03515625,-367.67578125,-328.61328125,0.0,0,0
1772023885.1462111,1772023885.0991783,-231.93359375,-51.7578125,-195.3125,-404.78515625,0.0,0,0
1772023885.146255,1772023885.1030734,-15.625,-11.71875,188.4765625,15.625,0.0,0,0
1772023885.1462982,1772023885.1069686,170.41015625,0.48828125,298.828125,354.4921875,0.0,0,0
1772023885.146341,1772023885.1108637,79.1015625,-29.296875,-80.56640625,165.0390625,0.0,0,0
1772023885.1463869,1772023885.1147587,-172.36328125,-63.96484375,-362.3046875,-294.43359375,0.0,0,0
1772023885.1464489,1772023885.118654,-258.30078125,-62.5,-247.0703125,-431.640625,0.0,0,0
1772023885.146493,1772023885.122549,-50.78125,-31.25,150.87890625,-34.66796875,0.0,0,0
1772023885.192267,1772023885.1265552,159.1796875,-8.7890625,331.54296875,342.28515625,0.0,0,0
1772023885.1924422,1772023885.1304502,101.07421875,-20.5078125,-2.44140625,235.83984375,0.0,0,0
1772023885.192508,1772023885.1343455,-147.94921875,-59.5703125,-345.21484375,-231.93359375,0.0,0,0
1772023885.1925719,1772023885.1382406,-258.7890625,-62.01171875,-290.52734375,-432.12890625,0.0,0,0
1772023885.192698,1772023885.1421356,-78.125,-31.25,107.421875,-78.125,0.0,0,0
1772023885.192749,1772023885.146031,138.671875,-6.34765625,315.91796875,311.03515625,0.0,0,0
1772023885.1927948,1772023885.149926,132.32421875,-18.06640625,63.96484375,287.109375,0.0,0,0
1772023885.192842,1772023885.1538212,-115.234375,-60.546875,-325.1953125,-177.734375,0.0,0,0
1772023885.192887,1772023885.1577163,-264.16015625,-62.01171875,-332.51953125,-433.59375,0.0,0,0
1772023885.19295,1772023885.1616116,-93.75,-17.578125,97.16796875,-115.234375,0.0,0,0
1772023885.192994,1772023885.1655066,130.859375,6.34765625,311.5234375,285.15625,0.0,0,0
1772023885.1930392,1772023885.169402,154.296875,-9.27734375,119.62890625,321.2890625,0.0,0,0
1772023885.2359118,1772023885.1733959,-87.890625,-47.36328125,-297.8515625,-125.9765625,0.0,0,0
1772023885.236052,1772023885.1772912,-264.16015625,-63.96484375,-406.73828125,-440.4296875,0.0,0,0
1772023885.236116,1772023885.1811862,-136.71875,-32.2265625,20.5078125,-194.82421875,0.0,0,0
1772023885.236178,1772023885.1850815,95.21484375,1.953125,297.36328125,235.3515625,0.0,0,0
1772023885.236247,1772023885.1889765,164.55078125,0.9765625,150.390625,342.7734375,0.0,0,0
1772023885.236309,1772023885.1928718,-62.5,-41.015625,-267.578125,-82.51953125,0.0,0,0
1772023885.236367,1772023885.1967669,-247.55859375,-62.98828125,-392.578125,-420.41015625,0.0,0,0
1772023885.236428,1772023885.2006621,-157.71484375,-48.828125,-27.34375,-238.76953125,0.0,0,0
1772023885.2364879,1772023885.2045572,72.75390625,-21.97265625,279.296875,196.77734375,0.0,0,0
1772023885.2365692,1772023885.2084525,178.7109375,-2.44140625,214.35546875,363.28125,0.0,0,0
1772023885.236636,1772023885.2123477,-33.203125,-32.2265625,-233.88671875,-35.64453125,0.0,0,0
1772023885.2366972,1772023885.2162428,-237.79296875,-59.08203125,-412.109375,-405.76171875,0.0,0,0
1772023885.294411,1772023885.2202246,-187.5,-46.38671875,-75.1953125,-299.8046875,0.0,0,0
1772023885.294548,1772023885.2241197,51.7578125,-16.11328125,288.0859375,145.5078125,0.0,0,0
1772023885.2946172,1772023885.228015,194.82421875,-4.39453125,278.80859375,381.34765625,0.0,0,0
1772023885.295316,1772023885.2319102,3.90625,-36.1328125,-177.24609375,26.3671875,0.0,0,0
1772023885.295382,1772023885.2358053,-223.14453125,-70.80078125,-390.13671875,-376.953125,0.0,0,0
1772023885.295443,1772023885.2397006,-208.0078125,-62.98828125,-133.30078125,-347.16796875,0.0,0,0
1772023885.2955031,1772023885.2435956,40.0390625,-25.87890625,245.1171875,97.65625,0.0,0,0
1772023885.295561,1772023885.247491,209.9609375,-5.859375,297.8515625,387.6953125,0.0,0,0
1772023885.295619,1772023885.251386,48.828125,-32.71484375,-165.52734375,83.49609375,0.0,0,0
1772023885.295677,1772023885.2552812,-183.10546875,-63.96484375,-398.92578125,-336.9140625,0.0,0,0
1772023885.295736,1772023885.2591765,-216.30859375,-62.01171875,-180.6640625,-368.1640625,0.0,0,0
1772023885.295794,1772023885.2630715,4.8828125,-29.296875,221.6796875,48.33984375,0.0,0,0
1772023885.370313,1772023885.2672184,185.546875,-6.34765625,349.609375,363.76953125,0.0,0,0
1772023885.3704581,1772023885.2711136,73.2421875,-29.296875,-78.125,128.90625,0.0,0,0
1772023885.370524,1772023885.275009,-158.203125,-54.19921875,-353.02734375,-307.6171875,0.0,0,0
1772023885.370589,1772023885.278904,-244.62890625,-56.15234375,-183.10546875,-409.1796875,0.0,0,0
1772023885.3706508,1772023885.2827992,-49.31640625,-29.78515625,207.03125,-9.765625,0.0,0,0
1772023885.3707101,1772023885.2866945,147.94921875,-4.8828125,352.5390625,342.28515625,0.0,0,0
1772023885.3707678,1772023885.2905898,70.3125,-29.296875,-17.08984375,174.31640625,0.0,0,0
1772023885.370826,1772023885.2944849,-169.43359375,-60.05859375,-338.8671875,-286.62109375,0.0,0,0
1772023885.3708968,1772023885.2983801,-259.765625,-50.78125,-243.1640625,-444.82421875,0.0,0,0
1772023885.370965,1772023885.3022754,-69.82421875,-23.92578125,145.01953125,-76.171875,0.0,0,0
1772023885.371022,1772023885.3061707,141.11328125,-5.37109375,342.7734375,298.33984375,0.0,0,0
1772023885.371099,1772023885.3100657,118.1640625,-14.16015625,43.9453125,226.5625,0.0,0,0
1772023885.386084,1772023885.3141193,-129.8828125,-61.5234375,-337.40234375,-243.1640625,0.0,0,0
1772023885.386173,1772023885.3180146,-255.37109375,-73.73046875,-293.9453125,-462.890625,0.0,0,0
1772023885.386208,1772023885.32191,-78.61328125,-32.71484375,151.3671875,-111.81640625,0.0,0,0
1772023885.386243,1772023885.3258052,137.20703125,2.9296875,361.328125,282.2265625,0.0,0,0
1772023885.3862772,1772023885.3297005,147.94921875,-5.37109375,103.02734375,274.90234375,0.0,0,0
1772023885.3863108,1772023885.3335958,-91.796875,-45.41015625,-307.6171875,-178.7109375,0.0,0,0
1772023885.386354,1772023885.3374908,-250.9765625,-58.59375,-349.609375,-454.1015625,0.0,0,0
1772023885.3863869,1772023885.341386,-104.98046875,-31.25,89.35546875,-164.55078125,0.0,0,0
1772023885.386421,1772023885.3452814,116.69921875,-3.41796875,335.44921875,250.0,0.0,0,0
1772023885.386453,1772023885.3491766,157.71484375,-2.44140625,155.2734375,310.05859375,0.0,0,0
1772023885.386487,1772023885.353072,-75.68359375,-47.8515625,-287.109375,-136.23046875,0.0,0,0
1772023885.386533,1772023885.3569672,-256.34765625,-61.5234375,-390.625,-458.0078125,0.0,0,0
1772023885.444598,1772023885.3610036,-144.04296875,-35.64453125,35.15625,-227.05078125,0.0,0,0
1772023885.444766,1772023885.364899,84.47265625,-16.6015625,321.77734375,211.9140625,0.0,0,0
1772023885.444833,1772023885.3687942,167.96875,-12.20703125,200.68359375,340.8203125,0.0,0,0
1772023885.444897,1772023885.3726895,-42.48046875,-46.38671875,-247.55859375,-76.66015625,0.0,0,0
1772023885.444959,1772023885.3765848,-245.60546875,-68.84765625,-405.76171875,-431.15234375,0.0,0,0
1772023885.445033,1772023885.38048,-179.19921875,-54.6875,-26.3671875,-281.73828125,0.0,0,0
1772023885.4450922,1772023885.3843753,59.5703125,-8.30078125,299.31640625,163.0859375,0.0,0,0
1772023885.445151,1772023885.3882706,173.828125,4.8828125,229.00390625,358.3984375,0.0,0,0
1772023885.445225,1772023885.392166,-21.484375,-45.41015625,-219.23828125,-22.4609375,0.0,0,0
1772023885.445291,1772023885.3960612,-227.5390625,-77.63671875,-407.71484375,-402.34375,0.0,0,0
1772023885.445368,1772023885.3999562,-197.265625,-61.03515625,-103.02734375,-324.21875,0.0,0,0
1772023885.445436,1772023885.4038515,45.41015625,-20.5078125,257.32421875,122.55859375,0.0,0,0
1772023885.4771452,1772023885.4078758,191.40625,-5.859375,258.7890625,367.1875,0.0,0,0
1772023885.477291,1772023885.4117713,16.11328125,-27.83203125,-189.94140625,32.2265625,0.0,0,0
1772023885.47736,1772023885.4156666,-201.171875,-41.50390625,-385.25390625,-361.328125,0.0,0,0
1772023885.4774232,1772023885.4195619,-208.49609375,-43.45703125,-147.94921875,-349.609375,0.0,0,0
1772023885.477485,1772023885.4234571,26.3671875,-14.16015625,230.46875,85.9375,0.0,0,0
1772023885.4775438,1772023885.4273524,192.87109375,5.37109375,312.5,383.7890625,0.0,0,0
1772023885.4776042,1772023885.4312477,41.015625,-33.69140625,-148.92578125,101.5625,0.0,0,0
1772023885.4776618,1772023885.435143,-187.5,-60.546875,-400.87890625,-327.1484375,0.0,0,0
1772023885.47775,1772023885.4390383,-227.05078125,-50.78125,-202.1484375,-379.8828125,0.0,0,0
1772023885.477827,1772023885.4429336,-6.34765625,-6.8359375,212.890625,41.50390625,0.0,0,0
1772023885.4779022,1772023885.4468288,179.19921875,20.5078125,345.21484375,374.0234375,0.0,0,0
1772023885.47798,1772023885.4507241,69.3359375,-23.4375,-85.9375,158.203125,0.0,0,0
1772023885.5208828,1772023885.454738,-158.203125,-58.10546875,-390.625,-290.0390625,0.0,0,0
1772023885.5210109,1772023885.4586332,-229.00390625,-54.6875,-258.7890625,-411.1328125,0.0,0,0
1772023885.5210838,1772023885.4625285,-33.203125,-23.4375,159.1796875,-23.92578125,0.0,0,0
1772023885.521132,1772023885.4664237,173.33984375,6.8359375,338.37890625,339.35546875,0.0,0,0
1772023885.521177,1772023885.470319,114.2578125,-12.6953125,-16.11328125,212.890625,0.0,0,0
1772023885.5212212,1772023885.4742143,-143.06640625,-57.6171875,-359.375,-258.7890625,0.0,0,0
1772023885.521264,1772023885.4781096,-257.32421875,-52.24609375,-293.9453125,-446.2890625,0.0,0,0
1772023885.521326,1772023885.482005,-66.89453125,-21.97265625,130.859375,-73.73046875,0.0,0,0
1772023885.52139,1772023885.4859004,143.5546875,-12.20703125,326.171875,307.6171875,0.0,0,0
1772023885.521441,1772023885.4897957,128.41796875,-13.671875,37.109375,255.859375,0.0,0,0
1772023885.521483,1772023885.493691,-119.62890625,-47.36328125,-342.28515625,-204.58984375,0.0,0,0
1772023885.521533,1772023885.4975863,-250.9765625,-58.59375,-335.44921875,-440.91796875,0.0,0,0
1772023885.566252,1772023885.5015895,-74.21875,-20.01953125,104.98046875,-110.83984375,0.0,0,0
1772023885.5663629,1772023885.5054848,133.7890625,3.41796875,319.3359375,277.34375,0.0,0,0
1772023885.5664132,1772023885.50938,152.34375,-12.20703125,103.02734375,294.921875,0.0,0,0
1772023885.5664582,1772023885.5132754,-81.54296875,-45.8984375,-308.10546875,-153.80859375,0.0,0,0
1772023885.566512,1772023885.517171,-248.046875,-61.5234375,-374.51171875,-448.2421875,0.0,0,0
1772023885.566556,1772023885.5210662,-108.88671875,-37.59765625,75.68359375,-169.921875,0.0,0,0
1772023885.5665998,1772023885.5249615,113.28125,-0.48828125,331.0546875,249.51171875,0.0,0,0
1772023885.566644,1772023885.5288568,165.0390625,-3.90625,157.2265625,331.0546875,0.0,0,0
1772023885.566719,1772023885.532752,-59.08203125,-45.41015625,-262.6953125,-92.7734375,0.0,0,0
1772023885.566784,1772023885.5366476,-249.51171875,-68.84765625,-383.7890625,-429.19921875,0.0,0,0
1772023885.566835,1772023885.5405428,-145.99609375,-40.52734375,8.30078125,-231.93359375,0.0,0,0
1772023885.5668962,1772023885.5444381,93.75,-7.32421875,309.5703125,210.9375,0.0,0,0
1772023885.61214,1772023885.548431,179.6875,-1.46484375,211.42578125,361.81640625,0.0,0,0
1772023885.6122692,1772023885.5523262,-28.80859375,-32.2265625,-223.6328125,-45.41015625,0.0,0,0
1772023885.6123362,1772023885.5562217,-229.98046875,-58.59375,-399.4140625,-415.52734375,0.0,0,0
1772023885.612396,1772023885.560117,-167.96875,-34.1796875,-58.10546875,-287.109375,0.0,0,0
1772023885.612457,1772023885.5640123,68.84765625,-5.37109375,285.64453125,166.9921875,0.0,0,0
1772023885.61253,1772023885.5679078,196.2890625,1.953125,253.41796875,377.44140625,0.0,0,0
1772023885.6128588,1772023885.571803,13.18359375,-28.3203125,-181.640625,10.7421875,0.0,0,0
1772023885.612923,1772023885.5756984,-211.42578125,-62.5,-380.859375,-377.9296875,0.0,0,0
1772023885.612981,1772023885.5795937,-193.84765625,-44.921875,-107.421875,-328.125,0.0,0,0
1772023885.61306,1772023885.5834892,43.45703125,-9.27734375,253.41796875,114.2578125,0.0,0,0
1772023885.613118,1772023885.5873845,189.94140625,-1.46484375,275.390625,377.44140625,0.0,0,0
1772023885.613176,1772023885.5912797,20.5078125,-31.73828125,-168.9453125,54.19921875,0.0,0,0
1772023885.6704488,1772023885.595263,-205.078125,-50.29296875,-381.34765625,-351.5625,0.0,0,0
1772023885.6706681,1772023885.5991583,-219.23828125,-48.33984375,-157.2265625,-361.328125,0.0,0,0
1772023885.6708438,1772023885.6030538,7.32421875,-28.80859375,231.93359375,64.94140625,0.0,0,0
1772023885.672298,1772023885.606949,184.5703125,-1.46484375,329.1015625,380.859375,0.0,0,0
1772023885.6724749,1772023885.6108444,59.5703125,-18.06640625,-104.00390625,130.37109375,0.0,0,0
1772023885.672529,1772023885.61474,-180.17578125,-45.41015625,-374.0234375,-306.640625,0.0,0,0
1772023885.6726139,1772023885.6186352,-240.234375,-53.22265625,-224.12109375,-395.01953125,0.0,0,0
1772023885.6726668,1772023885.6225305,-17.578125,-20.01953125,176.26953125,17.08984375,0.0,0,0
1772023885.673082,1772023885.626426,182.12890625,12.6953125,335.44921875,367.1875,0.0,1,0
1772023885.673171,1772023885.6303213,99.12109375,-16.11328125,-49.8046875,189.94140625,0.0,0,0
1772023885.673221,1772023885.6342165,-138.18359375,-44.43359375,-355.95703125,-263.671875,0.0,0,0
1772023885.673268,1772023885.638112,-231.93359375,-43.9453125,-247.0703125,-414.0625,0.0,0,0
1772023885.715053,1772023885.64208,-39.0625,-18.06640625,155.76171875,-26.85546875,0.0,0,0
1772023885.71513,1772023885.6459754,163.57421875,5.37109375,332.51953125,342.28515625,0.0,0,0
1772023885.715168,1772023885.6498706,123.046875,-16.6015625,20.01953125,245.1171875,0.0,0,0
1772023885.715204,1772023885.6537662,-131.8359375,-57.6171875,-346.6796875,-224.12109375,0.0,0,0
1772023885.715241,1772023885.6576614,-256.8359375,-51.7578125,-300.78125,-433.10546875,0.0,0,0
1772023885.715281,1772023885.661557,-65.4296875,-21.97265625,139.16015625,-67.3828125,0.0,0,0
1772023885.715317,1772023885.6654522,148.92578125,-7.32421875,343.26171875,324.70703125,0.0,0,0
1772023885.7153542,1772023885.6693475,147.94921875,-6.34765625,83.49609375,295.8984375,0.0,0,0
1772023885.71539,1772023885.673243,-97.65625,-39.0625,-325.1953125,-170.8984375,0.0,0,0
1772023885.715426,1772023885.6771383,-256.34765625,-60.546875,-345.703125,-440.91796875,0.0,0,0
1772023885.715462,1772023885.6810336,-101.07421875,-35.15625,93.75,-136.23046875,0.0,0,0
1772023885.715502,1772023885.6849291,135.7421875,-14.16015625,316.40625,289.0625,0.0,0,0
1772023885.762242,1772023885.6889763,172.8515625,-9.27734375,128.41796875,342.28515625,0.0,0,0
1772023885.762423,1772023885.6928716,-85.9375,-34.1796875,-283.203125,-128.41796875,0.0,0,0
1772023885.762479,1772023885.696767,-270.01953125,-60.546875,-373.53515625,-449.21875,0.0,0,0
1772023885.7625191,1772023885.7006624,-140.13671875,-29.296875,40.0390625,-198.73046875,0.0,0,0
1772023885.76256,1772023885.704558,96.6796875,6.34765625,306.15234375,225.09765625,0.0,0,0
1772023885.7625952,1772023885.7084532,169.43359375,-4.39453125,166.50390625,330.078125,0.0,0,0
1772023885.76263,1772023885.7123487,-54.19921875,-40.0390625,-254.39453125,-90.33203125,0.0,0,0
1772023885.7626638,1772023885.716244,-251.46484375,-55.6640625,-393.06640625,-438.4765625,0.0,0,0
1772023885.7627,1772023885.7201395,-160.64453125,-43.45703125,-27.34375,-263.671875,0.0,0,0
1772023885.762762,1772023885.7240348,82.51953125,-19.53125,286.62109375,183.10546875,0.0,0,0
1772023885.762809,1772023885.7279303,181.15234375,-5.37109375,214.35546875,356.93359375,0.0,0,0
1772023885.7628438,1772023885.7318256,-19.04296875,-25.390625,-216.796875,-28.80859375,0.0,0,0
1772023885.805699,1772023885.7358608,-220.21484375,-47.36328125,-405.76171875,-403.3203125,0.0,0,0
1772023885.805836,1772023885.7397563,-180.6640625,-42.48046875,-97.16796875,-312.5,0.0,0,0
1772023885.8058681,1772023885.7436516,56.640625,-9.765625,268.5546875,134.27734375,0.0,0,0
1772023885.805899,1772023885.7475471,199.70703125,9.27734375,270.01953125,378.41796875,0.0,0,0
1772023885.8059268,1772023885.7514427,18.06640625,-16.11328125,-180.6640625,25.390625,0.0,0,0
1772023885.8059552,1772023885.755338,-206.54296875,-49.31640625,-382.8125,-376.953125,0.0,0,0
1772023885.805983,1772023885.7592335,-197.75390625,-39.55078125,-123.046875,-344.23828125,0.0,0,0
1772023885.806011,1772023885.7631288,25.87890625,-6.8359375,240.234375,91.796875,0.0,0,0
1772023885.806038,1772023885.7670243,186.03515625,7.32421875,285.15625,377.9296875,0.0,0,0
1772023885.806066,1772023885.7709196,35.15625,-26.3671875,-160.15625,84.47265625,0.0,0,0
1772023885.8060951,1772023885.774815,-199.70703125,-61.5234375,-392.08984375,-343.26171875,0.0,0,0
1772023885.806124,1772023885.7787106,-225.5859375,-51.7578125,-193.359375,-382.32421875,0.0,0,0
1772023885.851816,1772023885.7827399,4.39453125,-7.8125,202.1484375,43.45703125,0.0,0,0
1772023885.851949,1772023885.7866354,187.01171875,3.90625,326.171875,369.62890625,0.0,0,0
1772023885.8519979,1772023885.7905307,71.77734375,-27.83203125,-83.49609375,144.04296875,0.0,0,0
1772023885.852042,1772023885.7944262,-160.64453125,-53.22265625,-353.515625,-303.22265625,0.0,0,0
1772023885.852086,1772023885.7983217,-217.28515625,-54.6875,-212.890625,-407.2265625,0.0,0,0
1772023885.85213,1772023885.802217,-7.32421875,-27.34375,174.8046875,-3.90625,0.0,0,0
1772023885.852173,1772023885.8061125,189.453125,-3.90625,327.63671875,350.5859375,0.0,0,0
1772023885.852216,1772023885.810008,121.09375,-15.13671875,-40.52734375,206.0546875,0.0,0,0
1772023885.852261,1772023885.8139033,-132.32421875,-49.8046875,-370.1171875,-258.7890625,0.0,0,0
1772023885.852305,1772023885.8177989,-229.98046875,-67.3828125,-274.90234375,-416.9921875,0.0,0,0
1772023885.852349,1772023885.8216944,-17.08984375,-42.96875,148.92578125,-22.94921875,0.0,0,0
1772023885.8524082,1772023885.8255897,197.265625,-6.8359375,329.58984375,344.23828125,0.0,0,0
1772023885.898892,1772023885.8296092,139.16015625,-3.90625,34.1796875,250.9765625,0.0,0,0
1772023885.899075,1772023885.8335047,-140.625,-30.2734375,-333.984375,-233.88671875,0.0,0,0
1772023885.899145,1772023885.8374002,-267.578125,-51.26953125,-311.5234375,-467.7734375,0.0,0,0
1772023885.8992152,1772023885.8412955,-82.51953125,-30.76171875,102.5390625,-135.25390625,0.0,0,0
1772023885.899276,1772023885.845191,127.44140625,14.16015625,300.29296875,245.1171875,0.0,0,0
1772023885.899335,1772023885.8490865,122.55859375,25.87890625,94.7265625,232.91015625,0.0,0,0
1772023885.899393,1772023885.852982,-122.55859375,-6.8359375,-286.62109375,-238.76953125,0.0,0,0
1772023885.899436,1772023885.8568773,-280.2734375,-24.4140625,-351.07421875,-526.85546875,0.0,0,0
1772023885.8994849,1772023885.8607728,-138.671875,-0.9765625,54.6875,-252.9296875,0.0,0,0
1772023885.899529,1772023885.8646684,84.9609375,23.4375,289.55078125,155.76171875,0.0,0,0
1772023885.899572,1772023885.868564,128.41796875,20.5078125,131.34765625,238.28125,0.0,0,0
1772023885.899619,1772023885.8724592,-94.23828125,-22.94921875,-281.25,-199.70703125,0.0,0,0
1772023885.972439,1772023885.8765535,-278.3203125,-26.85546875,-399.4140625,-531.73828125,0.0,0,0
1772023885.972539,1772023885.880449,-178.7109375,23.92578125,-2.44140625,-311.03515625,0.0,0,0
1772023885.9725819,1772023885.8843446,73.73046875,38.57421875,273.92578125,134.27734375,0.0,0,0
1772023885.972621,1772023885.88824,162.59765625,32.71484375,173.33984375,278.80859375,0.0,0,0
1772023885.972657,1772023885.8921354,-55.17578125,21.97265625,-255.859375,-140.13671875,0.0,0,0
1772023885.972694,1772023885.896031,-258.7890625,19.53125,-423.828125,-507.32421875,0.0,0,0
1772023885.9727302,1772023885.8999264,-191.40625,35.64453125,-64.94140625,-358.88671875,0.0,0,0
1772023885.9727669,1772023885.903822,60.546875,59.5703125,270.99609375,97.65625,0.0,0,0
1772023885.9728022,1772023885.9077175,186.5234375,60.05859375,218.26171875,301.26953125,0.0,0,0
1772023885.9729679,1772023885.911613,-9.27734375,9.765625,-220.703125,-70.3125,0.0,0,0
1772023885.9730089,1772023885.9155085,-221.6796875,-27.34375,-402.34375,-438.4765625,0.0,0,0
1772023885.973045,1772023885.919404,-186.5234375,-13.18359375,-109.86328125,-359.86328125,0.0,0,0
1772023885.9863229,1772023885.9234052,55.17578125,22.4609375,252.44140625,81.54296875,0.0,0,0
1772023885.986381,1772023885.9273007,207.51953125,45.41015625,274.90234375,342.7734375,0.0,0,0
1772023885.986416,1772023885.9311962,34.1796875,15.13671875,-184.08203125,11.23046875,0.0,0,0
1772023885.986445,1772023885.9350917,-185.05859375,-16.6015625,-413.57421875,-402.34375,0.0,0,0
1772023885.986474,1772023885.9389873,-191.40625,-17.578125,-175.29296875,-397.4609375,0.0,0,0
1772023885.986503,1772023885.9428828,33.69140625,10.7421875,221.6796875,43.9453125,0.0,0,0
1772023885.986531,1772023885.9467783,200.1953125,20.99609375,298.33984375,344.7265625,0.0,0,0
1772023885.98656,1772023885.9506738,70.3125,-28.3203125,-156.73828125,74.21875,0.0,0,0
1772023885.986588,1772023885.9545693,-149.90234375,-43.9453125,-400.87890625,-349.12109375,0.0,0,0
1772023885.986617,1772023885.9584649,-196.77734375,-18.5546875,-215.33203125,-409.66796875,0.0,0,0
1772023885.986645,1772023885.9623604,19.04296875,10.7421875,184.5703125,13.18359375,0.0,0,0
1772023885.9866722,1772023885.966256,208.49609375,26.3671875,327.63671875,350.5859375,0.0,0,0
1772023886.045558,1772023885.970241,109.375,-4.8828125,-80.56640625,154.296875,0.0,0,0
1772023886.045726,1772023885.9741366,-129.8828125,-36.1328125,-375.9765625,-289.55078125,0.0,0,0
1772023886.045794,1772023885.978032,-212.890625,-42.96875,-248.53515625,-414.55078125,0.0,0,0
1772023886.045856,1772023885.9819276,-12.6953125,-19.04296875,162.59765625,-15.625,0.0,0,0
1772023886.0459158,1772023885.9858232,190.91796875,3.90625,339.35546875,350.09765625,0.0,0,0
1772023886.0459762,1772023885.9897187,134.765625,-8.7890625,-7.8125,228.02734375,0.0,0,0
1772023886.046035,1772023885.9936142,-116.69921875,-48.828125,-362.79296875,-240.72265625,0.0,0,0
1772023886.0460951,1772023885.9975097,-237.79296875,-56.15234375,-299.8046875,-429.19921875,0.0,0,0
1772023886.046179,1772023886.0014052,-49.31640625,-16.11328125,133.7890625,-61.03515625,0.0,0,0
1772023886.046247,1772023886.0053008,164.55078125,7.8125,334.9609375,318.359375,0.0,0,0
1772023886.0463061,1772023886.0091963,142.08984375,-6.34765625,55.6640625,272.94921875,0.0,0,0
1772023886.046367,1772023886.0130918,-103.515625,-37.109375,-341.30859375,-190.4296875,0.0,0,0
1772023886.0897448,1772023886.0170608,-250.0,-52.734375,-356.4453125,-451.171875,0.0,0,0
1772023886.089809,1772023886.0209563,-89.84375,-34.1796875,88.8671875,-130.37109375,0.0,0,0
1772023886.089833,1772023886.0248518,133.7890625,6.34765625,326.66015625,281.73828125,0.0,0,0
1772023886.089854,1772023886.0287473,155.2734375,11.23046875,108.88671875,305.17578125,0.0,0,0
1772023886.089875,1772023886.0326428,-75.1953125,-20.99609375,-296.875,-142.08984375,0.0,0,0
1772023886.089895,1772023886.0365384,-244.62890625,-42.96875,-367.1875,-437.5,0.0,0,0
1772023886.0899148,1772023886.040434,-127.44140625,-28.80859375,43.45703125,-186.5234375,0.0,0,0
1772023886.089935,1772023886.0443294,106.93359375,2.9296875,313.4765625,240.234375,0.0,0,0
1772023886.089955,1772023886.048225,170.41015625,0.48828125,158.69140625,341.796875,0.0,0,0
1772023886.089975,1772023886.0521204,-60.05859375,-35.64453125,-282.2265625,-94.23828125,0.0,0,0
1772023886.089994,1772023886.056016,-244.62890625,-64.453125,-408.69140625,-433.10546875,0.0,0,0
1772023886.090057,1772023886.0599115,-140.13671875,-42.96875,-10.7421875,-230.95703125,0.0,0,0
1772023886.1357791,1772023886.063953,96.6796875,-7.32421875,298.33984375,214.35546875,0.0,0,0
1772023886.1358202,1772023886.0678484,189.453125,2.9296875,207.51953125,372.0703125,0.0,0,0
1772023886.1358368,1772023886.071744,-28.80859375,-21.484375,-225.09765625,-36.1328125,0.0,0,0
1772023886.135851,1772023886.0756395,-243.65234375,-52.24609375,-389.16015625,-413.0859375,0.0,0,0
1772023886.135865,1772023886.079535,-189.453125,-39.55078125,-63.96484375,-299.31640625,0.0,0,0
1772023886.1358788,1772023886.0834305,59.5703125,-5.859375,270.01953125,142.578125,0.0,0,0
1772023886.135893,1772023886.087326,194.3359375,-5.859375,231.4453125,354.4921875,0.0,0,0
1772023886.1359072,1772023886.0912218,-0.48828125,-33.203125,-221.19140625,-2.44140625,0.0,0,0
1772023886.13592,1772023886.0951173,-212.890625,-49.8046875,-416.015625,-383.7890625,0.0,0,0
1772023886.1359339,1772023886.0990129,-188.4765625,-44.43359375,-147.4609375,-335.9375,0.0,0,0
1772023886.135948,1772023886.1029084,42.96875,-19.04296875,224.12109375,103.515625,0.0,0,0
1772023886.135961,1772023886.106804,198.73046875,0.0,270.01953125,373.53515625,0.0,0,0
1772023886.180962,1772023886.1108341,40.0390625,-21.484375,-188.96484375,58.10546875,0.0,0,0
1772023886.181013,1772023886.11473,-192.87109375,-61.03515625,-414.0625,-358.3984375,0.0,0,0
1772023886.181035,1772023886.1186254,-213.8671875,-58.59375,-179.6875,-372.0703125,0.0,0,0
1772023886.181053,1772023886.122521,11.23046875,-11.23046875,213.37890625,53.22265625,0.0,0,0
1772023886.181071,1772023886.1264164,191.40625,11.23046875,321.2890625,364.74609375,0.0,0,0
1772023886.18109,1772023886.1303122,67.87109375,-19.53125,-95.21484375,119.62890625,0.0,0,0
1772023886.181107,1772023886.1342077,-167.96875,-53.7109375,-343.75,-314.94140625,0.0,0,0
1772023886.1811242,1772023886.1381032,-218.75,-43.9453125,-182.6171875,-396.484375,0.0,0,0
1772023886.181143,1772023886.1419988,-5.37109375,-11.71875,193.359375,9.27734375,0.0,0,0
1772023886.181159,1772023886.1458945,194.82421875,2.9296875,347.16796875,358.3984375,0.0,0,0
1772023886.181176,1772023886.14979,114.2578125,-13.18359375,-12.20703125,193.359375,0.0,0,0
1772023886.1811929,1772023886.1536856,-132.8125,-52.734375,-327.63671875,-267.578125,0.0,0,0
1772023886.269344,1772023886.1578753,-222.16796875,-52.734375,-220.703125,-417.96875,0.0,0,0
1772023886.269414,1772023886.1617708,-26.3671875,-9.27734375,181.15234375,-30.76171875,0.0,0,0
1772023886.269439,1772023886.1656666,184.08203125,22.94921875,359.86328125,349.609375,0.0,0,0
1772023886.269463,1772023886.169562,142.578125,6.34765625,41.50390625,257.32421875,0.0,0,0
1772023886.2694862,1772023886.1734579,-120.1171875,-47.36328125,-330.56640625,-218.75,0.0,0,0
1772023886.269509,1772023886.1773534,-240.72265625,-63.4765625,-288.0859375,-431.15234375,0.0,0,0
1772023886.269533,1772023886.181249,-53.22265625,-30.2734375,126.953125,-80.56640625,0.0,0,0
1772023886.269556,1772023886.1851447,148.4375,-8.30078125,329.1015625,302.24609375,0.0,0,0
1772023886.269579,1772023886.1890402,147.4609375,-20.99609375,81.0546875,280.2734375,0.0,0,0
1772023886.269602,1772023886.192936,-92.7734375,-48.33984375,-308.10546875,-178.7109375,0.0,0,0
1772023886.2696252,1772023886.1968315,-250.48828125,-51.26953125,-333.984375,-450.1953125,0.0,0,0
1772023886.2696478,1772023886.2007272,-83.984375,-22.4609375,100.5859375,-142.08984375,0.0,0,0
1772023886.27205,1772023886.204751,143.5546875,11.71875,323.73046875,277.83203125,0.0,0,0
1772023886.2720919,1772023886.2086465,174.31640625,-3.90625,125.0,319.82421875,0.0,0,0
1772023886.272119,1772023886.2125423,-67.3828125,-52.734375,-292.48046875,-133.7890625,0.0,0,0
1772023886.2721431,1772023886.2164378,-247.55859375,-61.5234375,-389.6484375,-445.3125,0.0,0,0
1772023886.272167,1772023886.2203336,-136.23046875,-31.25,21.97265625,-213.8671875,0.0,0,0
1772023886.2721899,1772023886.224229,95.21484375,3.90625,299.8046875,214.35546875,0.0,0,0
1772023886.272213,1772023886.2281249,181.15234375,2.9296875,181.15234375,340.33203125,0.0,0,0
1772023886.272236,1772023886.2320204,-42.96875,-40.52734375,-243.1640625,-80.078125,0.0,0,0
1772023886.272259,1772023886.2359161,-243.65234375,-58.59375,-393.5546875,-428.7109375,0.0,0,0
1772023886.272285,1772023886.239812,-163.0859375,-25.390625,-26.85546875,-260.7421875,0.0,0,0
1772023886.2723079,1772023886.2437074,74.70703125,2.44140625,286.1328125,178.22265625,0.0,0,0
1772023886.2723572,1772023886.2476032,182.12890625,-6.34765625,220.703125,359.86328125,0.0,0,0
1772023886.316245,1772023886.2516,-26.85546875,-40.52734375,-216.796875,-27.83203125,0.0,0,0
1772023886.316287,1772023886.2554955,-238.28125,-56.15234375,-389.6484375,-401.85546875,0.0,0,0
1772023886.3163168,1772023886.2593913,-189.94140625,-36.62109375,-74.21875,-301.7578125,0.0,0,0
1772023886.316345,1772023886.263287,52.734375,-14.16015625,271.484375,142.08984375,0.0,0,0
1772023886.316373,1772023886.2671826,192.87109375,1.46484375,270.01953125,381.8359375,0.0,0,0
1772023886.316401,1772023886.2710783,16.11328125,-27.34375,-166.50390625,41.50390625,0.0,0,0
1772023886.3164291,1772023886.2749739,-200.68359375,-64.453125,-366.69921875,-354.00390625,0.0,0,0
1772023886.3164601,1772023886.2788696,-203.61328125,-63.4765625,-127.9296875,-336.9140625,0.0,0,0
1772023886.316488,1772023886.2827652,31.25,-20.99609375,247.0703125,104.98046875,0.0,0,0
1772023886.3165162,1772023886.286661,194.3359375,5.37109375,309.5703125,397.94921875,0.0,0,0
1772023886.316545,1772023886.2905567,35.15625,-33.203125,-135.25390625,98.14453125,0.0,0,0
1772023886.316573,1772023886.2944522,-196.77734375,-62.98828125,-362.3046875,-331.54296875,0.0,0,0
1772023886.375386,1772023886.2984424,-231.93359375,-46.875,-178.22265625,-373.046875,0.0,0,0
1772023886.3755379,1772023886.3023381,-10.25390625,-11.23046875,189.94140625,48.33984375,0.0,0,0
1772023886.375605,1772023886.306234,182.6171875,6.34765625,322.265625,376.953125,0.0,0,0
1772023886.375665,1772023886.3101294,72.75390625,-20.01953125,-79.1015625,154.78515625,0.0,0,0
1772023886.375726,1772023886.3140252,-166.50390625,-51.26953125,-364.2578125,-296.38671875,0.0,0,0
1772023886.3757892,1772023886.317921,-228.515625,-41.9921875,-224.609375,-406.25,0.0,0,0
1772023886.375849,1772023886.3218164,-24.90234375,-21.484375,171.875,-7.32421875,0.0,0,0
1772023886.3759072,1772023886.3257122,171.875,-3.41796875,330.078125,342.28515625,0.0,0,0
1772023886.3759658,1772023886.329608,106.93359375,-7.8125,-16.6015625,204.1015625,0.0,0,0
1772023886.376023,1772023886.3335035,-147.4609375,-53.22265625,-345.21484375,-258.30078125,0.0,0,0
1772023886.376082,1772023886.3373992,-259.27734375,-66.89453125,-267.578125,-437.01171875,0.0,0,0
1772023886.37614,1772023886.341295,-61.5234375,-19.04296875,151.85546875,-51.7578125,0.0,0,0
1772023886.419787,1772023886.3452747,152.83203125,5.37109375,343.75,325.68359375,0.0,0,0
1772023886.419949,1772023886.3491704,127.44140625,-21.97265625,49.31640625,249.51171875,0.0,0,0
1772023886.420015,1772023886.3530662,-116.69921875,-54.19921875,-324.21875,-212.40234375,0.0,0,0
1772023886.4200761,1772023886.3569617,-254.39453125,-56.640625,-305.17578125,-444.3359375,0.0,0,0
1772023886.420138,1772023886.3608575,-76.171875,-16.11328125,128.90625,-103.02734375,0.0,0,0
1772023886.4201999,1772023886.3647532,146.97265625,12.20703125,338.8671875,296.38671875,0.0,0,0
1772023886.420259,1772023886.368649,155.76171875,-6.34765625,107.421875,300.78125,0.0,0,0
1772023886.420318,1772023886.3725445,-83.49609375,-42.48046875,-289.55078125,-146.97265625,0.0,0,0
1772023886.4203782,1772023886.3764403,-248.53515625,-51.7578125,-341.796875,-431.640625,0.0,0,0
1772023886.420458,1772023886.380336,-107.421875,-28.3203125,69.3359375,-155.2734375,0.0,0,0
1772023886.420516,1772023886.3842316,114.2578125,-0.9765625,307.12890625,260.7421875,0.0,0,0
1772023886.420575,1772023886.3881273,169.43359375,0.9765625,157.2265625,342.28515625,0.0,0,0
1772023886.4656231,1772023886.392095,-58.59375,-41.50390625,-239.74609375,-93.26171875,0.0,0,0
1772023886.465769,1772023886.3959908,-249.51171875,-61.5234375,-354.00390625,-427.24609375,0.0,0,0
1772023886.465837,1772023886.3998866,-138.18359375,-31.73828125,32.2265625,-214.84375,0.0,0,0
1772023886.465899,1772023886.4037821,98.6328125,-6.8359375,313.96484375,220.21484375,0.0,0,0
1772023886.4659579,1772023886.407678,190.4296875,-9.765625,199.21875,351.5625,0.0,0,0
1772023886.4660192,1772023886.4115736,-26.85546875,-43.45703125,-221.19140625,-63.96484375,0.0,0,0
1772023886.4660811,1772023886.4154694,-227.05078125,-62.01171875,-375.48828125,-421.875,0.0,0,0
1772023886.4661388,1772023886.419365,-156.73828125,-41.015625,-37.109375,-280.76171875,0.0,0,0
1772023886.466198,1772023886.4232607,71.2890625,-16.6015625,282.71484375,162.59765625,0.0,0,0
1772023886.4662552,1772023886.4271564,191.89453125,-4.8828125,239.2578125,368.1640625,0.0,0,0
1772023886.466316,1772023886.4310522,-0.48828125,-26.85546875,-182.12890625,-3.90625,0.0,0,0
1772023886.4663732,1772023886.4349477,-221.6796875,-53.22265625,-381.8359375,-393.06640625,0.0,0,0
1772023886.51072,1772023886.4389887,-191.89453125,-38.0859375,-115.234375,-328.61328125,0.0,0,0
1772023886.510821,1772023886.4428844,53.7109375,-0.9765625,254.8828125,120.60546875,0.0,0,0
1772023886.510869,1772023886.4467802,197.75390625,3.90625,275.390625,384.765625,0.0,0,0
1772023886.5109172,1772023886.450676,17.578125,-36.62109375,-178.22265625,54.6875,0.0,0,0
1772023886.5109608,1772023886.4545715,-203.125,-63.4765625,-394.53125,-354.98046875,0.0,0,0
1772023886.511035,1772023886.4584672,-212.890625,-45.41015625,-170.8984375,-357.421875,0.0,0,0
1772023886.511082,1772023886.462363,13.671875,-14.16015625,219.7265625,77.1484375,0.0,0,0
1772023886.511124,1772023886.4662588,192.87109375,-1.953125,312.5,388.671875,0.0,0,0
1772023886.5111659,1772023886.4701545,53.7109375,-29.296875,-125.9765625,129.39453125,0.0,0,0
1772023886.511211,1772023886.4740503,-177.734375,-59.08203125,-380.859375,-307.6171875,0.0,0,0
1772023886.5112529,1772023886.477946,-212.40234375,-43.9453125,-204.58984375,-380.859375,0.0,0,0
1772023886.5112991,1772023886.4818416,-7.8125,-6.8359375,182.12890625,31.25,0.0,0,0
1772023886.569203,1772023886.4858718,176.7578125,3.90625,316.40625,373.53515625,0.0,0,0
1772023886.569271,1772023886.4897676,86.42578125,-24.90234375,-64.453125,182.12890625,0.0,0,0
1772023886.569304,1772023886.4936633,-158.203125,-50.78125,-354.4921875,-282.2265625,0.0,0,0
1772023886.569333,1772023886.497559,-232.421875,-47.8515625,-240.234375,-416.9921875,0.0,0,0
1772023886.569427,1772023886.5014548,-26.3671875,-18.5546875,157.71484375,-19.04296875,0.0,0,0
1772023886.569482,1772023886.5053506,175.78125,11.23046875,349.609375,344.7265625,0.0,0,0
1772023886.569514,1772023886.5092463,121.58203125,-0.9765625,10.7421875,230.46875,0.0,0,0
1772023886.5695438,1772023886.513142,-121.58203125,-32.2265625,-344.23828125,-233.3984375,0.0,0,0
1772023886.5695732,1772023886.5170379,-248.046875,-52.24609375,-284.1796875,-439.453125,0.0,0,0
1772023886.569603,1772023886.5209336,-76.66015625,-36.62109375,116.2109375,-90.33203125,0.0,0,0
1772023886.5696309,1772023886.5248291,144.04296875,2.9296875,322.75390625,301.7578125,0.0,0,0
1772023886.569675,1772023886.528725,143.06640625,-4.39453125,78.125,271.484375,0.0,0,0
1772023886.601147,1772023886.532742,-96.6796875,-45.41015625,-305.17578125,-193.359375,0.0,0,0
1772023886.6011891,1772023886.5366378,-244.62890625,-54.19921875,-318.84765625,-452.1484375,0.0,0,0
1772023886.60121,1772023886.5405335,-84.9609375,-16.11328125,108.3984375,-131.34765625,0.0,0,0
1772023886.601281,1772023886.5444293,132.8125,3.41796875,317.87109375,275.390625,0.0,0,0
1772023886.601302,1772023886.5483253,168.9453125,-10.7421875,115.234375,311.5234375,0.0,0,0
1772023886.601322,1772023886.552221,-72.265625,-36.1328125,-271.97265625,-133.30078125,0.0,0,0
1772023886.6013691,1772023886.5561168,-256.34765625,-54.6875,-349.609375,-441.89453125,0.0,0,0
1772023886.601403,1772023886.5600126,-119.140625,-28.80859375,54.6875,-183.59375,0.0,0,0
1772023886.601423,1772023886.5639083,110.3515625,5.859375,313.4765625,248.046875,0.0,0,0
1772023886.601441,1772023886.567804,168.45703125,-4.39453125,176.26953125,346.6796875,0.0,0,0
1772023886.601459,1772023886.5716999,-52.734375,-49.8046875,-237.79296875,-84.9609375,0.0,0,0
1772023886.6014779,1772023886.5755956,-250.48828125,-64.94140625,-378.90625,-433.59375,0.0,0,0
1772023886.645188,1772023886.5796018,-160.15625,-49.8046875,-12.6953125,-246.09375,0.0,0,0
1772023886.645225,1772023886.5834975,87.890625,-9.765625,301.26953125,201.171875,0.0,0,0
1772023886.645237,1772023886.5873933,182.6171875,-1.953125,216.30859375,357.421875,0.0,0,0
1772023886.645278,1772023886.591289,-24.90234375,-34.66796875,-212.890625,-34.1796875,0.0,0,0
1772023886.64529,1772023886.5951848,-228.02734375,-52.734375,-377.9296875,-395.01953125,0.0,0,0
1772023886.645301,1772023886.5990806,-171.38671875,-38.57421875,-57.6171875,-282.71484375,0.0,0,0
1772023886.645313,1772023886.6029763,61.5234375,-5.859375,282.2265625,154.78515625,0.0,0,0
1772023886.645323,1772023886.6068723,179.6875,-6.8359375,252.9296875,368.65234375,0.0,0,0
1772023886.645334,1772023886.610768,-5.37109375,-36.1328125,-195.3125,12.20703125,0.0,0,0
1772023886.645345,1772023886.6146638,-220.21484375,-57.6171875,-389.6484375,-382.8125,0.0,0,0
1772023886.645355,1772023886.6185596,-205.56640625,-57.6171875,-124.51171875,-340.8203125,0.0,0,0
1772023886.645366,1772023886.6224554,32.2265625,-20.5078125,250.0,105.95703125,0.0,0,0
1772023886.690331,1772023886.626451,191.89453125,0.48828125,295.41015625,382.32421875,0.0,0,0
1772023886.690371,1772023886.630347,32.2265625,-26.85546875,-152.34375,71.2890625,0.0,0,0
1772023886.6903832,1772023886.6342428,-185.546875,-45.8984375,-373.53515625,-342.28515625,0.0,0,0
1772023886.6903949,1772023886.6381385,-204.58984375,-49.31640625,-168.9453125,-365.72265625,0.0,0,0
1772023886.69043,1772023886.6420343,18.06640625,-3.90625,202.63671875,60.546875,0.0,0,0
1772023886.690536,1772023886.64593,192.87109375,19.53125,304.19921875,374.51171875,0.0,0,0
1772023886.6905642,1772023886.6498258,73.73046875,-20.5078125,-100.09765625,136.71875,0.0,0,0
1772023886.6905742,1772023886.6537218,-157.2265625,-52.734375,-370.1171875,-303.22265625,0.0,0,0
1772023886.6905851,1772023886.6576176,-221.6796875,-49.8046875,-223.14453125,-399.90234375,0.0,0,0
1772023886.690596,1772023886.6615133,0.9765625,-4.8828125,176.26953125,8.7890625,0.0,0,0
1772023886.690606,1772023886.665409,191.89453125,12.20703125,331.0546875,357.421875,0.0,0,0
1772023886.6906612,1772023886.6693048,97.16796875,-21.97265625,-38.0859375,194.82421875,0.0,0,0
1772023886.7359931,1772023886.6732922,-152.83203125,-59.08203125,-370.60546875,-268.06640625,0.0,0,0
1772023886.736032,1772023886.677188,-249.0234375,-56.640625,-271.97265625,-423.828125,0.0,0,0
1772023886.7360451,1772023886.6810837,-55.6640625,-23.92578125,144.04296875,-41.015625,0.0,0,0
1772023886.736057,1772023886.6849794,158.69140625,-12.20703125,336.9140625,331.0546875,0.0,0,0
1772023886.7360692,1772023886.6888754,130.859375,-28.3203125,37.59765625,251.46484375,0.0,0,0
1772023886.73608,1772023886.6927712,-124.0234375,-59.08203125,-327.63671875,-218.26171875,0.0,0,0
1772023886.736091,1772023886.696667,-260.25390625,-62.01171875,-302.24609375,-443.84765625,0.0,0,0
1772023886.7361019,1772023886.7005627,-84.47265625,-23.92578125,111.328125,-100.5859375,0.0,0,0
1772023886.7361128,1772023886.7044585,134.27734375,6.8359375,325.1953125,291.50390625,0.0,0,0
1772023886.7361228,1772023886.7083545,146.97265625,0.0,99.12109375,288.57421875,0.0,0,0
1772023886.7361338,1772023886.7122502,-87.890625,-47.8515625,-298.828125,-173.33984375,0.0,0,0
1772023886.7361438,1772023886.716146,-246.09375,-63.96484375,-342.7734375,-446.2890625,0.0,0,0
1772023886.781473,1772023886.7201266,-96.6796875,-24.90234375,88.8671875,-145.99609375,0.0,0,0
1772023886.781505,1772023886.7240226,128.41796875,0.0,324.21875,264.6484375,0.0,0,0
1772023886.781522,1772023886.7279184,168.9453125,-11.71875,158.69140625,323.73046875,0.0,0,0
1772023886.781536,1772023886.7318141,-62.98828125,-35.64453125,-247.0703125,-122.0703125,0.0,0,0
1772023886.7815511,1772023886.7357101,-244.140625,-55.6640625,-358.3984375,-444.3359375,0.0,0,0
1772023886.781565,1772023886.739606,-129.39453125,-38.57421875,39.55078125,-208.49609375,0.0,0,0
1772023886.781579,1772023886.7435017,93.75,-16.6015625,297.8515625,219.7265625,0.0,0,0
1772023886.7815921,1772023886.7473974,164.0625,-20.5078125,170.8984375,334.9609375,0.0,0,0
1772023886.781606,1772023886.7512934,-47.36328125,-48.828125,-231.4453125,-82.03125,0.0,0,0
1772023886.7816188,1772023886.7551892,-245.1171875,-59.08203125,-365.72265625,-427.24609375,0.0,0,0
1772023886.7816331,1772023886.759085,-169.921875,-22.4609375,-23.92578125,-271.97265625,0.0,0,0
1772023886.7816472,1772023886.7629807,68.84765625,2.9296875,268.06640625,166.50390625,0.0,0,0
1772023886.871375,1772023886.7671168,179.19921875,-6.34765625,223.14453125,373.53515625,0.0,0,0
1772023886.871424,1772023886.7710125,-18.5546875,-36.1328125,-180.6640625,7.32421875,0.0,0,0
1772023886.871443,1772023886.7749083,-237.3046875,-59.5703125,-360.83984375,-375.0,0.0,0,0
1772023886.871458,1772023886.7788043,-204.58984375,-52.734375,-71.2890625,-292.96875,0.0,0,0
1772023886.871474,1772023886.7827,36.1328125,-23.4375,254.8828125,145.99609375,0.0,0,0
1772023886.87149,1772023886.786596,187.01171875,-15.13671875,259.27734375,394.04296875,0.0,0,0
1772023886.871506,1772023886.7904918,3.41796875,-54.6875,-165.0390625,41.50390625,0.0,0,0
1772023886.871521,1772023886.7943878,-228.02734375,-72.75390625,-367.67578125,-367.1875,0.0,0,0
1772023886.871537,1772023886.7982836,-221.6796875,-56.15234375,-134.765625,-344.23828125,0.0,0,0
1772023886.871552,1772023886.8021793,5.859375,-36.62109375,226.5625,83.0078125,0.0,0,0
1772023886.871567,1772023886.8060753,176.26953125,-13.18359375,302.734375,379.8828125,0.0,0,0
1772023886.871582,1772023886.809971,39.0625,-26.3671875,-123.046875,103.02734375,0.0,0,0
1772023886.8867898,1772023886.814017,-187.5,-60.05859375,-366.69921875,-331.0546875,0.0,0,0
1772023886.886817,1772023886.8179128,-228.02734375,-60.05859375,-190.91796875,-385.25390625,0.0,0,0
1772023886.886838,1772023886.8218088,-12.20703125,-24.90234375,190.4296875,33.203125,0.0,0,0
1772023886.886857,1772023886.8257046,174.31640625,3.90625,324.21875,365.234375,0.0,0,0
1772023886.8868742,1772023886.8296006,68.84765625,-22.94921875,-71.77734375,162.59765625,0.0,0,0
1772023886.886892,1772023886.8334963,-172.8515625,-62.01171875,-362.3046875,-283.203125,0.0,0,0
1772023886.886909,1772023886.8373923,-238.76953125,-59.08203125,-225.5859375,-395.01953125,0.0,0,0
1772023886.8869262,1772023886.841288,-28.80859375,-20.5078125,175.78125,11.71875,0.0,0,0
1772023886.8869429,1772023886.845184,160.64453125,-5.37109375,326.66015625,357.421875,0.0,0,0
1772023886.886961,1772023886.8490798,98.6328125,-28.80859375,-32.71484375,215.33203125,0.0,0,0
1772023886.886977,1772023886.8529758,-147.4609375,-51.26953125,-378.90625,-243.65234375,0.0,0,0
1772023886.886994,1772023886.8568716,-254.8828125,-62.5,-304.6875,-427.734375,0.0,0,0
1772023886.931168,1772023886.8609052,-62.98828125,-37.109375,130.859375,-54.6875,0.0,0,0
1772023886.931201,1772023886.8648012,139.6484375,-12.20703125,330.56640625,314.453125,0.0,0,0
1772023886.931224,1772023886.8686972,127.9296875,-18.06640625,51.26953125,260.25390625,0.0,0,0
1772023886.931249,1772023886.872593,-108.3984375,-45.8984375,-332.03125,-197.265625,0.0,0,0
1772023886.931272,1772023886.876489,-249.0234375,-65.91796875,-325.1953125,-444.3359375,0.0,0,0
1772023886.931295,1772023886.8803847,-72.75390625,-35.64453125,116.2109375,-104.98046875,0.0,0,0
1772023886.931318,1772023886.8842807,147.94921875,3.90625,321.2890625,286.62109375,0.0,0,0
1772023886.9313412,1772023886.8881767,160.15625,-1.953125,96.6796875,284.1796875,0.0,0,0
1772023886.931364,1772023886.8920724,-67.3828125,-44.43359375,-283.69140625,-149.4140625,0.0,0,0
1772023886.931387,1772023886.8959684,-239.74609375,-61.03515625,-333.984375,-430.17578125,0.0,0,0
1772023886.9314098,1772023886.8998642,-113.28125,-31.73828125,79.1015625,-160.64453125,0.0,0,0
1772023886.931433,1772023886.9037602,110.3515625,-9.765625,327.1484375,260.7421875,0.0,0,0
1772023886.9766982,1772023886.90778,165.52734375,-5.859375,159.1796875,336.42578125,0.0,0,0
1772023886.976747,1772023886.911676,-58.59375,-39.55078125,-262.6953125,-102.05078125,0.0,0,0
1772023886.976776,1772023886.915572,-241.69921875,-65.4296875,-378.41796875,-432.12890625,0.0,0,0
1772023886.9768078,1772023886.9194677,-135.25390625,-40.0390625,19.53125,-223.6328125,0.0,0,0
1772023886.9768372,1772023886.9233637,95.703125,-3.90625,316.89453125,215.8203125,0.0,0,0
1772023886.976865,1772023886.9272597,182.12890625,3.41796875,202.63671875,356.93359375,0.0,0,0
1772023886.976969,1772023886.9311554,-31.73828125,-37.109375,-216.796875,-56.15234375,0.0,0,0
1772023886.977,1772023886.9350514,-233.88671875,-69.3359375,-367.1875,-422.8515625,0.0,0,0
1772023886.977029,1772023886.9389474,-167.48046875,-51.26953125,-40.52734375,-286.62109375,0.0,0,0
1772023886.977061,1772023886.9428432,72.75390625,-17.08984375,289.0625,162.59765625,0.0,0,0
1772023886.977089,1772023886.9467392,194.3359375,-1.953125,249.51171875,373.53515625,0.0,0,0
1772023886.9771168,1772023886.9506352,5.37109375,-30.76171875,-192.3828125,8.30078125,0.0,0,0
1772023887.023094,1772023886.9546454,-211.9140625,-65.4296875,-377.44140625,-380.37109375,0.0,0,0
1772023887.0232031,1772023886.9585412,-194.82421875,-59.5703125,-103.02734375,-328.125,0.0,0,0
1772023887.023245,1772023886.9624372,43.45703125,-17.08984375,252.44140625,113.28125,0.0,0,0
1772023887.0232809,1772023886.9663332,190.91796875,1.46484375,269.04296875,379.8828125,0.0,0,0
1772023887.023318,1772023886.9702291,25.87890625,-34.1796875,-166.50390625,56.15234375,0.0,0,0
1772023887.0233521,1772023886.974125,-189.453125,-58.10546875,-353.515625,-351.07421875,0.0,0,0
1772023887.023387,1772023886.978021,-205.078125,-44.921875,-131.8359375,-359.375,0.0,0,0
1772023887.023424,1772023886.981917,19.53125,-21.97265625,221.6796875,64.94140625,0.0,0,0
1772023887.023457,1772023886.985813,192.87109375,-10.25390625,313.4765625,376.953125,0.0,0,0
1772023887.023493,1772023886.9897087,57.12890625,-27.83203125,-91.796875,123.53515625,0.0,0,0
1772023887.023527,1772023886.9936047,-180.6640625,-55.6640625,-349.609375,-320.3125,0.0,0,0
1772023887.023561,1772023886.9975007,-213.8671875,-45.8984375,-168.45703125,-375.48828125,0.0,0,0
1772023887.066069,1772023887.0014994,8.7890625,-16.11328125,207.51953125,40.0390625,0.0,0,0
1772023887.06619,1772023887.0053954,173.828125,-7.8125,306.15234375,344.7265625,0.0,0,0
1772023887.066227,1772023887.0092914,81.54296875,-29.78515625,-62.5,166.50390625,0.0,0,0
1772023887.066265,1772023887.0131874,-152.34375,-55.17578125,-351.5625,-282.71484375,0.0,0,0
1772023887.066299,1772023887.0170834,-240.72265625,-57.6171875,-233.3984375,-419.921875,0.0,0,0
1772023887.0663328,1772023887.0209794,-32.2265625,-17.08984375,172.8515625,-16.6015625,0.0,0,0
1772023887.066367,1772023887.0248752,177.734375,15.625,339.84375,353.515625,0.0,0,0
1772023887.066404,1772023887.0287712,124.51171875,-7.32421875,25.390625,243.1640625,0.0,0,0
1772023887.066448,1772023887.0326672,-130.859375,-47.8515625,-307.6171875,-227.05078125,0.0,0,0
1772023887.0665019,1772023887.0365632,-249.51171875,-65.4296875,-262.20703125,-433.10546875,0.0,0,0
1772023887.066546,1772023887.0404592,-60.546875,-38.0859375,136.71875,-69.3359375,0.0,0,0
1772023887.0665889,1772023887.044355,143.5546875,-5.859375,322.265625,315.91796875,0.0,0,0
1772023887.1107352,1772023887.048343,137.6953125,-14.6484375,79.1015625,286.1328125,0.0,0,0
1772023887.110841,1772023887.052239,-99.609375,-50.29296875,-275.390625,-171.38671875,0.0,0,0
1772023887.1108859,1772023887.056135,-242.1875,-55.17578125,-293.45703125,-430.6640625,0.0,0,0
1772023887.110933,1772023887.0600307,-84.47265625,-20.5078125,99.609375,-115.72265625,0.0,0,0
1772023887.110976,1772023887.0639267,124.51171875,-4.8828125,307.6171875,289.55078125,0.0,0,0
1772023887.11102,1772023887.0678227,158.69140625,-9.27734375,134.27734375,333.984375,0.0,0,0
1772023887.111066,1772023887.0717187,-74.21875,-45.8984375,-252.44140625,-119.62890625,0.0,0,0
1772023887.1111119,1772023887.0756147,-259.765625,-77.63671875,-347.65625,-437.98828125,0.0,0,0
1772023887.111163,1772023887.0795107,-136.23046875,-41.9921875,46.875,-182.12890625,0.0,0,0
1772023887.1112242,1772023887.0834067,100.5859375,-7.8125,294.921875,244.140625,0.0,0,0
1772023887.1112661,1772023887.0873027,173.33984375,-10.7421875,160.15625,350.5859375,0.0,0,0
1772023887.1113138,1772023887.0911984,-50.29296875,-38.0859375,-234.375,-78.61328125,0.0,0,0
1772023887.171357,1772023887.0952542,-242.67578125,-63.96484375,-368.1640625,-423.33984375,0.0,0,0
1772023887.1714208,1772023887.0991502,-155.76171875,-57.12890625,-23.92578125,-241.69921875,0.0,0,0
1772023887.1714509,1772023887.1030462,80.56640625,-17.578125,269.53125,203.61328125,0.0,0,0
1772023887.1714802,1772023887.1069422,180.6640625,-3.41796875,198.73046875,375.9765625,0.0,0,0
1772023887.171508,1772023887.1108382,-28.3203125,-38.0859375,-208.0078125,-29.296875,0.0,0,0
1772023887.171536,1772023887.1147342,-225.5859375,-56.15234375,-356.93359375,-394.53125,0.0,0,0
1772023887.171564,1772023887.1186302,-174.8046875,-47.8515625,-65.4296875,-280.76171875,0.0,0,0
1772023887.171592,1772023887.1225262,55.6640625,-25.390625,251.953125,158.203125,0.0,0,0
1772023887.1716201,1772023887.126422,183.10546875,-6.34765625,234.375,383.7890625,0.0,0,0
1772023887.171647,1772023887.130318,4.39453125,-22.94921875,-189.94140625,28.80859375,0.0,0,0
1772023887.171675,1772023887.134214,-207.51953125,-44.43359375,-369.140625,-367.67578125,0.0,0,0
1772023887.1717162,1772023887.13811,-201.66015625,-41.50390625,-124.51171875,-336.42578125,0.0,0,0
1772023887.215298,1772023887.142082,25.390625,-14.16015625,220.21484375,102.05078125,0.0,0,0
1772023887.2154229,1772023887.145978,183.10546875,6.8359375,272.94921875,387.20703125,0.0,0,0
1772023887.2154722,1772023887.149874,34.66796875,-24.90234375,-136.71875,90.33203125,0.0,0,0
1772023887.215517,1772023887.15377,-192.3828125,-68.84765625,-359.375,-336.42578125,0.0,0,0
1772023887.2155619,1772023887.157666,-219.23828125,-53.22265625,-171.875,-371.58203125,0.0,0,0
1772023887.21561,1772023887.161562,2.44140625,-5.859375,202.1484375,57.6171875,0.0,0,0
1772023887.2156532,1772023887.165458,178.7109375,3.41796875,296.38671875,369.62890625,0.0,0,0
1772023887.215699,1772023887.169354,60.546875,-34.1796875,-111.328125,132.8125,0.0,0,0
1772023887.215753,1772023887.17325,-180.17578125,-54.19921875,-368.65234375,-306.15234375,0.0,0,0
1772023887.2158,1772023887.177146,-244.140625,-50.78125,-213.8671875,-401.85546875,0.0,0,0
1772023887.2158442,1772023887.181042,-28.3203125,-27.83203125,158.69140625,-6.34765625,0.0,0,0
1772023887.215892,1772023887.184938,177.734375,0.0,297.8515625,342.28515625,0.0,0,0
1772023887.260701,1772023887.1889749,98.6328125,-21.97265625,-34.66796875,205.078125,0.0,0,0
1772023887.260813,1772023887.1928709,-148.4375,-58.59375,-323.73046875,-247.0703125,0.0,0,0
1772023887.260863,1772023887.196767,-246.09375,-54.19921875,-240.72265625,-419.921875,0.0,0,0
1772023887.260907,1772023887.200663,-61.5234375,-20.01953125,137.20703125,-48.828125,0.0,0,0
1772023887.26095,1772023887.204559,151.85546875,1.953125,310.05859375,323.73046875,0.0,0,0
1772023887.260993,1772023887.208455,122.0703125,-17.08984375,25.87890625,254.39453125,0.0,0,0
1772023887.261038,1772023887.212351,-126.46484375,-55.6640625,-309.5703125,-212.40234375,0.0,0,0
1772023887.261083,1772023887.216247,-253.90625,-62.98828125,-283.69140625,-440.91796875,0.0,0,0
1772023887.2611258,1772023887.220143,-72.75390625,-34.66796875,113.28125,-89.84375,0.0,0,0
1772023887.2611682,1772023887.224039,139.16015625,-9.765625,310.546875,301.7578125,0.0,0,0
1772023887.261214,1772023887.2279353,145.5078125,-10.7421875,98.6328125,292.48046875,0.0,0,0
1772023887.261258,1772023887.2318313,-91.30859375,-39.0625,-263.671875,-161.1328125,0.0,0,0
1772023887.3217769,1772023887.2358649,-257.32421875,-62.98828125,-330.56640625,-443.359375,0.0,0,0
1772023887.321903,1772023887.239761,-105.95703125,-42.96875,59.5703125,-149.4140625,0.0,0,0
1772023887.321963,1772023887.243657,128.41796875,-2.44140625,305.17578125,270.99609375,0.0,0,0
1772023887.3220239,1772023887.247553,162.59765625,-13.18359375,131.34765625,320.80078125,0.0,0,0
1772023887.322083,1772023887.251449,-70.3125,-52.24609375,-261.71875,-123.53515625,0.0,0,0
1772023887.322142,1772023887.255345,-244.140625,-61.5234375,-344.23828125,-445.3125,0.0,0,0
1772023887.322199,1772023887.2592413,-135.7421875,-41.50390625,24.90234375,-220.21484375,0.0,0,0
1772023887.322259,1772023887.2631373,113.28125,-7.32421875,283.203125,227.05078125,0.0,0,0
1772023887.322319,1772023887.2670333,194.82421875,-11.23046875,179.19921875,354.98046875,0.0,0,0
1772023887.3226361,1772023887.2709293,-49.31640625,-50.78125,-223.6328125,-79.1015625,0.0,0,0
1772023887.3227022,1772023887.2748256,-250.9765625,-69.3359375,-358.3984375,-437.98828125,0.0,0,0
1772023887.322761,1772023887.2787216,-157.2265625,-37.109375,-29.78515625,-266.11328125,0.0,0,0
1772023887.352094,1772023887.2827463,91.796875,4.8828125,263.18359375,188.96484375,0.0,0,0
1772023887.3522182,1772023887.2866423,200.68359375,1.953125,212.40234375,379.8828125,0.0,0,0
1772023887.3522692,1772023887.2905383,1.46484375,-36.1328125,-195.80078125,-7.8125,0.0,0,0
1772023887.352314,1772023887.2944345,-211.42578125,-56.15234375,-356.4453125,-389.16015625,0.0,0,0
1772023887.35236,1772023887.2983305,-179.19921875,-47.8515625,-74.21875,-307.6171875,0.0,0,0
1772023887.352403,1772023887.3022265,55.6640625,-14.16015625,260.25390625,133.30078125,0.0,0,0
1772023887.3524601,1772023887.3061228,205.56640625,5.859375,274.4140625,386.71875,0.0,0,0
1772023887.352521,1772023887.3100188,31.25,-34.66796875,-157.2265625,46.38671875,0.0,0,0
1772023887.352572,1772023887.3139148,-196.2890625,-67.3828125,-365.72265625,-364.2578125,0.0,0,0
1772023887.3526342,1772023887.317811,-199.70703125,-45.8984375,-144.53125,-343.26171875,0.0,0,0
1772023887.3526762,1772023887.321707,27.83203125,-6.8359375,215.33203125,99.12109375,0.0,0,0
1772023887.352731,1772023887.325603,200.1953125,4.8828125,288.57421875,396.484375,0.0,0,0
1772023887.471991,1772023887.3300133,58.59375,-24.90234375,-149.4140625,109.375,0.0,0,0
1772023887.472128,1772023887.3339095,-174.31640625,-56.15234375,-393.06640625,-324.70703125,0.0,0,0
1772023887.472179,1772023887.3378055,-217.28515625,-52.24609375,-204.1015625,-376.46484375,0.0,0,0
1772023887.4722261,1772023887.3417017,-0.48828125,-17.08984375,179.6875,43.45703125,0.0,0,0
1772023887.4722729,1772023887.345598,184.5703125,-0.48828125,313.4765625,371.58203125,0.0,0,0
1772023887.472318,1772023887.349494,77.63671875,-24.4140625,-99.12109375,159.66796875,0.0,0,0
1772023887.472363,1772023887.3533902,-160.64453125,-42.48046875,-404.78515625,-281.73828125,0.0,0,0
1772023887.472407,1772023887.3572862,-231.93359375,-54.19921875,-267.578125,-405.2734375,0.0,0,0
1772023887.472451,1772023887.3611825,-32.71484375,-41.015625,140.625,-19.04296875,0.0,0,0
1772023887.4724941,1772023887.3650787,178.7109375,2.9296875,313.96484375,348.14453125,0.0,0,0
1772023887.472539,1772023887.3689747,124.51171875,-0.9765625,-20.99609375,230.95703125,0.0,0,0
1772023887.4725828,1772023887.372871,-128.90625,-34.66796875,-345.703125,-232.91015625,0.0,0,0
1772023887.474166,1772023887.3770452,-235.83984375,-31.73828125,-270.99609375,-426.7578125,0.0,0,0
1772023887.4742541,1772023887.3809414,-49.8046875,-6.34765625,135.25390625,-59.08203125,0.0,0,0
1772023887.474303,1772023887.3848374,159.66796875,8.7890625,330.078125,328.61328125,0.0,0,0
1772023887.474348,1772023887.3887336,140.625,-4.39453125,65.4296875,279.296875,0.0,0,0
1772023887.4743931,1772023887.3926299,-113.28125,-48.33984375,-317.87109375,-192.87109375,0.0,0,0
1772023887.474439,1772023887.396526,-255.859375,-44.921875,-318.359375,-445.80078125,0.0,0,0
1772023887.474486,1772023887.4004223,-82.03125,-12.6953125,124.0234375,-116.2109375,0.0,0,0
1772023887.474529,1772023887.4043183,135.7421875,-3.90625,333.984375,291.9921875,0.0,0,0
1772023887.474571,1772023887.4082146,159.66796875,-5.37109375,119.140625,323.2421875,0.0,0,0
1772023887.474614,1772023887.4121108,-83.984375,-47.36328125,-282.2265625,-132.8125,0.0,0,0
1772023887.474668,1772023887.416007,-260.25390625,-64.94140625,-355.95703125,-444.82421875,0.0,0,0
1772023887.47475,1772023887.4199033,-112.79296875,-26.3671875,66.40625,-169.921875,0.0,0,0
1772023887.486541,1772023887.4238935,124.51171875,-1.46484375,315.4296875,260.7421875,0.0,0,0
1772023887.486665,1772023887.4277897,182.6171875,-8.7890625,165.52734375,352.5390625,0.0,0,0
1772023887.4867342,1772023887.4316857,-51.26953125,-45.8984375,-249.51171875,-80.078125,0.0,0,0
1772023887.486797,1772023887.435582,-251.953125,-60.05859375,-379.8828125,-426.7578125,0.0,0,0
1772023887.486855,1772023887.4394782,-159.66796875,-36.62109375,8.30078125,-231.4453125,0.0,0,0
1772023887.486899,1772023887.4433744,72.75390625,-12.20703125,304.19921875,205.56640625,0.0,0,0
1772023887.486943,1772023887.4472706,169.921875,-10.7421875,204.1015625,361.81640625,0.0,0,0
1772023887.486986,1772023887.4511669,-30.2734375,-47.8515625,-231.4453125,-38.57421875,0.0,0,0
1772023887.487029,1772023887.455063,-234.86328125,-67.3828125,-389.16015625,-403.3203125,0.0,0,0
1772023887.487072,1772023887.458959,-177.734375,-47.36328125,-61.03515625,-275.87890625,0.0,0,0
1772023887.487115,1772023887.4628553,63.96484375,-24.4140625,259.765625,168.45703125,0.0,0,0
1772023887.487157,1772023887.4667516,183.59375,-18.06640625,235.3515625,373.53515625,0.0,0,0
1772023887.5310662,1772023887.4707255,-5.859375,-29.78515625,-195.80078125,5.37109375,0.0,0,0
1772023887.531223,1772023887.4746218,-212.40234375,-48.33984375,-381.8359375,-375.0,0.0,0,0
1772023887.531295,1772023887.478518,-196.77734375,-57.12890625,-110.3515625,-323.2421875,0.0,0,0
1772023887.5313668,1772023887.4824142,36.62109375,-32.71484375,242.67578125,115.72265625,0.0,0,0
1772023887.531429,1772023887.4863105,192.87109375,-4.8828125,272.4609375,392.08984375,0.0,0,0
1772023887.531484,1772023887.4902067,25.87890625,-26.85546875,-162.109375,78.125,0.0,0,0
1772023887.53153,1772023887.4941027,-199.21875,-64.94140625,-371.09375,-334.9609375,0.0,0,0
1772023887.531584,1772023887.497999,-227.05078125,-68.84765625,-161.62109375,-353.515625,0.0,0,0
1772023887.5316281,1772023887.5018952,-0.9765625,-33.69140625,215.33203125,71.77734375,0.0,0,0
1772023887.531671,1772023887.5057914,183.10546875,0.48828125,299.31640625,386.23046875,0.0,0,0
1772023887.531714,1772023887.5096877,48.33984375,-19.04296875,-120.1171875,131.8359375,0.0,0,0
1772023887.531757,1772023887.513584,-191.40625,-55.17578125,-359.86328125,-315.91796875,0.0,0,0
1772023887.5911412,1772023887.5175476,-227.5390625,-41.9921875,-206.0546875,-390.625,0.0,0,0
1772023887.5914,1772023887.5214438,-4.8828125,-9.27734375,166.015625,30.2734375,0.0,0,0
1772023887.59153,1772023887.52534,187.98828125,2.9296875,318.84765625,367.67578125,0.0,0,0
1772023887.591598,1772023887.5292363,114.2578125,-11.23046875,-25.390625,190.91796875,0.0,0,0
1772023887.59166,1772023887.5331326,-136.23046875,-45.8984375,-336.9140625,-269.04296875,0.0,0,0
1772023887.591721,1772023887.5370288,-236.81640625,-61.5234375,-268.5546875,-414.55078125,0.0,0,0
1772023887.5917811,1772023887.540925,-43.9453125,-23.4375,96.19140625,-33.69140625,0.0,0,0
1772023887.591839,1772023887.5448213,162.109375,15.625,248.53515625,330.078125,0.0,0,0
1772023887.591897,1772023887.5487173,133.30078125,5.37109375,-50.78125,246.09375,0.0,0,0
1772023887.591954,1772023887.5526135,-123.046875,-47.8515625,-400.87890625,-226.5625,0.0,0,0
1772023887.592012,1772023887.5565097,-251.953125,-61.5234375,-354.00390625,-437.5,0.0,0,0
1772023887.5920691,1772023887.560406,-64.453125,-17.08984375,70.80078125,-82.51953125,0.0,0,0
1772023887.6369019,1772023887.5644443,147.4609375,11.23046875,257.8125,304.19921875,0.0,0,0
1772023887.637061,1772023887.5683405,137.20703125,-5.37109375,14.6484375,277.83203125,0.0,0,0
1772023887.6371672,1772023887.5722368,-95.21484375,-39.0625,-356.93359375,-195.80078125,0.0,0,0
1772023887.637274,1772023887.576133,-229.98046875,-52.24609375,-390.13671875,-456.54296875,0.0,0,0
1772023887.637325,1772023887.5800292,-82.03125,-25.390625,40.52734375,-123.53515625,0.0,0,0
1772023887.6373708,1772023887.5839257,127.9296875,5.859375,279.296875,296.38671875,0.0,0,0
1772023887.637416,1772023887.587822,158.69140625,-2.44140625,94.23828125,332.03125,0.0,0,0
1772023887.637459,1772023887.5917182,-86.9140625,-50.78125,-309.08203125,-125.48828125,0.0,0,0
1772023887.637502,1772023887.5956144,-268.5546875,-65.4296875,-403.3203125,-438.96484375,0.0,0,0
1772023887.637546,1772023887.5995107,-134.27734375,-32.2265625,-0.9765625,-186.5234375,0.0,0,0
1772023887.637589,1772023887.603407,107.421875,7.32421875,266.6015625,248.53515625,0.0,0,0
1772023887.637633,1772023887.6073031,176.26953125,6.34765625,150.87890625,362.3046875,0.0,0,0
1772023887.682265,1772023887.6113312,-50.78125,-53.7109375,-271.97265625,-64.94140625,0.0,0,0
1772023887.6824389,1772023887.6152275,-250.9765625,-72.265625,-433.59375,-421.38671875,0.0,0,0
1772023887.682504,1772023887.6191237,-165.0390625,-42.48046875,-71.77734375,-252.44140625,0.0,0,0
1772023887.6825678,1772023887.62302,81.54296875,-18.5546875,263.18359375,190.91796875,0.0,0,0
1772023887.6826282,1772023887.6269162,187.98828125,-15.13671875,192.3828125,369.140625,0.0,0,0
1772023887.682688,1772023887.6308124,-18.5546875,-42.48046875,-264.16015625,-20.99609375,0.0,0,0
1772023887.682747,1772023887.6347086,-228.02734375,-62.01171875,-438.4765625,-395.99609375,0.0,0,0
1772023887.682807,1772023887.6386049,-187.01171875,-46.875,-114.74609375,-297.8515625,0.0,0,0
1772023887.682865,1772023887.642501,46.38671875,-20.5078125,228.02734375,144.53125,0.0,0,0
1772023887.6829271,1772023887.6463976,187.5,-11.23046875,230.95703125,383.7890625,0.0,0,0
1772023887.682985,1772023887.6502938,18.06640625,-35.15625,-193.84765625,35.15625,0.0,0,0
1772023887.683043,1772023887.65419,-203.125,-61.5234375,-380.859375,-365.72265625,0.0,0,0
1772023887.7699609,1772023887.6583674,-208.49609375,-50.29296875,-139.16015625,-340.8203125,0.0,0,0
1772023887.77165,1772023887.6622636,32.71484375,-15.625,215.8203125,98.14453125,0.0,0,0
1772023887.771911,1772023887.6661599,193.359375,-4.39453125,281.73828125,383.7890625,0.0,0,0
1772023887.772038,1772023887.6700563,30.76171875,-26.3671875,-157.71484375,84.9609375,0.0,0,0
1772023887.772133,1772023887.6739526,-194.3359375,-54.19921875,-391.6015625,-334.9609375,0.0,0,0
1772023887.772192,1772023887.6778488,-219.7265625,-53.7109375,-202.1484375,-371.09375,0.0,0,0
1772023887.772238,1772023887.681745,6.8359375,-19.04296875,177.734375,50.78125,0.0,0,0
1772023887.7723022,1772023887.6856415,193.84765625,7.32421875,306.15234375,380.37109375,0.0,0,0
1772023887.772393,1772023887.6895378,80.078125,-17.08984375,-106.93359375,158.69140625,0.0,0,0
1772023887.7724428,1772023887.693434,-167.48046875,-61.5234375,-399.90234375,-292.48046875,0.0,0,0
1772023887.7724879,1772023887.6973305,-232.421875,-49.8046875,-243.1640625,-394.04296875,0.0,0,0
1772023887.772531,1772023887.7012267,-21.97265625,-7.32421875,171.38671875,5.859375,0.0,0,0
1772023887.773068,1772023887.7052484,162.59765625,-7.32421875,329.58984375,353.515625,0.0,0,0
1772023887.773111,1772023887.7091448,91.30859375,-37.109375,-44.921875,206.54296875,0.0,0,0
1772023887.7731469,1772023887.713041,-153.3203125,-64.453125,-395.99609375,-262.20703125,0.0,0,0
1772023887.773181,1772023887.7169373,-246.09375,-61.03515625,-298.33984375,-432.6171875,0.0,0,0
1772023887.773215,1772023887.7208338,-47.36328125,-22.4609375,146.484375,-48.33984375,0.0,0,0
1772023887.773249,1772023887.72473,157.71484375,2.9296875,353.515625,329.58984375,0.0,0,0
1772023887.773282,1772023887.7286263,128.41796875,-12.6953125,42.96875,255.859375,0.0,0,0
1772023887.773315,1772023887.7325227,-131.8359375,-54.6875,-354.00390625,-218.75,0.0,0,0
1772023887.773348,1772023887.736419,-267.578125,-60.05859375,-339.84375,-452.1484375,0.0,0,0
1772023887.773385,1772023887.7403152,-81.0546875,-23.92578125,118.1640625,-98.6328125,0.0,0,0
1772023887.773419,1772023887.7442117,142.578125,1.46484375,348.6328125,299.31640625,0.0,0,0
1772023887.773452,1772023887.748108,158.203125,-19.53125,104.4921875,294.43359375,0.0,0,0
1772023887.816362,1772023887.7521048,-88.37890625,-60.05859375,-312.5,-169.43359375,0.0,0,0
1772023887.816481,1772023887.7560012,-255.37109375,-64.94140625,-378.41796875,-451.171875,0.0,0,0
1772023887.816531,1772023887.7598975,-98.14453125,-27.34375,60.05859375,-154.78515625,0.0,0,0
1772023887.816576,1772023887.763794,130.859375,2.9296875,330.078125,265.625,0.0,0,0
1772023887.81662,1772023887.7676902,165.0390625,-14.16015625,151.85546875,329.58984375,0.0,0,0
1772023887.8166661,1772023887.7715864,-70.80078125,-47.8515625,-287.109375,-112.79296875,0.0,0,0
1772023887.81671,1772023887.775483,-247.0703125,-57.6171875,-398.92578125,-437.01171875,0.0,0,0
1772023887.816753,1772023887.7793791,-134.27734375,-38.57421875,23.4375,-216.796875,0.0,0,0
1772023887.8167958,1772023887.7832756,104.00390625,-12.20703125,322.75390625,222.16796875,0.0,0,0
1772023887.81684,1772023887.7871718,181.640625,-0.48828125,200.68359375,349.609375,0.0,0,0
1772023887.816885,1772023887.7910683,-42.48046875,-26.3671875,-238.28125,-61.03515625,0.0,0,0
1772023887.816928,1772023887.7949646,-244.140625,-55.17578125,-406.73828125,-421.875,0.0,0,0
1772023887.876995,1772023887.7989516,-171.875,-41.50390625,-55.17578125,-275.390625,0.0,0,0
1772023887.8771598,1772023887.8028479,71.77734375,-2.9296875,288.0859375,177.24609375,0.0,0,0
1772023887.877225,1772023887.8067443,191.40625,3.41796875,235.3515625,368.1640625,0.0,0,0
1772023887.877289,1772023887.8106406,-3.90625,-39.0625,-219.7265625,-2.44140625,0.0,0,0
1772023887.8773482,1772023887.814537,-230.46875,-61.5234375,-406.73828125,-375.9765625,0.0,0,0
1772023887.877436,1772023887.8184333,-208.49609375,-45.8984375,-99.12109375,-309.08203125,0.0,0,0
1772023887.877534,1772023887.8223298,44.921875,-14.6484375,269.04296875,128.41796875,0.0,0,0
1772023887.8776,1772023887.826226,194.82421875,-4.39453125,284.66796875,378.41796875,0.0,0,0
1772023887.877661,1772023887.8301225,14.16015625,-33.203125,-166.50390625,42.96875,0.0,0,0
1772023887.877721,1772023887.8340187,-199.21875,-58.10546875,-380.37109375,-360.3515625,0.0,0,0
1772023887.87778,1772023887.8379152,-210.44921875,-58.59375,-155.2734375,-362.79296875,0.0,0,0
1772023887.8778381,1772023887.8418114,12.20703125,-22.94921875,225.09765625,69.82421875,0.0,0,0
1772023887.922782,1772023887.8457997,182.6171875,-6.34765625,315.91796875,373.046875,0.0,0,0
1772023887.92293,1772023887.8496962,44.921875,-41.015625,-114.74609375,101.07421875,0.0,0,0
1772023887.9229782,1772023887.8535924,-180.6640625,-64.94140625,-341.796875,-322.75390625,0.0,0,0
1772023887.923023,1772023887.8574889,-225.09765625,-47.36328125,-166.015625,-379.39453125,0.0,0,0
1772023887.9230678,1772023887.861385,-8.7890625,-12.20703125,211.9140625,29.78515625,0.0,0,0
1772023887.923112,1772023887.8652816,183.10546875,3.90625,345.21484375,361.81640625,0.0,0,0
1772023887.923156,1772023887.8691778,64.94140625,-35.15625,-51.7578125,160.64453125,0.0,0,0
1772023887.923199,1772023887.8730743,-177.24609375,-67.87109375,-347.65625,-287.59765625,0.0,0,0
1772023887.923242,1772023887.8769705,-243.1640625,-54.6875,-240.72265625,-413.0859375,0.0,0,0
1772023887.923284,1772023887.880867,-34.1796875,-28.80859375,169.921875,-14.16015625,0.0,0,0
1772023887.923326,1772023887.8847632,160.64453125,-14.6484375,358.88671875,351.5625,0.0,0,0
1772023887.923368,1772023887.8886597,110.83984375,-12.6953125,24.90234375,233.3984375,0.0,0,0
1772023887.967988,1772023887.8926406,-125.0,-33.69140625,-312.01171875,-222.65625,0.0,0,0
1772023887.9681962,1772023887.8965368,-243.65234375,-60.546875,-265.13671875,-426.7578125,0.0,0,0
1772023887.96827,1772023887.9004333,-58.59375,-31.25,150.87890625,-65.91796875,0.0,0,0
1772023887.968333,1772023887.9043295,148.4375,3.41796875,347.65625,320.80078125,0.0,0,0
1772023887.9683928,1772023887.908226,139.6484375,-1.46484375,72.265625,273.4375,0.0,0,0
1772023887.968456,1772023887.9121225,-97.16796875,-27.83203125,-295.8984375,-190.4296875,0.0,0,0
1772023887.968516,1772023887.9160187,-237.79296875,-43.9453125,-311.5234375,-442.87109375,0.0,0,0
1772023887.968574,1772023887.9199152,-79.1015625,-16.11328125,112.3046875,-129.39453125,0.0,0,0
1772023887.9686341,1772023887.9238114,132.32421875,17.08984375,345.703125,270.01953125,0.0,0,0
1772023887.968692,1772023887.927708,156.25,-4.8828125,133.7890625,293.9453125,0.0,0,0
1772023887.968749,1772023887.9316041,-75.68359375,-52.24609375,-279.78515625,-149.90234375,0.0,0,0
1772023887.968807,1772023887.9355006,-236.328125,-58.59375,-357.421875,-440.91796875,0.0,0,0
1772023888.013323,1772023887.9395373,-104.4921875,-28.3203125,69.82421875,-177.734375,0.0,0,0
1772023888.0134668,1772023887.9434338,117.67578125,-1.46484375,330.078125,244.62890625,0.0,0,0
1772023888.0135171,1772023887.9473302,173.33984375,-4.8828125,168.45703125,333.984375,0.0,0,0
1772023888.013788,1772023887.9512265,-58.59375,-34.66796875,-250.0,-97.16796875,0.0,0,0
1772023888.013835,1772023887.955123,-259.27734375,-63.4765625,-383.7890625,-438.4765625,0.0,0,0
1772023888.0138812,1772023887.9590194,-156.25,-49.8046875,-13.671875,-243.1640625,0.0,0,0
1772023888.0139241,1772023887.962916,86.42578125,-7.8125,305.6640625,200.68359375,0.0,0,0
1772023888.013967,1772023887.9668121,172.36328125,-7.32421875,215.33203125,355.46875,0.0,0,0
1772023888.014009,1772023887.9707086,-41.50390625,-49.8046875,-224.609375,-48.33984375,0.0,0,0
1772023888.0140522,1772023887.974605,-239.74609375,-66.89453125,-376.953125,-409.66796875,0.0,0,0
1772023888.014094,1772023887.9785013,-183.10546875,-29.78515625,-52.24609375,-291.9921875,0.0,0,0
1772023888.014136,1772023887.9823978,49.31640625,2.44140625,290.52734375,149.90234375,0.0,0,0
1772023888.071257,1772023887.9864264,176.26953125,0.48828125,258.7890625,369.62890625,0.0,0,0
1772023888.07143,1772023887.9903226,-7.32421875,-32.71484375,-210.44921875,6.8359375,0.0,0,0
1772023888.071501,1772023887.994219,-210.44921875,-54.6875,-414.0625,-375.9765625,0.0,0,0
1772023888.071563,1772023887.9981155,-186.5234375,-39.55078125,-129.8828125,-320.3125,0.0,0,0
1772023888.0716228,1772023888.002012,37.59765625,-4.8828125,249.51171875,118.65234375,0.0,0,0
1772023888.071742,1772023888.0059083,192.87109375,10.7421875,296.38671875,389.6484375,0.0,0,0
1772023888.071837,1772023888.0098047,32.71484375,-20.99609375,-166.50390625,74.70703125,0.0,0,0
1772023888.071906,1772023888.0137012,-199.70703125,-53.22265625,-401.85546875,-348.6328125,0.0,0,0
1772023888.071967,1772023888.0175977,-225.5859375,-52.734375,-190.91796875,-373.046875,0.0,0,0
1772023888.0720372,1772023888.021494,8.30078125,-17.578125,202.1484375,58.10546875,0.0,0,0
1772023888.072096,1772023888.0253904,190.91796875,6.8359375,327.1484375,372.0703125,0.0,0,0
1772023888.072155,1772023888.0292869,53.22265625,-20.01953125,-115.72265625,117.1875,0.0,0,0
1772023888.101724,1772023888.0333025,-180.17578125,-58.59375,-394.53125,-323.2421875,0.0,0,0
1772023888.101855,1772023888.037199,-235.83984375,-53.7109375,-202.63671875,-402.83203125,0.0,0,0
1772023888.101902,1772023888.0410953,-25.87890625,-19.53125,201.66015625,10.7421875,0.0,0,0
1772023888.101946,1772023888.0449917,183.59375,-0.9765625,341.796875,361.328125,0.0,0,0
1772023888.102038,1772023888.0488882,102.5390625,-25.87890625,-41.50390625,187.98828125,0.0,0,0
1772023888.1020951,1772023888.0527847,-154.296875,-61.03515625,-380.859375,-283.69140625,0.0,0,0
1772023888.102141,1772023888.0566812,-248.046875,-57.12890625,-279.296875,-437.5,0.0,0,0
1772023888.102185,1772023888.0605774,-44.43359375,-20.01953125,150.390625,-43.45703125,0.0,0,0
1772023888.102241,1772023888.0644739,164.0625,-7.8125,346.19140625,328.125,0.0,0,0
1772023888.102283,1772023888.0683703,121.58203125,-38.57421875,36.62109375,236.81640625,0.0,0,0
1772023888.102328,1772023888.0722668,-130.859375,-65.4296875,-324.21875,-228.515625,0.0,0,0
1772023888.102371,1772023888.0761633,-252.9296875,-56.640625,-288.57421875,-439.94140625,0.0,0,0
1772023888.14952,1772023888.080169,-65.91796875,-20.5078125,150.87890625,-76.66015625,0.0,0,0
1772023888.149675,1772023888.0840654,140.13671875,-1.46484375,363.76953125,308.10546875,0.0,0,0
1772023888.149744,1772023888.087962,136.71875,-12.20703125,91.796875,279.296875,0.0,0,0
1772023888.149805,1772023888.0918584,-104.4921875,-50.29296875,-314.94140625,-178.22265625,0.0,0,0
1772023888.1498659,1772023888.0957549,-260.25390625,-62.98828125,-343.26171875,-459.47265625,0.0,0,0
1772023888.149927,1772023888.0996513,-110.83984375,-38.57421875,101.07421875,-163.0859375,0.0,0,0
1772023888.1499882,1772023888.1035478,115.72265625,-15.625,343.75,261.23046875,0.0,0,0
1772023888.1500459,1772023888.107444,161.1328125,-17.08984375,138.671875,316.40625,0.0,0,0
1772023888.1501179,1772023888.1113405,-79.1015625,-55.6640625,-287.109375,-133.7890625,0.0,0,0
1772023888.150187,1772023888.115237,-261.23046875,-70.80078125,-371.58203125,-452.1484375,0.0,0,0
1772023888.1502452,1772023888.1191335,-135.25390625,-40.52734375,48.33984375,-209.47265625,0.0,0,0
1772023888.150304,1772023888.12303,104.4921875,0.0,323.2421875,231.4453125,0.0,0,0
1772023888.191498,1772023888.1270254,186.5234375,3.41796875,185.546875,349.609375,0.0,0,0
1772023888.191644,1772023888.1309218,-28.3203125,-42.96875,-250.0,-77.1484375,0.0,0,0
1772023888.191712,1772023888.1348183,-224.12109375,-62.5,-393.06640625,-428.22265625,0.0,0,0
1772023888.191773,1772023888.1387148,-144.53125,-39.0625,-25.87890625,-264.16015625,0.0,0,0
1772023888.191832,1772023888.1426113,94.7265625,-6.8359375,294.921875,180.6640625,0.0,0,0
1772023888.191891,1772023888.1465075,206.54296875,7.32421875,238.28125,371.09375,0.0,0,0
1772023888.19195,1772023888.150404,-1.953125,-29.296875,-215.33203125,-19.04296875,0.0,0,0
1772023888.192009,1772023888.1543005,-213.37890625,-55.6640625,-416.9921875,-406.25,0.0,0,0
1772023888.192071,1772023888.158197,-174.31640625,-33.203125,-96.19140625,-313.96484375,0.0,0,0
1772023888.1921291,1772023888.1620934,61.03515625,-5.859375,281.73828125,134.27734375,0.0,0,0
1772023888.1921878,1772023888.1659899,200.1953125,2.9296875,282.2265625,380.37109375,0.0,0,0
1772023888.1922581,1772023888.1698864,8.30078125,-29.296875,-188.96484375,28.3203125,0.0,0,0
1772023888.236413,1772023888.1738722,-215.33203125,-55.17578125,-393.5546875,-373.046875,0.0,0,0
1772023888.236547,1772023888.1777687,-206.54296875,-35.64453125,-131.8359375,-339.84375,0.0,0,0
1772023888.236613,1772023888.1816652,20.5078125,-10.7421875,243.65234375,92.7734375,0.0,0,0
1772023888.236675,1772023888.1855617,183.10546875,2.9296875,311.03515625,382.8125,0.0,0,0
1772023888.2367349,1772023888.1894581,34.66796875,-24.90234375,-143.5546875,97.65625,0.0,0,0
1772023888.236802,1772023888.1933546,-187.5,-48.33984375,-382.8125,-316.89453125,0.0,0,0
1772023888.2368598,1772023888.197251,-219.23828125,-44.43359375,-196.77734375,-359.375,0.0,0,0
1772023888.236919,1772023888.2011476,-11.71875,-26.3671875,173.33984375,46.875,0.0,0,0
1772023888.2369778,1772023888.205044,187.98828125,6.8359375,315.4296875,382.32421875,0.0,0,0
1772023888.2370381,1772023888.2089405,84.47265625,-12.6953125,-68.84765625,171.875,0.0,0,0
1772023888.237097,1772023888.212837,-167.48046875,-58.59375,-353.515625,-289.55078125,0.0,0,0
1772023888.237154,1772023888.2167335,-245.1171875,-54.6875,-219.7265625,-410.15625,0.0,0,0
1772023888.282953,1772023888.220707,-30.76171875,-20.99609375,180.17578125,4.8828125,0.0,0,0
1772023888.283129,1772023888.2246034,185.05859375,-3.90625,353.02734375,377.44140625,0.0,0,0
1772023888.2831948,1772023888.2285,107.421875,-18.06640625,-7.8125,225.09765625,0.0,0,0
1772023888.283255,1772023888.2323964,-156.25,-62.98828125,-356.93359375,-256.8359375,0.0,0,0
1772023888.283314,1772023888.2362928,-257.8125,-70.3125,-276.85546875,-427.734375,0.0,0,0
1772023888.283373,1772023888.2401893,-61.5234375,-24.90234375,142.578125,-50.29296875,0.0,0,0
1772023888.2834408,1772023888.2440858,156.25,-6.8359375,325.68359375,331.0546875,0.0,0,0
1772023888.2835011,1772023888.2479823,137.6953125,-16.11328125,43.9453125,273.92578125,0.0,0,0
1772023888.283564,1772023888.2518787,-113.76953125,-42.96875,-308.10546875,-197.265625,0.0,0,0
1772023888.283624,1772023888.2557752,-250.9765625,-54.19921875,-303.7109375,-433.59375,0.0,0,0
1772023888.283682,1772023888.2596717,-76.66015625,-17.578125,112.79296875,-90.33203125,0.0,0,0
1772023888.283741,1772023888.2635684,136.71875,-2.44140625,327.63671875,302.734375,0.0,0,0
1772023888.3706298,1772023888.2676876,151.85546875,-17.578125,109.375,313.96484375,0.0,0,0
1772023888.37079,1772023888.271584,-85.44921875,-42.48046875,-273.92578125,-142.08984375,0.0,0,0
1772023888.370856,1772023888.2754805,-243.65234375,-52.734375,-326.171875,-433.59375,0.0,0,0
1772023888.370917,1772023888.2793772,-102.5390625,-35.64453125,71.77734375,-150.390625,0.0,0,0
1772023888.370977,1772023888.2832737,122.55859375,-4.8828125,309.08203125,269.04296875,0.0,0,0
1772023888.371042,1772023888.2871702,184.5703125,2.44140625,163.57421875,348.6328125,0.0,0,0
1772023888.371205,1772023888.2910666,-56.640625,-39.55078125,-244.140625,-101.5625,0.0,0,0
1772023888.3714728,1772023888.2949631,-242.67578125,-53.7109375,-358.3984375,-428.7109375,0.0,0,0
1772023888.371541,1772023888.2988598,-121.58203125,-37.59765625,13.671875,-204.1015625,0.0,0,0
1772023888.3716018,1772023888.3027563,119.140625,-11.23046875,288.0859375,227.5390625,0.0,0,0
1772023888.371661,1772023888.3066528,189.453125,-2.44140625,183.10546875,360.3515625,0.0,0,0
1772023888.371719,1772023888.3105493,-34.1796875,-25.390625,-237.3046875,-60.05859375,0.0,0,0
1772023888.3863628,1772023888.3145146,-230.95703125,-40.52734375,-392.08984375,-431.15234375,0.0,0,0
1772023888.386505,1772023888.318411,-163.0859375,-14.6484375,-46.875,-291.9921875,0.0,0,0
1772023888.386552,1772023888.3223078,67.87109375,23.4375,280.2734375,154.296875,0.0,0,0
1772023888.3865972,1772023888.3262043,184.5703125,26.85546875,222.16796875,347.65625,0.0,0,0
1772023888.3866408,1772023888.3301008,-2.9296875,-3.90625,-215.33203125,-35.64453125,0.0,0,0
1772023888.386685,1772023888.3339972,-217.28515625,-26.85546875,-387.6953125,-413.0859375,0.0,0,0
1772023888.386729,1772023888.3378937,-199.70703125,-22.94921875,-111.328125,-343.26171875,0.0,0,0
1772023888.386773,1772023888.3417904,34.66796875,6.34765625,233.3984375,104.4921875,0.0,0,0
1772023888.386816,1772023888.345687,196.2890625,22.4609375,259.27734375,364.74609375,0.0,0,0
1772023888.386858,1772023888.3495834,27.34375,-3.41796875,-160.64453125,31.73828125,0.0,0,0
1772023888.3869,1772023888.3534799,-205.56640625,-27.83203125,-372.0703125,-379.39453125,0.0,0,0
1772023888.3869429,1772023888.3573766,-212.40234375,-23.92578125,-162.109375,-382.8125,0.0,0,0
1772023888.4470348,1772023888.3614037,24.90234375,8.30078125,209.9609375,60.546875,0.0,0,0
1772023888.4471931,1772023888.3653002,198.73046875,23.4375,295.8984375,368.65234375,0.0,0,0
1772023888.447254,1772023888.3691967,59.08203125,-16.6015625,-121.09375,104.98046875,0.0,0,0
1772023888.447314,1772023888.3730934,-184.08203125,-42.48046875,-360.3515625,-333.49609375,0.0,0,0
1772023888.4473732,1772023888.3769898,-231.93359375,-35.64453125,-195.80078125,-409.1796875,0.0,0,0
1772023888.447435,1772023888.3808863,-10.7421875,-13.18359375,172.8515625,10.7421875,0.0,0,0
1772023888.447493,1772023888.384783,178.22265625,3.41796875,297.8515625,354.4921875,0.0,0,0
1772023888.447551,1772023888.3886795,89.84375,-13.18359375,-70.80078125,171.38671875,0.0,0,0
1772023888.4476092,1772023888.392576,-145.01953125,-41.015625,-346.6796875,-280.2734375,0.0,0,0
1772023888.447667,1772023888.3964725,-224.12109375,-45.8984375,-231.4453125,-415.52734375,0.0,0,0
1772023888.447725,1772023888.4003692,-31.25,-17.578125,152.34375,-23.92578125,0.0,0,0
1772023888.4478028,1772023888.4042656,166.50390625,8.30078125,330.078125,338.8671875,0.0,0,0
1772023888.4771972,1772023888.408284,117.1875,-9.765625,5.859375,217.7734375,0.0,0,0
1772023888.477313,1772023888.4121804,-129.39453125,-48.33984375,-368.65234375,-247.55859375,0.0,0,0
1772023888.4773812,1772023888.4160771,-247.0703125,-57.12890625,-320.80078125,-440.4296875,0.0,0,0
1772023888.4774442,1772023888.4199736,-69.3359375,-22.94921875,116.2109375,-85.44921875,0.0,0,0
1772023888.4775062,1772023888.4238703,149.4140625,11.23046875,327.1484375,301.26953125,0.0,0,0
1772023888.4775648,1772023888.4277668,152.83203125,-1.46484375,62.01171875,270.5078125,0.0,0,0
1772023888.4776251,1772023888.4316633,-85.9375,-36.62109375,-320.80078125,-186.03515625,0.0,0,0
1772023888.4776871,1772023888.43556,-245.1171875,-47.8515625,-345.21484375,-455.078125,0.0,0,0
1772023888.477754,1772023888.4394565,-83.0078125,-19.53125,81.0546875,-139.6484375,0.0,0,0
1772023888.477812,1772023888.4433532,142.578125,2.44140625,323.2421875,273.4375,0.0,0,0
1772023888.477887,1772023888.4472497,172.36328125,-6.34765625,135.25390625,304.19921875,0.0,0,0
1772023888.4779599,1772023888.4511461,-64.453125,-41.015625,-266.11328125,-136.71875,0.0,0,0
1772023888.522165,1772023888.4551497,-244.140625,-55.6640625,-353.02734375,-443.84765625,0.0,0,0
1772023888.522305,1772023888.4590464,-110.83984375,-29.296875,52.734375,-188.96484375,0.0,0,0
1772023888.522371,1772023888.4629428,119.62890625,7.8125,309.08203125,240.234375,0.0,0,0
1772023888.522432,1772023888.4668396,181.15234375,5.37109375,171.38671875,338.37890625,0.0,0,0
1772023888.522491,1772023888.470736,-41.50390625,-36.1328125,-222.16796875,-91.796875,0.0,0,0
1772023888.522551,1772023888.4746327,-234.375,-54.6875,-354.00390625,-427.734375,0.0,0,0
1772023888.522609,1772023888.4785292,-144.04296875,-41.015625,-1.46484375,-239.74609375,0.0,0,0
1772023888.5226681,1772023888.482426,93.75,-13.18359375,291.9921875,196.2890625,0.0,0,0
1772023888.522725,1772023888.4863224,199.21875,1.953125,209.9609375,366.2109375,0.0,0,0
1772023888.5227818,1772023888.490219,-12.6953125,-34.1796875,-202.1484375,-31.25,0.0,0,0
1772023888.52284,1772023888.4941156,-220.21484375,-61.03515625,-362.3046875,-406.73828125,0.0,0,0
1772023888.522898,1772023888.4980123,-166.50390625,-38.57421875,-55.17578125,-292.96875,0.0,0,0
1772023888.568616,1772023888.5020065,62.98828125,-8.30078125,264.6484375,146.97265625,0.0,0,0
1772023888.568786,1772023888.505903,197.265625,-6.34765625,250.48828125,372.0703125,0.0,0,0
1772023888.568852,1772023888.5097997,9.27734375,-42.48046875,-162.59765625,15.13671875,0.0,0,0
1772023888.568914,1772023888.5136962,-213.8671875,-63.96484375,-359.375,-383.30078125,0.0,0,0
1772023888.568974,1772023888.517593,-194.82421875,-48.33984375,-125.48828125,-346.19140625,0.0,0,0
1772023888.569034,1772023888.5214894,41.9921875,-15.13671875,222.65625,96.6796875,0.0,0,0
1772023888.5690932,1772023888.525386,205.56640625,8.7890625,284.1796875,395.5078125,0.0,0,0
1772023888.5691688,1772023888.5292826,56.15234375,-18.06640625,-136.71875,87.890625,0.0,0,0
1772023888.569246,1772023888.5331793,-182.12890625,-61.5234375,-364.2578125,-352.5390625,0.0,0,0
1772023888.569323,1772023888.5370758,-209.47265625,-47.36328125,-169.43359375,-372.0703125,0.0,0,0
1772023888.569399,1772023888.5409725,18.06640625,-11.23046875,189.453125,58.10546875,0.0,0,0
1772023888.5694668,1772023888.544869,201.171875,-3.90625,303.22265625,374.0234375,0.0,0,0
1772023888.611413,1772023888.5488539,76.171875,-20.99609375,-89.35546875,134.27734375,0.0,0,0
1772023888.611545,1772023888.5527506,-163.57421875,-42.48046875,-349.12109375,-303.7109375,0.0,0,0
1772023888.611611,1772023888.556647,-225.09765625,-52.734375,-204.1015625,-392.578125,0.0,0,0
1772023888.6116722,1772023888.5605438,-16.11328125,-26.85546875,165.0390625,13.18359375,0.0,0,0
1772023888.611732,1772023888.5644403,174.8046875,-5.37109375,311.03515625,363.28125,0.0,0,0
1772023888.6117902,1772023888.568337,89.84375,-28.80859375,-34.1796875,198.2421875,0.0,0,0
1772023888.611833,1772023888.5722334,-152.34375,-65.91796875,-326.66015625,-266.11328125,0.0,0,0
1772023888.611876,1772023888.5761302,-243.1640625,-63.96484375,-248.046875,-423.33984375,0.0,0,0
1772023888.611918,1772023888.5800266,-47.36328125,-21.97265625,122.55859375,-36.62109375,0.0,0,0
1772023888.6119611,1772023888.5839233,167.96875,8.30078125,312.98828125,338.8671875,0.0,0,0
1772023888.612004,1772023888.58782,129.39453125,-12.20703125,23.92578125,250.9765625,0.0,0,0
1772023888.612045,1772023888.5917165,-124.51171875,-52.24609375,-316.40625,-211.42578125,0.0,0,0
1772023888.671307,1772023888.5956943,-245.60546875,-57.6171875,-270.5078125,-423.33984375,0.0,0,0
1772023888.671469,1772023888.5995908,-65.4296875,-27.83203125,128.41796875,-76.171875,0.0,0,0
1772023888.67154,1772023888.6034875,147.94921875,-6.34765625,317.3828125,312.5,0.0,0,0
1772023888.6716008,1772023888.607384,155.2734375,-7.32421875,88.8671875,298.33984375,0.0,0,0
1772023888.671662,1772023888.6112807,-87.40234375,-40.52734375,-281.25,-164.55078125,0.0,0,0
1772023888.671722,1772023888.6151774,-251.953125,-59.08203125,-315.91796875,-445.80078125,0.0,0,0
1772023888.671781,1772023888.6190739,-101.07421875,-35.64453125,76.171875,-146.97265625,0.0,0,0
1772023888.67184,1772023888.6229706,123.046875,-13.671875,305.17578125,275.390625,0.0,0,0
1772023888.6718981,1772023888.6268673,162.59765625,-9.27734375,144.53125,332.51953125,0.0,0,0
1772023888.671956,1772023888.6307638,-68.84765625,-43.9453125,-254.8828125,-110.83984375,0.0,0,0
1772023888.6722,1772023888.6346605,-242.1875,-66.89453125,-351.5625,-421.38671875,0.0,0,0
1772023888.672263,1772023888.638557,-125.48828125,-29.296875,33.69140625,-187.01171875,0.0,0,0
1772023888.7166982,1772023888.6425343,104.00390625,5.859375,301.7578125,245.1171875,0.0,0,0
1772023888.7168179,1772023888.6464307,180.6640625,0.48828125,191.89453125,366.69921875,0.0,0,0
1772023888.716885,1772023888.6503274,-46.38671875,-36.62109375,-216.796875,-62.5,0.0,0,0
1772023888.716946,1772023888.6542242,-248.53515625,-59.5703125,-371.58203125,-426.26953125,0.0,0,0
1772023888.7170072,1772023888.6581206,-164.0625,-32.71484375,-26.3671875,-256.8359375,0.0,0,0
1772023888.717066,1772023888.6620173,83.49609375,-2.44140625,294.921875,202.1484375,0.0,0,0
1772023888.7171252,1772023888.665914,194.3359375,2.44140625,234.86328125,382.32421875,0.0,0,0
1772023888.717184,1772023888.6698105,-7.32421875,-23.4375,-203.125,-6.34765625,0.0,0,0
1772023888.717241,1772023888.6737072,-223.14453125,-46.38671875,-397.4609375,-393.06640625,0.0,0,0
1772023888.717301,1772023888.677604,-192.3828125,-42.96875,-105.95703125,-316.40625,0.0,0,0
1772023888.717359,1772023888.6815004,45.8984375,-19.53125,253.90625,124.51171875,0.0,0,0
1772023888.717416,1772023888.6853971,189.453125,-0.48828125,269.04296875,368.1640625,0.0,0,0
1772023888.762437,1772023888.6894333,10.7421875,-27.34375,-168.45703125,33.203125,0.0,0,0
1772023888.7625458,1772023888.6933298,-210.9375,-55.6640625,-374.51171875,-374.0234375,0.0,0,0
1772023888.762591,1772023888.6972265,-208.49609375,-42.96875,-131.8359375,-358.88671875,0.0,0,0
1772023888.762649,1772023888.7011232,18.06640625,0.48828125,250.9765625,85.44921875,0.0,0,0
1772023888.7626922,1772023888.70502,180.17578125,12.20703125,305.6640625,369.62890625,0.0,0,0
1772023888.7627351,1772023888.7089164,43.45703125,-23.4375,-139.6484375,83.49609375,0.0,0,0
1772023888.7628238,1772023888.7128131,-174.8046875,-50.78125,-369.140625,-331.0546875,0.0,0,0
1772023888.762868,1772023888.7167099,-223.6328125,-61.03515625,-179.6875,-377.9296875,0.0,0,0
1772023888.762912,1772023888.7206066,-4.39453125,-26.85546875,210.9375,52.24609375,0.0,0,0
1772023888.762954,1772023888.724503,184.08203125,0.9765625,335.44921875,386.71875,0.0,0,0
1772023888.763016,1772023888.7283998,71.2890625,-26.3671875,-71.77734375,166.50390625,0.0,0,0
1772023888.763069,1772023888.7322965,-167.96875,-52.734375,-356.4453125,-290.52734375,0.0,0,0
1772023888.821794,1772023888.7363203,-239.2578125,-55.17578125,-210.9375,-405.76171875,0.0,0,0
1772023888.821941,1772023888.740217,-22.4609375,-20.01953125,190.91796875,9.765625,0.0,0,0
1772023888.822006,1772023888.7441137,180.6640625,9.27734375,341.796875,364.2578125,0.0,0,0
1772023888.822067,1772023888.7480104,105.95703125,-20.01953125,-6.8359375,220.21484375,0.0,0,0
1772023888.822127,1772023888.751907,-143.5546875,-54.6875,-334.47265625,-241.69921875,0.0,0,0
1772023888.822186,1772023888.7558036,-249.51171875,-59.08203125,-270.5078125,-424.31640625,0.0,0,0
1772023888.8222458,1772023888.7597003,-55.17578125,-30.76171875,136.71875,-53.22265625,0.0,0,0
1772023888.822309,1772023888.763597,154.296875,-6.8359375,331.54296875,323.73046875,0.0,0,0
1772023888.822368,1772023888.7674937,139.6484375,-18.06640625,56.640625,269.04296875,0.0,0,0
1772023888.822418,1772023888.7713904,-102.5390625,-47.36328125,-317.87109375,-197.75390625,0.0,0,0
1772023888.822461,1772023888.775287,-243.1640625,-54.6875,-318.84765625,-439.453125,0.0,0,0
1772023888.8225029,1772023888.7791836,-77.63671875,-31.25,118.1640625,-104.4921875,0.0,0,0
1772023888.852795,1772023888.783201,136.23046875,-15.13671875,331.54296875,289.0625,0.0,0,0
1772023888.852921,1772023888.7870977,160.15625,-22.94921875,104.98046875,301.7578125,0.0,0,0
1772023888.852986,1772023888.7909944,-74.70703125,-44.43359375,-294.921875,-143.06640625,0.0,0,0
1772023888.853055,1772023888.794891,-245.60546875,-52.24609375,-358.3984375,-434.5703125,0.0,0,0
1772023888.8531148,1772023888.7987878,-114.2578125,-14.16015625,58.10546875,-167.96875,0.0,0,0
1772023888.853178,1772023888.8026845,124.0234375,2.44140625,318.359375,258.7890625,0.0,0,0
1772023888.853249,1772023888.8065813,184.5703125,-37.109375,161.1328125,341.30859375,0.0,0,0
1772023888.8533068,1772023888.810478,-51.7578125,-68.84765625,-267.08984375,-99.609375,0.0,0,0
1772023888.853392,1772023888.8143744,-236.328125,-69.82421875,-386.23046875,-433.10546875,0.0,0,0
1772023888.853468,1772023888.8182712,-125.48828125,-41.50390625,15.625,-219.7265625,0.0,0,0
1772023888.8535318,1772023888.8221679,97.16796875,-5.37109375,310.546875,221.6796875,0.0,0,0
1772023888.853587,1772023888.8260646,175.29296875,-0.48828125,203.125,362.3046875,0.0,0,0
1772023888.895853,1772023888.8300643,-32.71484375,-43.45703125,-240.234375,-50.78125,0.0,0,0
1772023888.895981,1772023888.833961,-240.72265625,-53.22265625,-411.62109375,-416.50390625,0.0,0,0
1772023888.896031,1772023888.8378577,-174.31640625,-29.78515625,-51.7578125,-276.3671875,0.0,0,0
1772023888.896078,1772023888.8417544,81.0546875,3.41796875,299.31640625,182.12890625,0.0,0,0
1772023888.8961222,1772023888.8456511,204.58984375,12.6953125,253.41796875,387.20703125,0.0,0,0
1772023888.8961651,1772023888.8495479,-1.46484375,-17.08984375,-214.35546875,-2.9296875,0.0,0,0
1772023888.8962078,1772023888.8534446,-226.07421875,-31.25,-421.38671875,-398.4375,0.0,0,0
1772023888.896249,1772023888.8573413,-197.75390625,-32.71484375,-137.20703125,-329.58984375,0.0,0,0
1772023888.8962939,1772023888.861238,44.921875,-35.15625,237.3046875,118.1640625,0.0,0,0
1772023888.8963358,1772023888.8651347,203.125,-17.08984375,261.71875,388.18359375,0.0,0,0
1772023888.896377,1772023888.8690314,30.76171875,-19.04296875,-205.56640625,60.546875,0.0,0,0
1772023888.896419,1772023888.8729281,-201.171875,-62.01171875,-433.59375,-356.4453125,0.0,0,0
1772023888.971906,1772023888.8769991,-212.40234375,-82.51953125,-201.171875,-362.3046875,0.0,0,0
1772023888.9720352,1772023888.880896,22.4609375,-23.92578125,208.49609375,74.70703125,0.0,0,0
1772023888.972085,1772023888.8847928,192.87109375,16.11328125,299.31640625,378.41796875,0.0,0,0
1772023888.9721322,1772023888.8886895,51.26953125,-37.59765625,-165.0390625,108.88671875,0.0,0,0
1772023888.9721768,1772023888.8925862,-184.08203125,-58.10546875,-431.15234375,-328.125,0.0,0,0
1772023888.97222,1772023888.896483,-234.86328125,-34.66796875,-247.0703125,-403.80859375,0.0,0,0
1772023888.972264,1772023888.9003797,-13.671875,0.0,166.9921875,18.06640625,0.0,0,0
1772023888.972306,1772023888.9042764,180.17578125,11.71875,315.91796875,358.3984375,0.0,0,0
1772023888.972351,1772023888.908173,86.42578125,-6.34765625,-88.37890625,171.38671875,0.0,0,0
1772023888.972395,1772023888.9120698,-151.3671875,-62.01171875,-401.85546875,-280.76171875,0.0,0,0
1772023888.972438,1772023888.9159665,-235.83984375,-75.68359375,-273.92578125,-419.921875,0.0,0,0
1772023888.97248,1772023888.9198632,-38.0859375,-6.8359375,149.4140625,-39.0625,0.0,0,0
1772023888.98735,1772023888.9238524,168.9453125,28.3203125,335.44921875,316.89453125,0.0,0,0
1772023888.987508,1772023888.9277492,113.76953125,1.46484375,5.859375,222.16796875,0.0,0,0
1772023888.9875488,1772023888.9316459,-150.87890625,-53.7109375,-335.9375,-234.375,0.0,0,0
1772023888.987591,1772023888.9355426,-279.296875,-57.6171875,-265.625,-435.546875,0.0,0,0
1772023888.987626,1772023888.9394393,-103.02734375,-26.3671875,159.66796875,-79.1015625,0.0,0,0
1772023888.9876611,1772023888.9433362,108.3984375,4.8828125,362.3046875,311.03515625,0.0,0,0
1772023888.9876952,1772023888.947233,89.84375,-15.13671875,104.00390625,269.53125,0.0,0,0
1772023888.98773,1772023888.9511297,-160.15625,-70.80078125,-285.15625,-194.82421875,0.0,0,0
1772023888.987764,1772023888.9550264,-306.15234375,-85.44921875,-298.33984375,-443.359375,0.0,0,0
1772023888.987797,1772023888.958923,-151.3671875,-58.59375,128.41796875,-133.7890625,0.0,0,0
1772023888.98783,1772023888.9628198,61.03515625,-38.57421875,350.5859375,272.4609375,0.0,0,0
1772023888.987863,1772023888.9667165,84.47265625,-52.734375,156.73828125,301.26953125,0.0,0,0
1772023889.032067,1772023888.9706917,-155.2734375,-84.47265625,-234.86328125,-138.18359375,0.0,0,0
1772023889.0323641,1772023888.9745884,-322.265625,-99.12109375,-313.96484375,-428.7109375,0.0,0,0
1772023889.032416,1772023888.978485,-185.546875,-69.3359375,101.07421875,-173.33984375,0.0,0,0
1772023889.032463,1772023888.982382,35.15625,-40.0390625,369.62890625,255.37109375,0.0,0,0
1772023889.03251,1772023888.9862788,100.09765625,-45.41015625,229.4921875,368.1640625,0.0,0,0
1772023889.032553,1772023888.9901755,-122.0703125,-96.6796875,-196.77734375,-54.6875,0.0,0,0
1772023889.032597,1772023888.9940722,-316.89453125,-127.44140625,-337.890625,-395.5078125,0.0,0,0
1772023889.032641,1772023888.997969,-241.69921875,-87.40234375,24.4140625,-215.33203125,0.0,0,0
1772023889.032683,1772023889.0018656,0.48828125,-51.26953125,333.49609375,227.05078125,0.0,0,0
1772023889.032726,1772023889.0057626,110.83984375,-43.9453125,259.27734375,405.76171875,0.0,0,0
1772023889.032769,1772023889.0096593,-114.2578125,-66.40625,-201.66015625,1.953125,0.0,0,0
1772023889.03281,1772023889.013556,-318.359375,-105.46875,-380.37109375,-374.51171875,0.0,0,0
1772023889.09108,1772023889.0175202,-253.41796875,-113.28125,-38.57421875,-256.8359375,0.0,0,0
1772023889.0912058,1772023889.021417,-4.39453125,-66.89453125,319.3359375,190.91796875,0.0,0,0
1772023889.091255,1772023889.0253136,142.578125,-35.15625,301.26953125,428.22265625,0.0,0,0
1772023889.0913,1772023889.0292103,-26.85546875,-75.1953125,-179.6875,74.21875,0.0,0,0
1772023889.0913548,1772023889.033107,-245.1171875,-104.00390625,-409.66796875,-336.42578125,0.0,0,0
1772023889.091402,1772023889.037004,-234.375,-77.1484375,-135.7421875,-297.8515625,0.0,0,0
1772023889.091459,1772023889.0409007,22.94921875,-53.22265625,258.30078125,157.2265625,0.0,0,0
1772023889.091521,1772023889.0447974,202.1484375,-48.828125,303.22265625,439.94140625,0.0,0,0
1772023889.091564,1772023889.0486941,48.33984375,-51.7578125,-161.62109375,126.953125,0.0,0,0
1772023889.091606,1772023889.0525908,-181.640625,-76.66015625,-387.6953125,-288.0859375,0.0,0,0
1772023889.09167,1772023889.0564878,-201.66015625,-98.6328125,-182.12890625,-310.546875,0.0,0,0
1772023889.091734,1772023889.0603845,48.828125,-71.2890625,200.1953125,119.62890625,0.0,0,0
1772023889.139253,1772023889.0644186,246.09375,-23.4375,320.3125,444.82421875,0.0,0,0
1772023889.139392,1772023889.0683153,103.02734375,-17.578125,-86.42578125,199.21875,0.0,0,0
1772023889.139454,1772023889.0722122,-149.90234375,-48.828125,-352.05078125,-255.37109375,0.0,0,0
1772023889.139515,1772023889.076109,-202.63671875,-49.31640625,-208.0078125,-346.6796875,0.0,0,0
1772023889.1395829,1772023889.0800056,15.13671875,-29.78515625,148.4375,63.4765625,0.0,0,0
1772023889.139642,1772023889.0839024,217.7734375,-15.625,287.109375,416.015625,0.0,0,0
1772023889.1397,1772023889.0877993,144.04296875,-61.03515625,-48.33984375,253.41796875,0.0,0,0
1772023889.1397781,1772023889.091696,-110.3515625,-102.5390625,-342.28515625,-213.8671875,0.0,0,0
1772023889.139837,1772023889.0955927,-209.9609375,-75.1953125,-235.83984375,-374.51171875,0.0,0,0
1772023889.139914,1772023889.0994897,-0.48828125,-31.25,135.25390625,10.7421875,0.0,0,0
1772023889.139986,1772023889.1033864,200.1953125,-9.27734375,352.5390625,378.41796875,0.0,0,0
1772023889.140054,1772023889.107283,170.41015625,-27.34375,141.11328125,300.78125,0.0,0,0
1772023889.181056,1772023889.1113033,-68.84765625,-65.91796875,-237.3046875,-161.62109375,0.0,0,0
1772023889.181133,1772023889.1152,-208.0078125,-72.265625,-283.69140625,-390.625,0.0,0,0
1772023889.1811771,1772023889.1190968,-30.76171875,-42.48046875,104.98046875,-40.52734375,0.0,0,0
1772023889.181221,1772023889.1229937,190.91796875,-28.3203125,305.6640625,353.515625,0.0,0,0
1772023889.181264,1772023889.1268904,204.58984375,-38.0859375,65.91796875,330.56640625,0.0,0,0
1772023889.1813178,1772023889.1307871,-52.24609375,-57.12890625,-336.9140625,-138.671875,0.0,0,0
1772023889.1813738,1772023889.134684,-210.44921875,-69.3359375,-399.90234375,-417.96875,0.0,0,0
1772023889.181417,1772023889.1385808,-58.59375,-61.03515625,35.64453125,-120.60546875,0.0,0,0
1772023889.181468,1772023889.1424775,160.15625,-9.765625,290.0390625,302.734375,0.0,0,0
1772023889.18152,1772023889.1463745,215.33203125,13.671875,100.5859375,370.1171875,0.0,0,0
1772023889.181586,1772023889.1502712,-17.578125,-41.015625,-287.59765625,-80.078125,0.0,0,0
1772023889.181628,1772023889.154168,-212.890625,-68.359375,-358.3984375,-414.0625,0.0,0,0
1772023889.2707598,1772023889.1583393,-88.8671875,-32.71484375,23.92578125,-182.6171875,0.0,0,0
1772023889.2709172,1772023889.1622362,160.64453125,-0.48828125,293.9453125,262.20703125,0.0,0,0
1772023889.270987,1772023889.166133,232.91015625,11.71875,168.45703125,392.08984375,0.0,0,0
1772023889.27105,1772023889.1700299,5.859375,-39.0625,-281.73828125,-32.2265625,0.0,0,0
1772023889.271112,1772023889.1739266,-200.1953125,-78.61328125,-440.4296875,-394.04296875,0.0,0,0
1772023889.2711732,1772023889.1778235,-128.41796875,-61.5234375,-70.80078125,-235.83984375,0.0,0,0
1772023889.271234,1772023889.1817203,105.95703125,-20.5078125,263.671875,200.1953125,0.0,0,0
1772023889.271292,1772023889.1856172,209.9609375,18.5546875,209.9609375,380.859375,0.0,0,0
1772023889.27135,1772023889.189514,0.0,-21.97265625,-244.140625,-2.44140625,0.0,0,0
1772023889.2714062,1772023889.1934109,-223.14453125,-66.40625,-446.77734375,-385.25390625,0.0,0,0
1772023889.271465,1772023889.1973076,-186.5234375,-54.6875,-129.8828125,-301.26953125,0.0,0,0
1772023889.271523,1772023889.2012045,64.94140625,-14.16015625,263.18359375,152.83203125,0.0,0,0
1772023889.2727098,1772023889.205215,215.33203125,-3.90625,280.2734375,410.64453125,0.0,0,0
1772023889.272783,1772023889.2091117,24.4140625,-50.78125,-190.91796875,69.82421875,0.0,0,0
1772023889.272832,1772023889.2130086,-200.68359375,-74.21875,-398.92578125,-339.35546875,0.0,0,0
1772023889.272877,1772023889.2169054,-204.1015625,-57.12890625,-149.4140625,-328.125,0.0,0,0
1772023889.2729201,1772023889.2208023,33.203125,-25.87890625,232.91015625,110.3515625,0.0,0,0
1772023889.272964,1772023889.2246993,208.984375,-4.8828125,307.12890625,406.73828125,0.0,0,0
1772023889.273008,1772023889.228596,53.7109375,-19.04296875,-140.625,116.2109375,0.0,0,0
1772023889.2730508,1772023889.232493,-170.8984375,-46.38671875,-390.625,-316.40625,0.0,0,0
1772023889.2730932,1772023889.2363896,-199.70703125,-60.546875,-216.30859375,-366.69921875,0.0,0,0
1772023889.2731369,1772023889.2402866,19.53125,-34.66796875,178.7109375,57.6171875,0.0,0,0
1772023889.2731788,1772023889.2441835,215.8203125,-22.4609375,333.984375,397.94921875,0.0,0,0
1772023889.273221,1772023889.2480803,101.07421875,-40.0390625,-70.3125,175.29296875,0.0,0,0
1772023889.316085,1772023889.2520707,-154.78515625,-54.19921875,-384.27734375,-293.45703125,0.0,0,0
1772023889.316202,1772023889.2559676,-221.19140625,-57.12890625,-211.9140625,-401.85546875,0.0,0,0
1772023889.31627,1772023889.2598646,-5.37109375,-27.34375,216.30859375,-8.7890625,0.0,0,0
1772023889.316332,1772023889.2637613,191.40625,-9.765625,378.41796875,343.26171875,0.0,0,0
1772023889.316391,1772023889.2676582,127.9296875,-9.765625,23.92578125,229.4921875,0.0,0,0
1772023889.316451,1772023889.2715552,-132.32421875,-39.0625,-368.65234375,-234.86328125,0.0,0,0
1772023889.3165162,1772023889.275452,-242.67578125,-66.89453125,-309.08203125,-424.8046875,0.0,0,0
1772023889.3165781,1772023889.2793489,-30.2734375,-44.43359375,122.55859375,-42.96875,0.0,0,0
1772023889.316637,1772023889.2832458,177.24609375,-18.06640625,326.66015625,343.26171875,0.0,0,0
1772023889.3166962,1772023889.2871425,134.27734375,-7.8125,45.8984375,279.296875,0.0,0,0
1772023889.316755,1772023889.2910395,-120.1171875,-42.96875,-346.6796875,-189.94140625,0.0,0,0
1772023889.316813,1772023889.2949362,-260.25390625,-56.15234375,-331.0546875,-436.5234375,0.0,0,0
1772023889.362247,1772023889.2989182,-92.7734375,-17.08984375,114.74609375,-112.79296875,0.0,0,0
1772023889.362392,1772023889.3028152,131.8359375,4.8828125,335.44921875,289.0625,0.0,0,0
1772023889.36246,1772023889.306712,149.90234375,-9.765625,112.79296875,307.6171875,0.0,0,0
1772023889.3625212,1772023889.3106089,-94.7265625,-53.7109375,-327.1484375,-147.4609375,0.0,0,0
1772023889.362771,1772023889.3145058,-254.39453125,-78.61328125,-408.69140625,-437.01171875,0.0,0,0
1772023889.362837,1772023889.3184028,-113.76953125,-40.0390625,46.875,-150.390625,0.0,0,0
1772023889.362895,1772023889.3222995,122.55859375,1.46484375,316.40625,274.4140625,0.0,0,0
1772023889.362953,1772023889.3261964,180.17578125,0.9765625,129.39453125,347.16796875,0.0,0,0
1772023889.3630111,1772023889.3300934,-54.6875,-24.4140625,-316.89453125,-86.9140625,0.0,0,0
1772023889.3630679,1772023889.33399,-233.88671875,-38.0859375,-428.7109375,-417.96875,0.0,0,0
1772023889.363126,1772023889.337887,-126.46484375,-24.90234375,-10.7421875,-205.56640625,0.0,0,0
1772023889.363183,1772023889.341784,107.91015625,3.41796875,296.875,234.375,0.0,0,0
1772023889.408017,1772023889.3457532,199.70703125,8.7890625,208.984375,371.09375,0.0,0,0
1772023889.4081721,1772023889.3496501,-9.765625,-31.73828125,-210.9375,-40.0390625,0.0,0,0
1772023889.408236,1772023889.353547,-220.703125,-58.59375,-381.34765625,-411.62109375,0.0,0,0
1772023889.408299,1772023889.357444,-161.62109375,-41.9921875,-34.66796875,-278.3203125,0.0,0,0
1772023889.4083579,1772023889.3613408,91.30859375,-22.4609375,325.68359375,184.08203125,0.0,0,0
1772023889.408417,1772023889.3652377,206.54296875,-9.27734375,271.484375,388.18359375,0.0,0,0
1772023889.408494,1772023889.3691347,-1.46484375,-28.80859375,-213.8671875,7.32421875,0.0,0,0
1772023889.408553,1772023889.3730316,-217.28515625,-48.33984375,-425.29296875,-375.9765625,0.0,0,0
1772023889.408617,1772023889.3769283,-180.17578125,-41.9921875,-112.79296875,-307.12890625,0.0,0,0
1772023889.4086761,1772023889.3808253,61.03515625,-6.34765625,286.1328125,145.99609375,0.0,0,0
1772023889.408735,1772023889.3847222,186.5234375,16.6015625,289.55078125,396.97265625,0.0,0,0
1772023889.408793,1772023889.388619,3.41796875,-27.83203125,-185.546875,67.3828125,0.0,0,0
1772023889.466475,1772023889.3925824,-211.42578125,-57.12890625,-394.04296875,-341.796875,0.0,0,0
1772023889.46662,1772023889.3964794,-228.515625,-45.41015625,-156.73828125,-368.1640625,0.0,0,0
1772023889.4666822,1772023889.400376,0.9765625,-17.578125,254.8828125,75.68359375,0.0,0,0
1772023889.466753,1772023889.404273,188.96484375,-2.9296875,370.60546875,393.06640625,0.0,0,0
1772023889.466812,1772023889.40817,58.59375,-32.71484375,-82.03125,123.53515625,0.0,0,0
1772023889.466872,1772023889.412067,-177.734375,-44.921875,-354.98046875,-314.453125,0.0,0,0
1772023889.466932,1772023889.4159636,-230.95703125,-34.66796875,-170.8984375,-383.7890625,0.0,0,0
1772023889.4669912,1772023889.4198606,-17.578125,-17.08984375,218.75,27.83203125,0.0,0,0
1772023889.4670599,1772023889.4237576,172.8515625,1.953125,341.796875,364.2578125,0.0,0,0
1772023889.467117,1772023889.4276545,79.58984375,-22.4609375,-40.52734375,178.22265625,0.0,0,0
1772023889.467184,1772023889.4315515,-177.24609375,-59.08203125,-336.9140625,-285.15625,0.0,0,0
1772023889.4672608,1772023889.4354482,-262.20703125,-53.7109375,-229.4921875,-421.38671875,0.0,0,0
1772023889.510884,1772023889.439472,-37.109375,-9.765625,171.875,-22.4609375,0.0,0,0
1772023889.5109591,1772023889.443369,176.7578125,23.92578125,361.328125,341.30859375,0.0,0,0
1772023889.5110028,1772023889.4472659,122.55859375,0.48828125,51.7578125,245.1171875,0.0,0,0
1772023889.5110888,1772023889.4511628,-145.5078125,-39.0625,-326.171875,-228.02734375,0.0,0,0
1772023889.511152,1772023889.4550598,-268.06640625,-45.41015625,-287.59765625,-455.078125,0.0,0,0
1772023889.5112,1772023889.4589565,-75.68359375,-12.20703125,172.8515625,-102.05078125,0.0,0,0
1772023889.5112529,1772023889.4628534,119.140625,7.32421875,383.7890625,298.33984375,0.0,0,0
1772023889.511297,1772023889.4667504,93.75,-11.71875,131.8359375,264.16015625,0.0,0,0
1772023889.511339,1772023889.4706473,-151.3671875,-27.34375,-261.71875,-207.03125,0.0,0,0
1772023889.5113862,1772023889.4745443,-314.453125,-46.38671875,-316.89453125,-478.02734375,0.0,0,0
1772023889.511429,1772023889.4784412,-166.50390625,-28.3203125,90.33203125,-179.6875,0.0,0,0
1772023889.5114722,1772023889.482338,53.7109375,11.23046875,314.94140625,239.2578125,0.0,0,0
1772023889.5718331,1772023889.4863586,76.66015625,15.625,127.44140625,266.6015625,0.0,0,0
1772023889.571977,1772023889.4902556,-158.69140625,-16.6015625,-203.61328125,-195.80078125,0.0,0,0
1772023889.572045,1772023889.4941525,-341.796875,-40.52734375,-265.625,-510.25390625,0.0,0,0
1772023889.572106,1772023889.4980495,-214.84375,-24.90234375,81.54296875,-263.18359375,0.0,0,0
1772023889.572166,1772023889.5019462,21.97265625,-6.34765625,328.61328125,163.0859375,0.0,0,0
1772023889.572225,1772023889.5058432,84.47265625,14.6484375,202.63671875,281.73828125,0.0,0,0
1772023889.572284,1772023889.50974,-146.484375,4.8828125,-200.1953125,-143.06640625,0.0,0,0
1772023889.572343,1772023889.513637,-312.5,-17.08984375,-297.8515625,-481.4453125,0.0,0,0
1772023889.5724,1772023889.517534,-205.56640625,-1.46484375,60.05859375,-292.48046875,0.0,0,0
1772023889.572462,1772023889.521431,23.92578125,12.6953125,307.6171875,136.23046875,0.0,0,0
1772023889.5725088,1772023889.525328,136.23046875,3.41796875,268.06640625,326.171875,0.0,0,0
1772023889.572552,1772023889.5292249,-64.94140625,-20.99609375,-167.48046875,-55.17578125,0.0,0,0
1772023889.602082,1772023889.5332391,-255.37109375,-47.36328125,-362.79296875,-434.5703125,0.0,0,0
1772023889.602162,1772023889.537136,-187.5,-46.38671875,-2.44140625,-317.3828125,0.0,0,0
1772023889.602205,1772023889.541033,48.33984375,4.39453125,313.96484375,129.8828125,0.0,0,0
1772023889.60225,1772023889.54493,194.82421875,32.71484375,276.3671875,374.0234375,0.0,0,0
1772023889.602293,1772023889.548827,18.5546875,-23.92578125,-152.83203125,26.85546875,0.0,0,0
1772023889.602335,1772023889.552724,-201.171875,-57.6171875,-304.6875,-382.8125,0.0,0,0
1772023889.60238,1772023889.5566208,-184.08203125,-32.71484375,-6.8359375,-345.21484375,0.0,0,0
1772023889.602422,1772023889.5605178,56.640625,-6.34765625,323.2421875,117.1875,0.0,0,0
1772023889.602473,1772023889.5644147,225.5859375,0.9765625,375.0,402.83203125,0.0,0,0
1772023889.602515,1772023889.5683117,58.59375,-29.78515625,14.6484375,92.7734375,0.0,0,0
1772023889.602568,1772023889.5722086,-170.41015625,-48.828125,-170.8984375,-333.0078125,0.0,0,0
1772023889.6026292,1772023889.5761056,-187.01171875,-45.8984375,-91.30859375,-371.58203125,0.0,0,0
1772023889.647128,1772023889.5801053,49.31640625,-32.2265625,181.15234375,59.08203125,0.0,0,0
1772023889.64725,1772023889.5840023,228.515625,-17.578125,291.50390625,385.25390625,0.0,0,0
1772023889.647315,1772023889.5878992,88.8671875,-36.1328125,-136.23046875,151.85546875,0.0,0,0
1772023889.6473758,1772023889.5917962,-147.94921875,-65.91796875,-420.41015625,-276.3671875,0.0,0,0
1772023889.647437,1772023889.595693,-197.265625,-50.29296875,-283.203125,-369.62890625,0.0,0,0
1772023889.647496,1772023889.59959,22.94921875,-14.16015625,116.2109375,37.59765625,0.0,0,0
1772023889.6475542,1772023889.603487,229.00390625,15.13671875,274.90234375,404.78515625,0.0,0,0
1772023889.647614,1772023889.607384,141.11328125,-12.6953125,-133.30078125,256.34765625,0.0,0,0
1772023889.6476731,1772023889.611281,-113.76953125,-60.546875,-488.28125,-215.8203125,0.0,0,0
1772023889.647736,1772023889.6151779,-193.84765625,-71.2890625,-375.9765625,-388.671875,0.0,0,0
1772023889.647794,1772023889.6190748,0.9765625,-53.7109375,64.94140625,-7.8125,0.0,0,0
1772023889.647852,1772023889.6229718,191.40625,-24.4140625,264.6484375,356.93359375,0.0,0,0
1772023889.693428,1772023889.6269622,167.96875,-20.99609375,-49.8046875,276.85546875,0.0,0,0
1772023889.69353,1772023889.6308591,-75.1953125,-48.33984375,-431.640625,-182.12890625,0.0,0,0
1772023889.69359,1772023889.634756,-213.37890625,-79.1015625,-399.90234375,-405.76171875,0.0,0,0
1772023889.6936488,1772023889.638653,-35.64453125,-37.109375,67.87109375,-48.828125,0.0,0,0
1772023889.693706,1772023889.64255,184.5703125,10.7421875,287.59765625,340.33203125,0.0,0,0
1772023889.6937642,1772023889.646447,193.84765625,3.90625,31.25,314.94140625,0.0,0,0
1772023889.693821,1772023889.650344,-63.4765625,-45.41015625,-372.0703125,-131.8359375,0.0,0,0
1772023889.694071,1772023889.6542408,-241.69921875,-91.796875,-417.48046875,-401.3671875,0.0,0,0
1772023889.6941462,1772023889.6581378,-90.33203125,-66.89453125,32.2265625,-117.67578125,0.0,0,0
1772023889.694206,1772023889.662035,141.6015625,-13.671875,280.2734375,290.0390625,0.0,0,0
1772023889.694266,1772023889.665932,187.98828125,0.0,97.65625,340.33203125,0.0,0,0
1772023889.694323,1772023889.669829,-32.2265625,-40.52734375,-313.4765625,-101.07421875,0.0,0,0
1772023889.736226,1772023889.6738098,-226.07421875,-79.1015625,-412.59765625,-409.66796875,0.0,0,0
1772023889.736319,1772023889.6777067,-117.1875,-57.6171875,2.44140625,-169.921875,0.0,0,0
1772023889.736377,1772023889.681604,122.55859375,-18.06640625,276.85546875,250.9765625,0.0,0,0
1772023889.736436,1772023889.6855009,209.9609375,2.44140625,155.2734375,369.140625,0.0,0,0
1772023889.736494,1772023889.6893978,-8.7890625,-20.5078125,-255.37109375,-45.41015625,0.0,0,0
1772023889.7365508,1772023889.6932948,-215.33203125,-60.05859375,-411.62109375,-405.2734375,0.0,0,0
1772023889.73661,1772023889.6971917,-134.27734375,-41.9921875,-71.2890625,-255.37109375,0.0,0,0
1772023889.736661,1772023889.7010887,109.86328125,0.48828125,251.953125,193.359375,0.0,0,0
1772023889.736703,1772023889.7049859,229.4921875,-12.20703125,192.3828125,388.671875,0.0,0,0
1772023889.736744,1772023889.7088828,18.06640625,-48.33984375,-251.953125,-4.8828125,0.0,0,0
1772023889.736786,1772023889.7127798,-214.35546875,-47.8515625,-441.40625,-398.4375,0.0,0,0
1772023889.736827,1772023889.7166767,-181.640625,-25.390625,-145.01953125,-314.94140625,0.0,0,0
1772023889.7963881,1772023889.7206502,61.03515625,-13.671875,229.98046875,144.53125,0.0,0,0
1772023889.796552,1772023889.7245474,207.51953125,-21.97265625,253.90625,398.92578125,0.0,0,0
1772023889.796618,1772023889.7284443,25.390625,-35.64453125,-196.77734375,47.36328125,0.0,0,0
1772023889.796679,1772023889.7323413,-194.82421875,-46.38671875,-403.3203125,-362.3046875,0.0,0,0
1772023889.796742,1772023889.7362382,-202.63671875,-47.36328125,-161.1328125,-352.5390625,0.0,0,0
1772023889.796801,1772023889.7401352,20.5078125,-8.7890625,222.16796875,88.37890625,0.0,0,0
1772023889.79686,1772023889.7440324,192.3828125,4.39453125,300.29296875,404.296875,0.0,0,0
1772023889.796921,1772023889.7479293,45.8984375,-41.50390625,-147.4609375,123.046875,0.0,0,0
1772023889.796981,1772023889.7518263,-190.4296875,-55.17578125,-400.390625,-317.3828125,0.0,0,0
1772023889.797038,1772023889.7557232,-235.3515625,-26.3671875,-218.26171875,-368.1640625,0.0,0,0
1772023889.797097,1772023889.7596202,-21.97265625,-3.41796875,160.15625,36.1328125,0.0,0,0
1772023889.7971551,1772023889.7635174,176.26953125,-4.39453125,291.9921875,369.140625,0.0,0,0
1772023889.870903,1772023889.7676332,69.3359375,-26.3671875,-99.12109375,177.734375,0.0,0,0
1772023889.871069,1772023889.7715302,-173.828125,-63.4765625,-403.3203125,-284.66796875,0.0,0,0
1772023889.8711371,1772023889.7754273,-243.65234375,-65.91796875,-278.80859375,-414.55078125,0.0,0,0
1772023889.871202,1772023889.7793243,-45.41015625,-24.90234375,140.625,-16.6015625,0.0,0,0
1772023889.8712661,1772023889.7832212,157.71484375,2.9296875,312.5,340.8203125,0.0,0,0
1772023889.871326,1772023889.7871182,108.88671875,0.0,-38.57421875,211.9140625,0.0,0,0
1772023889.871383,1772023889.7910154,-136.23046875,-38.57421875,-371.09375,-247.55859375,0.0,0,0
1772023889.871441,1772023889.7949123,-235.3515625,-53.22265625,-294.921875,-441.40625,0.0,0,0
1772023889.8715,1772023889.7988093,-27.34375,-27.83203125,111.81640625,-70.3125,0.0,0,0
1772023889.8715572,1772023889.8027065,182.12890625,-3.41796875,322.265625,335.9375,0.0,0,0
1772023889.871615,1772023889.8066034,131.8359375,-8.7890625,38.57421875,267.578125,0.0,0,0
1772023889.871673,1772023889.8105004,-125.9765625,-43.45703125,-353.515625,-209.9609375,0.0,0,0
1772023889.8873181,1772023889.814532,-238.28125,-61.5234375,-326.66015625,-422.36328125,0.0,0,0
1772023889.8875,1772023889.818429,-80.078125,-43.45703125,90.8203125,-97.65625,0.0,0,0
1772023889.887574,1772023889.8223262,136.71875,-1.953125,307.6171875,296.875,0.0,0,0
1772023889.8876219,1772023889.8262231,168.9453125,1.953125,96.6796875,307.6171875,0.0,0,0
1772023889.8876648,1772023889.8301203,-81.54296875,-41.9921875,-311.5234375,-145.5078125,0.0,0,0
1772023889.8877099,1772023889.8340173,-256.34765625,-57.6171875,-371.09375,-427.734375,0.0,0,0
1772023889.8877661,1772023889.8379142,-110.83984375,-36.62109375,61.5234375,-152.34375,0.0,0,0
1772023889.887809,1772023889.8418114,123.046875,-20.01953125,313.96484375,259.27734375,0.0,0,0
