timestamp,lsl_timestamp,TP9,AF7,AF8,TP10,Right AUX,keypress_A,keypress_B
1771941952.698415,1771941952.6182466,-118.1640625,-291.50390625,153.80859375,-458.0078125,0.0,0,0
1771941952.6985679,1771941952.6221368,-85.9375,949.70703125,635.7421875,908.69140625,0.0,0,0
1771941952.6985989,1771941952.6260269,-106.93359375,-821.77734375,602.05078125,977.5390625,0.0,0,0
1771941952.6986282,1771941952.6299171,-168.9453125,-206.0546875,-90.33203125,-504.8828125,0.0,0,0
1771941952.698653,1771941952.6338074,-163.57421875,-268.5546875,-15.13671875,-241.69921875,0.0,0,0
1771941952.698682,1771941952.6376977,-125.48828125,986.81640625,414.0625,687.01171875,0.0,0,0
1771941952.698706,1771941952.6415877,-176.26953125,-561.5234375,-294.43359375,-695.80078125,0.0,0,0
1771941952.698729,1771941952.645478,-180.6640625,-1000.0,-334.47265625,-1000.0,0.0,0,0
1771941952.698752,1771941952.6493683,-133.7890625,18.06640625,271.97265625,-281.73828125,0.0,0,0
1771941952.698776,1771941952.6532586,-111.328125,-893.5546875,706.0546875,-988.28125,0.0,0,0
1771941952.6987991,1771941952.6571486,-149.4140625,816.40625,384.27734375,666.9921875,0.0,0,0
1771941952.698823,1771941952.6610389,-214.84375,-543.9453125,-258.7890625,-671.38671875,0.0,0,0
1771941952.774004,1771941952.6653032,-210.9375,-1000.0,-321.2890625,-1000.0,0.0,0,0
1771941952.77408,1771941952.6691935,-146.484375,-387.20703125,168.45703125,-601.07421875,0.0,0,0
1771941952.774104,1771941952.6730838,-91.30859375,982.421875,714.35546875,858.3984375,0.0,0,0
1771941952.774127,1771941952.676974,-103.515625,866.2109375,493.65234375,708.0078125,0.0,0,0
1771941952.774148,1771941952.6808643,-66.89453125,-566.40625,-219.23828125,-692.3828125,0.0,0,0
1771941952.7741692,1771941952.6847546,72.265625,-1000.0,-375.0,-1000.0,0.0,0,0
1771941952.774188,1771941952.688645,133.7890625,-630.859375,43.45703125,-746.58203125,0.0,0,0
1771941952.774208,1771941952.6925352,158.203125,815.91796875,609.375,731.4453125,0.0,0,0
1771941952.7742279,1771941952.6964254,88.37890625,900.87890625,491.69921875,835.9375,0.0,0,0
1771941952.774249,1771941952.7003157,23.4375,-481.4453125,-142.08984375,-570.80078125,0.0,0,0
1771941952.774268,1771941952.704206,16.11328125,-1000.0,-407.71484375,-1000.0,0.0,0,0
1771941952.774287,1771941952.7080963,63.4765625,-769.04296875,4.39453125,-825.68359375,0.0,0,0
1771941952.803691,1771941952.7122617,68.359375,658.69140625,663.57421875,612.79296875,0.0,0,0
1771941952.803802,1771941952.716152,25.390625,-887.20703125,649.4140625,-926.26953125,0.0,0,0
1771941952.8038342,1771941952.7200422,-8.7890625,-274.4140625,11.23046875,-321.77734375,0.0,0,0
1771941952.803863,1771941952.7239325,-9.765625,-1000.0,-374.0234375,-1000.0,0.0,0,0
1771941952.80389,1771941952.7278228,-17.08984375,-835.44921875,-12.20703125,-841.30859375,0.0,0,0
1771941952.803921,1771941952.731713,-58.59375,521.97265625,666.50390625,533.69140625,0.0,0,0
1771941952.803949,1771941952.7356036,-88.37890625,-819.3359375,707.51953125,-846.6796875,0.0,0,0
1771941952.8039832,1771941952.7394938,-176.7578125,37.109375,134.27734375,26.85546875,0.0,0,0
1771941952.8040462,1771941952.7433841,-235.83984375,-1000.0,-311.5234375,-1000.0,0.0,0,0
1771941952.804075,1771941952.7472744,-207.51953125,-851.07421875,-13.671875,-894.53125,0.0,0,0
1771941952.804103,1771941952.7511647,-151.3671875,516.11328125,649.4140625,487.79296875,0.0,0,0
1771941952.804131,1771941952.7550552,-139.16015625,-808.59375,802.24609375,-830.56640625,0.0,0,0
1771941952.848903,1771941952.759204,-65.4296875,452.1484375,512.20703125,322.75390625,0.0,0,0
1771941952.8490748,1771941952.7630944,84.9609375,-965.8203125,13.18359375,-951.66015625,0.0,0,0
1771941952.8491142,1771941952.7669847,76.66015625,-928.22265625,138.18359375,-987.3046875,0.0,0,0
1771941952.84915,1771941952.7708752,91.796875,519.04296875,781.73828125,407.71484375,0.0,0,0
1771941952.8492491,1771941952.7747655,115.72265625,-829.58984375,967.7734375,-834.9609375,0.0,0,0
1771941952.8492858,1771941952.7786558,51.7578125,637.20703125,527.34375,471.19140625,0.0,0,0
1771941952.849321,1771941952.7825463,5.859375,-803.7109375,-142.578125,-826.66015625,0.0,0,0
1771941952.849364,1771941952.7864366,53.7109375,-1000.0,-47.8515625,-1000.0,0.0,0,0
1771941952.849396,1771941952.7903268,125.0,352.5390625,583.0078125,200.68359375,0.0,0,0
1771941952.84943,1771941952.7942173,155.76171875,-842.28515625,869.62890625,-855.46875,0.0,0,0
1771941952.849477,1771941952.7981076,110.3515625,755.37109375,492.67578125,684.08203125,0.0,0,0
1771941952.8495202,1771941952.8019981,17.08984375,-651.3671875,-145.99609375,-671.875,0.0,0,0
1771941952.8954298,1771941952.806134,-15.625,-1000.0,-121.58203125,-1000.0,0.0,0,0
1771941952.895703,1771941952.8100245,28.3203125,196.77734375,497.0703125,10.25390625,0.0,0,0
1771941952.895784,1771941952.8139148,43.45703125,-858.3984375,911.1328125,-904.78515625,0.0,0,0
1771941952.8958468,1771941952.8178053,-8.7890625,805.6640625,593.75,828.125,0.0,0,0
1771941952.895942,1771941952.8216956,-38.57421875,-545.41015625,-104.98046875,-565.4296875,0.0,0,0
1771941952.8960042,1771941952.825586,-52.24609375,-1000.0,-189.453125,-1000.0,0.0,0,0
1771941952.89606,1771941952.8294764,-11.71875,-164.0625,364.2578125,-197.75390625,0.0,0,0
1771941952.896118,1771941952.8333669,81.0546875,-939.94140625,875.48828125,-983.3984375,0.0,0,0
1771941952.8961768,1771941952.8372571,50.29296875,834.47265625,577.63671875,871.09375,0.0,0,0
1771941952.896235,1771941952.8411477,-30.76171875,-550.29296875,-175.78125,-515.625,0.0,0,0
1771941952.8962922,1771941952.845038,-112.79296875,-1000.0,-333.0078125,-1000.0,0.0,0,0
1771941952.896348,1771941952.8489285,-184.5703125,-520.01953125,155.76171875,-586.9140625,0.0,0,0
1771941952.939599,1771941952.8530548,-207.03125,909.1796875,740.72265625,842.28515625,0.0,0,0
1771941952.939758,1771941952.856945,-238.76953125,934.5703125,544.921875,958.0078125,0.0,0,0
1771941952.939805,1771941952.8608356,-294.921875,-509.27734375,-201.66015625,-494.140625,0.0,0,0
1771941952.939851,1771941952.864726,-350.5859375,-1000.0,-425.78125,-1000.0,0.0,0,0
1771941952.939893,1771941952.8686163,-309.08203125,-703.125,34.66796875,-765.625,0.0,0,0
1771941952.9399428,1771941952.8725069,-204.58984375,736.328125,693.84765625,659.1796875,0.0,0,0
1771941952.939992,1771941952.8763974,-208.0078125,-937.98828125,601.5625,-918.9453125,0.0,0,0
1771941952.940036,1771941952.880288,-286.62109375,-364.74609375,-143.06640625,-324.21875,0.0,0,0
1771941952.9400792,1771941952.8841782,-344.23828125,-1000.0,-513.671875,-1000.0,0.0,0,0
1771941952.940133,1771941952.8880687,-302.734375,-823.2421875,-95.703125,-842.28515625,0.0,0,0
1771941952.940215,1771941952.8919592,-226.5625,550.78125,625.0,557.6171875,0.0,0,0
1771941952.940248,1771941952.8958495,-205.56640625,-838.37890625,656.25,-875.48828125,0.0,0,0
1771941952.984203,1771941952.8999653,-262.6953125,-101.5625,-20.5078125,-164.0625,0.0,0,0
1771941952.984355,1771941952.9038558,-305.6640625,-1000.0,-530.2734375,-1000.0,0.0,0,0
1771941952.984403,1771941952.9077463,-248.53515625,-840.8203125,-191.89453125,-854.98046875,0.0,0,0
1771941952.984449,1771941952.9116368,-189.453125,515.13671875,558.10546875,506.8359375,0.0,0,0
1771941952.9845061,1771941952.915527,-183.10546875,-807.12890625,668.45703125,-824.70703125,0.0,0,0
1771941952.984551,1771941952.9194176,-234.86328125,287.109375,52.734375,247.0703125,0.0,0,0
1771941952.9846132,1771941952.9233081,-289.0625,-1000.0,-570.80078125,-1000.0,0.0,0,0
1771941952.984653,1771941952.9271986,-254.39453125,-883.7890625,-283.69140625,-927.24609375,0.0,0,0
1771941952.9846961,1771941952.9310892,-153.3203125,531.25,483.88671875,467.7734375,0.0,0,0
1771941952.984739,1771941952.9349797,-76.171875,-818.84765625,707.03125,-820.80078125,0.0,0,0
1771941952.984781,1771941952.9388702,-108.88671875,574.70703125,199.21875,543.45703125,0.0,0,0
1771941952.98482,1771941952.9427605,-194.3359375,-877.9296875,-500.0,-853.515625,0.0,0,0
1771941953.072808,1771941952.9468622,-168.9453125,-1000.0,-325.1953125,-1000.0,0.0,0,0
1771941953.073013,1771941952.9507527,-80.56640625,437.01171875,436.03515625,367.1875,0.0,0,0
1771941953.073079,1771941952.9546432,-38.57421875,-835.44921875,746.58203125,-835.9375,0.0,0,0
1771941953.073545,1771941952.9585338,-111.81640625,703.61328125,274.90234375,696.2890625,0.0,0,0
1771941953.0736,1771941952.9624243,-229.00390625,-717.28515625,-487.3046875,-691.40625,0.0,0,0
1771941953.0736551,1771941952.9663148,-197.75390625,-1000.0,-382.32421875,-1000.0,0.0,0,0
1771941953.073698,1771941952.9702053,-105.95703125,257.32421875,337.890625,140.625,0.0,0,0
1771941953.073741,1771941952.9740958,-45.41015625,-855.95703125,737.3046875,-871.09375,0.0,0,0
1771941953.073785,1771941952.9779863,-56.15234375,811.5234375,342.7734375,789.0625,0.0,0,0
1771941953.073828,1771941952.9818769,-148.4375,-558.10546875,-441.89453125,-579.1015625,0.0,0,0
1771941953.0738711,1771941952.9857674,-157.71484375,-1000.0,-491.69921875,-1000.0,0.0,0,0
1771941953.0739121,1771941952.9896579,-77.63671875,23.92578125,186.5234375,-187.98828125,0.0,0,0
1771941953.090379,1771941952.9938414,4.39453125,-890.13671875,725.5859375,-956.54296875,0.0,0,0
1771941953.090509,1771941952.9977322,-10.7421875,824.21875,390.13671875,848.6328125,0.0,0,0
1771941953.090549,1771941953.0016227,-99.12109375,-553.22265625,-371.09375,-569.3359375,0.0,0,0
1771941953.090584,1771941953.0055132,-78.125,-1000.0,-465.33203125,-1000.0,0.0,0,0
1771941953.0906172,1771941953.0094037,-8.30078125,-186.03515625,205.56640625,-305.6640625,0.0,0,0
1771941953.090653,1771941953.0132942,49.8046875,-938.96484375,785.64453125,979.98046875,0.0,0,0
1771941953.090697,1771941953.017185,62.5,832.03125,481.4453125,894.04296875,0.0,0,0
1771941953.09073,1771941953.0210755,5.37109375,-549.31640625,-271.97265625,-497.0703125,0.0,0,0
1771941953.090793,1771941953.024966,-29.296875,-1000.0,-485.83984375,-1000.0,0.0,0,0
1771941953.090837,1771941953.0288565,12.20703125,-636.23046875,16.11328125,-686.5234375,0.0,0,0
1771941953.09088,1771941953.032747,54.6875,812.01171875,711.9140625,750.9765625,0.0,0,0
1771941953.090928,1771941953.0366378,27.83203125,-985.83984375,569.3359375,-956.54296875,0.0,0,0
1771941953.1330361,1771941953.040716,-45.8984375,-422.8515625,-199.70703125,-380.859375,0.0,0,0
1771941953.133188,1771941953.0446064,-100.5859375,-1000.0,-480.46875,-1000.0,0.0,0,0
1771941953.133238,1771941953.0484972,-52.734375,-754.8828125,-2.9296875,-789.55078125,0.0,0,0
1771941953.133282,1771941953.0523877,23.4375,652.34375,741.69921875,598.14453125,0.0,0,0
1771941953.133327,1771941953.0562782,-43.9453125,-874.51171875,725.5859375,-858.3984375,0.0,0,0
1771941953.1333702,1771941953.060169,-186.5234375,-225.09765625,-13.18359375,-119.62890625,0.0,0,0
1771941953.1334138,1771941953.0640595,-287.59765625,-1000.0,-514.6484375,-1000.0,0.0,0,0
1771941953.133465,1771941953.06795,-270.5078125,-835.44921875,-133.7890625,-845.21484375,0.0,0,0
1771941953.1335192,1771941953.0718408,-173.828125,519.04296875,621.09375,520.5078125,0.0,0,0
1771941953.13358,1771941953.0757313,-133.30078125,-813.96484375,707.51953125,-815.4296875,0.0,0,0
1771941953.133642,1771941953.0796218,-205.078125,107.91015625,58.59375,228.02734375,0.0,0,0
1771941953.133703,1771941953.0835125,-272.94921875,-1000.0,-534.66796875,-1000.0,0.0,0,0
1771941953.180087,1771941953.0876656,-221.6796875,-858.88671875,-188.4765625,-886.71875,0.0,0,0
1771941953.1802251,1771941953.091556,-132.32421875,519.04296875,569.82421875,516.6015625,0.0,0,0
1771941953.1802912,1771941953.0954468,-91.30859375,-810.05859375,703.125,-820.80078125,0.0,0,0
1771941953.180352,1771941953.0993373,-136.71875,501.953125,154.296875,555.6640625,0.0,0,0
1771941953.1804109,1771941953.103228,-192.87109375,-937.01171875,-478.515625,-874.51171875,0.0,0,0
1771941953.180473,1771941953.1071186,-168.45703125,-955.56640625,-237.3046875,-1000.0,0.0,0,0
1771941953.180531,1771941953.1110094,-99.12109375,495.60546875,469.23828125,434.08203125,0.0,0,0
1771941953.1805902,1771941953.1148999,-61.03515625,-831.54296875,666.015625,-833.49609375,0.0,0,0
1771941953.180663,1771941953.1187906,-145.99609375,661.1328125,157.2265625,669.921875,0.0,0,0
1771941953.1807308,1771941953.1226811,-198.2421875,-777.34375,-543.45703125,-737.79296875,0.0,0,0
1771941953.1808078,1771941953.126572,-159.66796875,-1000.0,-416.015625,-1000.0,0.0,0,0
1771941953.180877,1771941953.1304624,-91.796875,335.9375,297.8515625,241.2109375,0.0,0,0
1771941953.237638,1771941953.1346068,-66.89453125,-849.12109375,639.16015625,-855.95703125,0.0,0,0
1771941953.2379048,1771941953.1384976,-126.953125,780.76171875,215.8203125,774.90234375,0.0,0,0
1771941953.237974,1771941953.142388,-193.359375,-596.19140625,-518.06640625,-600.09765625,0.0,0,0
1771941953.238037,1771941953.1462789,-155.76171875,-1000.0,-472.65625,-1000.0,0.0,0,0
1771941953.238094,1771941953.1501696,-103.515625,66.89453125,192.87109375,-45.41015625,0.0,0,0
1771941953.238156,1771941953.1540601,-64.453125,-881.8359375,687.5,-916.015625,0.0,0,0
1771941953.238226,1771941953.1579509,-76.171875,815.4296875,321.2890625,823.73046875,0.0,0,0
1771941953.238295,1771941953.1618416,-135.25390625,-547.36328125,-440.4296875,-560.05859375,0.0,0,0
1771941953.238373,1771941953.1657321,-137.20703125,-1000.0,-497.55859375,-1000.0,0.0,0,0
1771941953.2384498,1771941953.169623,-73.73046875,-263.18359375,103.02734375,-354.00390625,0.0,0,0
1771941953.238531,1771941953.1735137,13.671875,-972.16796875,643.06640625,969.23828125,0.0,0,0
1771941953.238608,1771941953.1774042,-4.39453125,848.14453125,386.71875,894.04296875,0.0,0,0
1771941953.2692459,1771941953.1815362,-81.54296875,-556.15234375,-299.31640625,-521.97265625,0.0,0,0
1771941953.2694001,1771941953.1854267,-111.81640625,-1000.0,-427.734375,-1000.0,0.0,0,0
1771941953.269444,1771941953.1893175,-57.6171875,-554.19921875,117.1875,-608.88671875,0.0,0,0
1771941953.269488,1771941953.1932082,56.640625,875.9765625,760.7421875,810.546875,0.0,0,0
1771941953.2695308,1771941953.197099,30.76171875,980.95703125,573.73046875,-991.69921875,0.0,0,0
1771941953.2695749,1771941953.2009897,-98.14453125,-444.3359375,-129.8828125,-411.62109375,0.0,0,0
1771941953.269619,1771941953.2048805,-113.28125,-1000.0,-409.1796875,-1000.0,0.0,0,0
1771941953.26966,1771941953.2087712,-53.7109375,-740.72265625,-21.484375,-752.9296875,0.0,0,0
1771941953.2697332,1771941953.2126617,28.80859375,694.82421875,651.85546875,651.3671875,0.0,0,0
1771941953.269797,1771941953.2165525,43.9453125,-917.96875,636.23046875,-892.578125,0.0,0,0
1771941953.269839,1771941953.2204432,-13.671875,-343.75,-41.9921875,-210.9375,0.0,0,0
1771941953.26988,1771941953.224334,-38.57421875,-1000.0,-426.26953125,-1000.0,0.0,0,0
1771941953.315209,1771941953.2284555,3.41796875,-831.0546875,-53.7109375,-829.58984375,0.0,0,0
1771941953.315414,1771941953.2323463,60.05859375,517.578125,624.0234375,546.875,0.0,0,0
1771941953.3154812,1771941953.236237,69.82421875,-818.359375,685.05859375,-835.44921875,0.0,0,0
1771941953.315545,1771941953.2401278,86.9140625,47.36328125,79.1015625,85.44921875,0.0,0,0
1771941953.315606,1771941953.2440186,152.83203125,-1000.0,-411.62109375,-1000.0,0.0,0,0
1771941953.3156638,1771941953.2479093,265.625,-857.91015625,-103.515625,-878.41796875,0.0,0,0
1771941953.3157241,1771941953.2518,361.81640625,522.4609375,552.734375,516.6015625,0.0,0,0
1771941953.3157918,1771941953.2556908,336.9140625,-808.59375,661.1328125,-823.2421875,0.0,0,0
1771941953.315866,1771941953.2595816,247.0703125,338.37890625,154.296875,364.74609375,0.0,0,0
1771941953.3159292,1771941953.2634723,174.8046875,-1000.0,-389.16015625,-953.61328125,0.0,0,0
1771941953.316007,1771941953.267363,166.015625,-891.6015625,-175.29296875,-968.75,0.0,0,0
1771941953.316083,1771941953.2712538,199.21875,536.1328125,486.81640625,431.640625,0.0,0,0
1771941953.3893251,1771941953.2755337,210.9375,-824.70703125,693.84765625,-826.66015625,0.0,0,0
1771941953.38952,1771941953.2794244,175.78125,608.3984375,274.4140625,592.7734375,0.0,0,0
1771941953.3895712,1771941953.2833152,84.47265625,-835.9375,-314.453125,-792.96875,0.0,0,0
1771941953.389616,1771941953.2872062,61.03515625,-1000.0,-172.8515625,-1000.0,0.0,0,0
1771941953.389657,1771941953.291097,152.83203125,379.8828125,437.98828125,261.23046875,0.0,0,0
1771941953.3897002,1771941953.2949877,202.63671875,-839.35546875,742.67578125,-849.609375,0.0,0,0
1771941953.389743,1771941953.2988784,167.96875,738.28125,368.65234375,688.4765625,0.0,0,0
1771941953.389994,1771941953.3027694,138.18359375,-675.78125,-271.484375,-666.50390625,0.0,0,0
1771941953.390042,1771941953.3066602,136.23046875,-1000.0,-224.12109375,-1000.0,0.0,0,0
1771941953.390083,1771941953.310551,168.45703125,227.5390625,380.859375,-10.7421875,0.0,0,0
1771941953.390126,1771941953.314442,211.42578125,-854.4921875,742.67578125,-902.34375,0.0,0,0
1771941953.390168,1771941953.3183327,218.75,803.22265625,417.48046875,768.5546875,0.0,0,0
1771941953.404511,1771941953.3224337,189.94140625,-544.921875,-228.515625,-596.6796875,0.0,0,0
1771941953.40458,1771941953.3263245,232.91015625,-1000.0,-296.875,-1000.0,0.0,0,0
1771941953.4046159,1771941953.3302155,318.84765625,-146.484375,240.72265625,-369.62890625,0.0,0,0
1771941953.4046562,1771941953.3341062,327.63671875,-935.05859375,713.37890625,978.02734375,0.0,0,0
1771941953.404692,1771941953.337997,338.37890625,832.03125,463.8671875,823.73046875,0.0,0,0
1771941953.404727,1771941953.341888,299.8046875,-548.828125,-177.734375,-599.12109375,0.0,0,0
1771941953.404761,1771941953.3457787,221.19140625,-1000.0,-323.73046875,-1000.0,0.0,0,0
1771941953.4047942,1771941953.3496697,219.23828125,-519.04296875,74.70703125,-643.06640625,0.0,0,0
1771941953.4048278,1771941953.3535604,202.1484375,913.57421875,599.12109375,815.91796875,0.0,0,0
1771941953.404862,1771941953.3574512,112.79296875,923.828125,466.30859375,937.98828125,0.0,0,0
1771941953.404896,1771941953.3613422,17.08984375,-524.90234375,-156.25,-536.1328125,0.0,0,0
1771941953.404929,1771941953.365233,-3.90625,-1000.0,-386.71875,-1000.0,0.0,0,0
1771941953.4499562,1771941953.3693163,59.5703125,-694.82421875,-3.41796875,-774.4140625,0.0,0,0
1771941953.450075,1771941953.373207,112.3046875,745.1171875,578.61328125,666.9921875,0.0,0,0
1771941953.450154,1771941953.377098,85.44921875,-943.359375,541.9921875,-951.66015625,0.0,0,0
1771941953.450216,1771941953.3809888,43.45703125,-369.140625,-44.921875,-392.578125,0.0,0,0
1771941953.4502761,1771941953.3848798,36.1328125,-1000.0,-363.76953125,-1000.0,0.0,0,0
1771941953.4503329,1771941953.3887708,40.0390625,-804.19921875,-25.87890625,-833.49609375,0.0,0,0
1771941953.450399,1771941953.3926616,108.88671875,583.0078125,545.41015625,562.5,0.0,0,0
1771941953.450458,1771941953.3965526,128.41796875,-848.14453125,577.63671875,-875.48828125,0.0,0,0
1771941953.450523,1771941953.4004433,61.03515625,-140.625,34.66796875,-154.78515625,0.0,0,0
1771941953.450598,1771941953.4043343,20.5078125,-1000.0,-350.5859375,-1000.0,0.0,0,0
1771941953.450659,1771941953.408225,57.12890625,-841.796875,-60.05859375,-868.65234375,0.0,0,0
1771941953.450735,1771941953.412116,139.6484375,520.01953125,529.78515625,514.6484375,0.0,0,0
1771941953.507833,1771941953.4161906,167.48046875,-811.5234375,602.05078125,-848.14453125,0.0,0,0
1771941953.508037,1771941953.4200816,129.39453125,171.38671875,99.609375,110.3515625,0.0,0,0
1771941953.5081038,1771941953.4239724,47.8515625,-1000.0,-369.140625,-1000.0,0.0,0,0
1771941953.508168,1771941953.4278634,70.80078125,-866.69921875,-128.90625,-941.89453125,0.0,0,0
1771941953.50823,1771941953.431754,138.18359375,522.94921875,455.078125,429.6875,0.0,0,0
1771941953.508291,1771941953.435645,134.765625,-813.96484375,588.8671875,-833.984375,0.0,0,0
1771941953.508349,1771941953.439536,70.3125,548.33984375,133.30078125,377.44140625,0.0,0,0
1771941953.508407,1771941953.4434268,21.484375,-894.04296875,-392.08984375,-895.99609375,0.0,0,0
1771941953.508472,1771941953.4473178,51.7578125,-1000.0,-201.171875,-1000.0,0.0,0,0
1771941953.508534,1771941953.4512088,95.21484375,436.03515625,393.06640625,296.38671875,0.0,0,0
1771941953.5085921,1771941953.4550996,133.7890625,-834.47265625,604.00390625,-843.75,0.0,0,0
1771941953.50865,1771941953.4589906,62.5,702.1484375,248.53515625,607.421875,0.0,0,0
1771941953.5543418,1771941953.46314,-36.62109375,-721.6796875,-304.6875,-727.5390625,0.0,0,0
1771941953.5545359,1771941953.467031,-5.37109375,-1000.0,-277.34375,-1000.0,0.0,0,0
1771941953.55458,1771941953.470922,71.2890625,270.5078125,260.25390625,77.1484375,0.0,0,0
1771941953.554626,1771941953.474813,143.5546875,-853.515625,602.05078125,-883.7890625,0.0,0,0
1771941953.554671,1771941953.4787037,124.0234375,801.7578125,332.03125,760.7421875,0.0,0,0
1771941953.554715,1771941953.4825947,42.48046875,-567.3828125,-252.44140625,-611.81640625,0.0,0,0
1771941953.5547578,1771941953.4864857,13.18359375,-1000.0,-319.3359375,-1000.0,0.0,0,0
1771941953.5548,1771941953.4903767,49.31640625,14.6484375,182.6171875,-187.98828125,0.0,0,0
1771941953.554843,1771941953.4942677,102.05078125,-893.06640625,618.1640625,-963.8671875,0.0,0,0
1771941953.5548868,1771941953.4981587,41.9921875,817.87109375,395.99609375,834.9609375,0.0,0,0
1771941953.554931,1771941953.5020494,-38.0859375,-545.41015625,-206.54296875,-563.96484375,0.0,0,0
1771941953.554985,1771941953.5059404,-8.30078125,-1000.0,-327.1484375,-1000.0,0.0,0,0
1771941953.600131,1771941953.5100782,-10.25390625,-348.14453125,93.26171875,-527.83203125,0.0,0,0
1771941953.600321,1771941953.5139692,15.625,989.2578125,547.8515625,878.90625,0.0,0,0
1771941953.600369,1771941953.5178602,24.90234375,884.27734375,384.765625,930.17578125,0.0,0,0
1771941953.600425,1771941953.5217512,-44.43359375,-525.390625,-189.453125,-514.16015625,0.0,0,0
1771941953.6004689,1771941953.5256422,-44.921875,-1000.0,-370.1171875,-1000.0,0.0,0,0
1771941953.60051,1771941953.5295331,-8.30078125,-622.55859375,3.41796875,-699.21875,0.0,0,0
1771941953.600555,1771941953.5334241,23.92578125,828.125,485.3515625,731.93359375,0.0,0,0
1771941953.600606,1771941953.5373151,22.94921875,-999.0234375,398.92578125,-960.9375,0.0,0,0
1771941953.600659,1771941953.5412061,-30.2734375,-440.4296875,-130.37109375,-377.9296875,0.0,0,0
1771941953.6007118,1771941953.545097,-36.1328125,-1000.0,-383.7890625,-1000.0,0.0,0,0
1771941953.600752,1771941953.548988,-0.9765625,-765.13671875,-65.4296875,-802.734375,0.0,0,0
1771941953.600804,1771941953.552879,41.50390625,649.4140625,467.28515625,599.12109375,0.0,0,0
1771941953.673873,1771941953.5571735,28.3203125,-883.30078125,471.19140625,-879.8828125,0.0,0,0
1771941953.674019,1771941953.5610645,-33.203125,-267.08984375,-43.45703125,-165.52734375,0.0,0,0
1771941953.674057,1771941953.5649557,-66.89453125,-1000.0,-379.8828125,-1000.0,0.0,0,0
1771941953.67409,1771941953.5688467,-54.19921875,-834.9609375,-112.3046875,-847.16796875,0.0,0,0
1771941953.674125,1771941953.5727377,7.8125,520.5078125,440.91796875,518.5546875,0.0,0,0
1771941953.6741602,1771941953.5766287,45.8984375,-817.3828125,537.109375,-823.73046875,0.0,0,0
1771941953.6741939,1771941953.58052,1.46484375,58.59375,68.84765625,223.6328125,0.0,0,0
1771941953.674227,1771941953.584411,-37.59765625,-1000.0,-358.88671875,-1000.0,0.0,0,0
1771941953.674259,1771941953.588302,-2.9296875,-853.515625,-124.51171875,-899.90234375,0.0,0,0
1771941953.674293,1771941953.592193,39.0625,516.6015625,428.7109375,503.90625,0.0,0,0
1771941953.674325,1771941953.596084,59.08203125,-809.08203125,545.41015625,-824.21875,0.0,0,0
1771941953.6743581,1771941953.599975,21.97265625,471.6796875,157.71484375,528.80859375,0.0,0,0
1771941953.6887438,1771941953.6040928,-41.50390625,-955.078125,-325.68359375,-879.8828125,0.0,0,0
1771941953.688815,1771941953.6079838,-19.04296875,-937.5,-183.10546875,-988.76953125,0.0,0,0
1771941953.688843,1771941953.6118748,52.734375,512.6953125,391.6015625,448.73046875,0.0,0,0
1771941953.688867,1771941953.615766,79.1015625,-831.54296875,610.3515625,-841.30859375,0.0,0,0
1771941953.688891,1771941953.619657,22.4609375,650.390625,264.6484375,691.40625,0.0,0,0
1771941953.6889138,1771941953.6235483,-15.13671875,-789.55078125,-242.1875,-724.609375,0.0,0,0
1771941953.688938,1771941953.6274393,28.80859375,-1000.0,-181.15234375,-1000.0,0.0,0,0
1771941953.68896,1771941953.6313303,104.98046875,345.21484375,344.23828125,280.2734375,0.0,0,0
1771941953.6889842,1771941953.6352215,145.5078125,-848.14453125,650.390625,-866.2109375,0.0,0,0
1771941953.689007,1771941953.6391125,133.7890625,778.80859375,350.09765625,791.50390625,0.0,0,0
1771941953.68903,1771941953.6430037,62.5,-615.234375,-216.30859375,-593.75,0.0,0,0
1771941953.689136,1771941953.6468947,24.90234375,-1000.0,-221.19140625,-1000.0,0.0,0,0
1771941953.734106,1771941953.6509948,85.44921875,156.25,240.72265625,-3.41796875,0.0,0,0
1771941953.734159,1771941953.654886,142.08984375,-865.234375,593.75,-924.31640625,0.0,0,0
1771941953.734176,1771941953.658777,128.41796875,809.08203125,342.7734375,842.28515625,0.0,0,0
1771941953.73419,1771941953.6626682,61.03515625,-546.38671875,-249.0234375,-555.6640625,0.0,0,0
1771941953.7342038,1771941953.6665592,61.03515625,-1000.0,-340.8203125,-1000.0,0.0,0,0
1771941953.734218,1771941953.6704504,114.2578125,-189.453125,128.90625,-212.40234375,0.0,0,0
1771941953.734232,1771941953.6743417,190.4296875,-948.2421875,585.44921875,990.234375,0.0,0,0
1771941953.734267,1771941953.6782327,205.56640625,837.890625,387.6953125,908.203125,0.0,0,0
1771941953.734283,1771941953.682124,137.6953125,-551.26953125,-203.61328125,-481.4453125,0.0,0,0
1771941953.734297,1771941953.686015,91.30859375,-1000.0,-349.12109375,-1000.0,0.0,0,0
1771941953.73431,1771941953.6899061,120.60546875,-536.62109375,51.7578125,-446.2890625,0.0,0,0
1771941953.734324,1771941953.693797,187.5,899.90234375,563.4765625,852.5390625,0.0,0,0
1771941953.778303,1771941953.697885,163.0859375,942.87109375,459.47265625,-984.375,0.0,0,0
1771941953.7783492,1771941953.7017763,88.8671875,-500.9765625,-108.88671875,-344.23828125,0.0,0,0
1771941953.7783701,1771941953.7056675,76.171875,-1000.0,-334.9609375,-1000.0,0.0,0,0
1771941953.778389,1771941953.7095587,98.6328125,-685.05859375,5.859375,-530.76171875,0.0,0,0
1771941953.7784069,1771941953.7134497,159.1796875,744.62890625,526.3671875,730.46875,0.0,0,0
1771941953.778425,1771941953.717341,168.9453125,-927.24609375,501.46484375,-890.625,0.0,0,0
1771941953.778442,1771941953.7212322,111.81640625,-329.1015625,-47.36328125,-55.17578125,0.0,0,0
1771941953.7784588,1771941953.7251232,93.26171875,-1000.0,-368.65234375,-1000.0,0.0,0,0
1771941953.778476,1771941953.7290144,135.7421875,-823.2421875,-78.125,-574.70703125,0.0,0,0
1771941953.778493,1771941953.7329056,187.5,544.921875,471.6796875,666.9921875,0.0,0,0
1771941953.77851,1771941953.7367966,170.8984375,-831.0546875,529.296875,-860.3515625,0.0,0,0
1771941953.778527,1771941953.7406878,109.375,-49.31640625,24.90234375,265.13671875,0.0,0,0
1771941953.823293,1771941953.7447634,76.66015625,-1000.0,-390.625,-1000.0,0.0,0,0
1771941953.8233259,1771941953.7486546,86.42578125,-846.19140625,-153.3203125,-704.58984375,0.0,0,0
1771941953.823349,1771941953.7525458,125.48828125,516.6015625,412.59765625,633.7890625,0.0,0,0
1771941953.82337,1771941953.756437,128.41796875,-807.12890625,513.671875,-856.93359375,0.0,0,0
1771941953.82339,1771941953.760328,103.02734375,314.94140625,59.08203125,546.875,0.0,0,0
1771941953.8234088,1771941953.7642193,50.29296875,-1000.0,-395.01953125,-899.4140625,0.0,0,0
1771941953.823429,1771941953.7681105,65.4296875,-887.6953125,-219.23828125,-833.49609375,0.0,0,0
1771941953.8234491,1771941953.7720017,134.765625,534.1796875,347.16796875,596.6796875,0.0,0,0
1771941953.8234692,1771941953.775893,149.4140625,-824.21875,557.6171875,-867.67578125,0.0,0,0
1771941953.823489,1771941953.7797842,116.2109375,604.00390625,186.03515625,717.7734375,0.0,0,0
1771941953.823509,1771941953.7836752,0.0,-852.05078125,-365.72265625,-756.34765625,0.0,0,0
1771941953.823529,1771941953.7875664,-6.8359375,-1000.0,-262.20703125,-952.1484375,0.0,0,0
1771941953.8833568,1771941953.7916324,70.3125,428.22265625,296.38671875,503.41796875,0.0,0,0
1771941953.883423,1771941953.7955236,80.56640625,-844.23828125,539.55078125,-877.9296875,0.0,0,0
1771941953.883453,1771941953.7994149,68.359375,743.65234375,248.046875,804.19921875,0.0,0,0
1771941953.8834822,1771941953.803306,33.69140625,-685.05859375,-282.2265625,-639.6484375,0.0,0,0
1771941953.883512,1771941953.8071973,38.57421875,-1000.0,-270.01953125,-1000.0,0.0,0,0
1771941953.883539,1771941953.8110886,90.8203125,299.31640625,259.27734375,372.55859375,0.0,0,0
1771941953.883567,1771941953.8149798,110.3515625,-854.98046875,580.078125,-890.625,0.0,0,0
1771941953.883598,1771941953.818871,104.00390625,801.26953125,290.52734375,837.890625,0.0,0,0
1771941953.883626,1771941953.822762,62.01171875,-544.43359375,-290.0390625,-557.6171875,0.0,0,0
1771941953.8836539,1771941953.8266532,-16.6015625,-1000.0,-341.796875,-1000.0,0.0,0,0
1771941953.883681,1771941953.8305445,7.32421875,-107.91015625,127.9296875,91.796875,0.0,0,0
1771941953.883712,1771941953.8344357,57.6171875,-924.8046875,521.97265625,-950.1953125,0.0,0,0
1771941953.928263,1771941953.8384917,21.97265625,831.0546875,291.015625,882.8125,0.0,0,0
1771941953.9283772,1771941953.842383,-51.26953125,-550.78125,-304.6875,-475.09765625,0.0,0,0
1771941953.928426,1771941953.8462741,-40.0390625,-1000.0,-427.734375,-1000.0,0.0,0,0
1771941953.9284701,1771941953.8501654,46.38671875,-424.8046875,13.671875,-290.0390625,0.0,0,0
1771941953.9285161,1771941953.8540566,108.3984375,956.54296875,489.2578125,925.29296875,0.0,0,0
1771941953.928559,1771941953.8579478,93.26171875,901.85546875,367.67578125,970.703125,0.0,0,0
1771941953.928606,1771941953.861839,23.4375,-524.90234375,-175.29296875,-399.90234375,0.0,0,0
1771941953.928651,1771941953.8657303,20.01953125,-1000.0,-365.234375,-1000.0,0.0,0,0
1771941953.928694,1771941953.8696215,91.30859375,-625.48828125,8.7890625,-452.63671875,0.0,0,0
1771941953.928739,1771941953.8735127,167.48046875,808.59375,527.34375,799.8046875,0.0,0,0
1771941953.9287832,1771941953.877404,156.25,-964.35546875,450.1953125,-942.87109375,0.0,0,0
1771941953.928826,1771941953.8812952,81.0546875,-372.55859375,-109.86328125,-202.63671875,0.0,0,0
1771941953.987742,1771941953.8854253,36.62109375,-1000.0,-414.55078125,-1000.0,0.0,0,0
1771941953.9879029,1771941953.8893166,50.78125,-778.3203125,-118.1640625,-708.0078125,0.0,0,0
1771941953.9879732,1771941953.8932078,108.88671875,623.53515625,433.59375,636.71875,0.0,0,0
1771941953.988035,1771941953.897099,120.60546875,-862.79296875,461.9140625,-861.328125,0.0,0,0
1771941953.988236,1771941953.9009905,77.1484375,-188.96484375,-41.9921875,41.50390625,0.0,0,0
1771941953.988359,1771941953.9048817,37.59765625,-1000.0,-379.8828125,-1000.0,0.0,0,0
1771941953.988427,1771941953.908773,64.94140625,-835.44921875,-97.16796875,-786.1328125,0.0,0,0
1771941953.988487,1771941953.9126642,150.87890625,516.11328125,464.84375,579.58984375,0.0,0,0
1771941953.9885461,1771941953.9165554,161.62109375,-810.05859375,560.05859375,-833.49609375,0.0,0,0
1771941953.988606,1771941953.9204469,88.37890625,186.03515625,105.46875,370.60546875,0.0,0,0
1771941953.9886642,1771941953.924338,41.9921875,-1000.0,-297.36328125,-983.88671875,0.0,0,0
1771941953.988721,1771941953.9282293,70.3125,-870.1171875,-57.12890625,-883.7890625,0.0,0,0
1771941954.019978,1771941953.932348,157.71484375,524.4140625,482.91015625,541.015625,0.0,0,0
1771941954.0200992,1771941953.9362392,203.61328125,-812.5,638.18359375,-838.37890625,0.0,0,0
1771941954.020164,1771941953.9401305,137.20703125,513.671875,250.48828125,570.3125,0.0,0,0
1771941954.020224,1771941953.944022,61.5234375,-935.546875,-276.85546875,-846.19140625,0.0,0,0
1771941954.020298,1771941953.9479132,83.0078125,-947.265625,-129.8828125,-1000.0,0.0,0,0
1771941954.0203578,1771941953.9518044,146.97265625,513.18359375,438.4765625,422.36328125,0.0,0,0
1771941954.020417,1771941953.9556959,147.4609375,-836.42578125,641.6015625,-842.28515625,0.0,0,0
1771941954.020478,1771941953.959587,114.2578125,674.8046875,303.22265625,700.68359375,0.0,0,0
1771941954.020545,1771941953.9634783,71.2890625,-758.30078125,-251.46484375,-697.75390625,0.0,0,0
1771941954.0206149,1771941953.9673698,86.42578125,-1000.0,-208.984375,-1000.0,0.0,0,0
1771941954.02067,1771941953.971261,162.109375,314.453125,314.453125,182.6171875,0.0,0,0
1771941954.0207272,1771941953.9751525,176.7578125,-854.00390625,605.95703125,-875.0,0.0,0,0
1771941954.077599,1771941953.9792612,122.0703125,803.22265625,298.33984375,786.1328125,0.0,0,0
1771941954.0777621,1771941953.9831526,75.68359375,-603.515625,-268.06640625,-611.81640625,0.0,0,0
1771941954.0778282,1771941953.9870439,92.28515625,-1000.0,-258.30078125,-1000.0,0.0,0,0
1771941954.0781,1771941953.9909353,145.99609375,234.86328125,246.58203125,-6.8359375,0.0,0,0
1771941954.078155,1771941953.9948266,192.87109375,-852.5390625,589.84375,-932.6171875,0.0,0,0
1771941954.078201,1771941953.998718,178.7109375,793.9453125,333.0078125,848.14453125,0.0,0,0
1771941954.0782442,1771941954.0026093,110.83984375,-533.203125,-221.6796875,-539.0625,0.0,0,0
1771941954.0782988,1771941954.0065007,107.421875,-1000.0,-311.03515625,-1000.0,0.0,0,0
1771941954.078342,1771941954.010392,153.3203125,-312.98828125,118.65234375,-291.50390625,0.0,0,0
1771941954.0783842,1771941954.0142834,180.17578125,-989.2578125,569.82421875,956.0546875,0.0,0,0
1771941954.07843,1771941954.0181746,150.87890625,854.4921875,378.90625,926.7578125,0.0,0,0
1771941954.078471,1771941954.0220659,71.77734375,-560.05859375,-190.91796875,-475.09765625,0.0,0,0
1771941954.110537,1771941954.026178,87.890625,-1000.0,-315.91796875,-1000.0,0.0,0,0
1771941954.1106958,1771941954.0300694,159.1796875,-607.91015625,70.3125,-475.5859375,0.0,0,0
1771941954.110771,1771941954.0339606,203.61328125,839.35546875,564.94140625,820.80078125,0.0,0,0
1771941954.110821,1771941954.037852,205.078125,995.60546875,463.8671875,-966.796875,0.0,0,0
1771941954.1108532,1771941954.0417435,166.015625,-441.89453125,-100.09765625,-301.26953125,0.0,0,0
1771941954.110883,1771941954.0456347,130.859375,-1000.0,-327.1484375,-1000.0,0.0,0,0
1771941954.110911,1771941954.0495262,126.46484375,-747.0703125,-1.953125,-610.83984375,0.0,0,0
1771941954.11094,1771941954.0534177,183.59375,672.36328125,512.6953125,690.91796875,0.0,0,0
1771941954.110969,1771941954.057309,195.3125,-892.578125,487.3046875,-885.7421875,0.0,0,0
1771941954.110999,1771941954.0612004,144.04296875,-279.78515625,-28.3203125,-40.52734375,0.0,0,0
1771941954.111052,1771941954.0650916,116.69921875,-1000.0,-305.17578125,-1000.0,0.0,0,0
1771941954.111085,1771941954.068983,156.25,-837.40234375,9.27734375,-745.60546875,0.0,0,0
1771941954.155206,1771941954.0730724,214.84375,526.3671875,567.87109375,599.12109375,0.0,0,0
1771941954.155382,1771941954.076964,202.63671875,-824.21875,624.51171875,-838.37890625,0.0,0,0
1771941954.15545,1771941954.0808554,158.203125,-6.8359375,119.62890625,274.90234375,0.0,0,0
1771941954.155518,1771941954.0847468,117.1875,-1000.0,-318.359375,-1000.0,0.0,0,0
1771941954.1555772,1771941954.088638,141.6015625,-847.16796875,-87.890625,-776.3671875,0.0,0,0
1771941954.155637,1771941954.0925295,194.3359375,514.6484375,476.5625,600.5859375,0.0,0,0
1771941954.1556969,1771941954.096421,211.9140625,-807.12890625,589.84375,-848.6328125,0.0,0,0
1771941954.155756,1771941954.1003125,181.640625,414.55078125,187.5,540.52734375,0.0,0,0
1771941954.155814,1771941954.1042037,125.0,-982.421875,-280.76171875,-893.5546875,0.0,0,0
1771941954.155871,1771941954.1080952,162.109375,-919.921875,-133.7890625,-926.26953125,0.0,0,0
1771941954.1559181,1771941954.1119866,224.609375,519.04296875,436.03515625,525.87890625,0.0,0,0
1771941954.155982,1771941954.115878,204.1015625,-830.078125,627.44140625,-855.95703125,0.0,0,0
1771941954.198785,1771941954.119954,145.5078125,639.16015625,254.8828125,723.14453125,0.0,0,0
1771941954.19891,1771941954.1238453,97.65625,-824.21875,-291.9921875,-728.515625,0.0,0,0
1771941954.198959,1771941954.1277368,106.93359375,-1000.0,-224.609375,-1000.0,0.0,0,0
1771941954.199001,1771941954.1316283,172.36328125,442.3828125,323.2421875,402.34375,0.0,0,0
1771941954.1990452,1771941954.1355197,208.0078125,-855.95703125,592.28515625,-868.1640625,0.0,0,0
1771941954.19909,1771941954.1394112,181.640625,782.71484375,297.36328125,794.921875,0.0,0,0
1771941954.199141,1771941954.1433027,125.48828125,-608.3984375,-247.0703125,-610.83984375,0.0,0,0
1771941954.199187,1771941954.1471941,115.234375,-1000.0,-249.0234375,-1000.0,0.0,0,0
1771941954.199244,1771941954.1510856,175.78125,183.59375,211.42578125,159.66796875,0.0,0,0
1771941954.199305,1771941954.1549768,208.0078125,-861.328125,547.8515625,-899.90234375,0.0,0,0
1771941954.199348,1771941954.1588683,207.51953125,809.08203125,324.21875,824.70703125,0.0,0,0
1771941954.199409,1771941954.1627598,158.203125,-548.828125,-210.9375,-554.6875,0.0,0,0
1771941954.273893,1771941954.1669888,143.06640625,-1000.0,-282.2265625,-1000.0,0.0,0,0
1771941954.2739992,1771941954.1708803,211.9140625,-134.765625,142.08984375,-178.7109375,0.0,0,0
1771941954.274046,1771941954.1747718,235.3515625,-931.640625,568.84765625,-996.58203125,0.0,0,0
1771941954.27409,1771941954.1786633,183.10546875,829.1015625,375.0,892.578125,0.0,0,0
1771941954.274132,1771941954.1825547,92.28515625,-547.36328125,-212.890625,-507.8125,0.0,0,0
1771941954.274176,1771941954.1864462,72.75390625,-1000.0,-350.09765625,-1000.0,0.0,0,0
1771941954.274217,1771941954.1903377,130.37109375,-551.26953125,25.87890625,-408.69140625,0.0,0,0
1771941954.274261,1771941954.1942291,204.1015625,893.5546875,498.53515625,871.58203125,0.0,0,0
1771941954.2743292,1771941954.1981206,218.75,938.4765625,407.71484375,986.81640625,0.0,0,0
1771941954.2743812,1771941954.202012,161.1328125,-514.16015625,-132.8125,-380.859375,0.0,0,0
1771941954.2744331,1771941954.2059038,130.37109375,-1000.0,-333.49609375,-1000.0,0.0,0,0
1771941954.2744849,1771941954.2097952,131.34765625,-685.546875,17.578125,-623.53515625,0.0,0,0
1771941954.3037848,1771941954.213852,164.55078125,742.1875,516.11328125,714.84375,0.0,0,0
1771941954.303919,1771941954.2177434,181.15234375,-925.29296875,466.796875,-903.3203125,0.0,0,0
1771941954.303988,1771941954.2216349,139.16015625,-323.2421875,-57.6171875,-139.16015625,0.0,0,0
1771941954.304051,1771941954.2255263,97.16796875,-1000.0,-334.9609375,-1000.0,0.0,0,0
1771941954.304107,1771941954.229418,129.39453125,-819.82421875,-36.62109375,-723.6328125,0.0,0,0
1771941954.304173,1771941954.2333095,200.68359375,564.453125,508.7890625,619.62890625,0.0,0,0
1771941954.304233,1771941954.237201,195.3125,-843.26171875,511.71875,-852.05078125,0.0,0,0
1771941954.304297,1771941954.2410924,123.53515625,-126.46484375,-11.23046875,121.58203125,0.0,0,0
1771941954.304375,1771941954.2449841,96.6796875,-1000.0,-372.0703125,-1000.0,0.0,0,0
1771941954.3044329,1771941954.2488756,126.953125,-836.9140625,-100.5859375,-771.484375,0.0,0,0
1771941954.3045099,1771941954.252767,146.97265625,512.20703125,427.24609375,585.9375,0.0,0,0
1771941954.3045871,1771941954.2566586,128.90625,-806.15234375,512.20703125,-838.37890625,0.0,0,0
1771941954.3490062,1771941954.2607841,62.5,301.7578125,96.6796875,494.62890625,0.0,0,0
1771941954.3491368,1771941954.2646756,14.16015625,-1000.0,-360.83984375,-926.26953125,0.0,0,0
1771941954.349185,1771941954.268567,56.640625,-885.7421875,-166.50390625,-824.70703125,0.0,0,0
1771941954.349231,1771941954.2724588,117.1875,533.203125,366.69921875,592.7734375,0.0,0,0
1771941954.3492749,1771941954.2763503,116.2109375,-820.80078125,504.8828125,-861.328125,0.0,0,0
1771941954.34932,1771941954.280242,88.37890625,585.9375,156.73828125,666.015625,0.0,0,0
1771941954.349364,1771941954.2841334,17.08984375,-867.67578125,-358.88671875,-783.203125,0.0,0,0
1771941954.349417,1771941954.288025,24.90234375,-1000.0,-262.20703125,-1000.0,0.0,0,0
1771941954.349479,1771941954.2919166,101.5625,432.6171875,283.69140625,411.1328125,0.0,0,0
1771941954.349524,1771941954.295808,118.65234375,-840.33203125,502.9296875,-855.95703125,0.0,0,0
1771941954.3495748,1771941954.2996995,89.84375,726.07421875,197.75390625,764.6484375,0.0,0,0
1771941954.3496268,1771941954.3035913,35.64453125,-698.73046875,-312.98828125,-659.1796875,0.0,0,0
1771941954.393354,1771941954.307704,7.8125,-1000.0,-281.25,-1000.0,0.0,0,0
1771941954.3934321,1771941954.3115957,62.01171875,279.78515625,217.7734375,258.7890625,0.0,0,0
1771941954.393462,1771941954.3154871,105.46875,-854.4921875,551.7578125,-881.8359375,0.0,0,0
1771941954.393489,1771941954.3193789,74.21875,804.19921875,299.8046875,818.359375,0.0,0,0
1771941954.393513,1771941954.3232703,40.52734375,-547.8515625,-274.4140625,-569.3359375,0.0,0,0
1771941954.3935392,1771941954.327162,47.8515625,-1000.0,-315.91796875,-1000.0,0.0,0,0
1771941954.393564,1771941954.3310535,90.33203125,-81.0546875,150.87890625,-17.578125,0.0,0,0
1771941954.393662,1771941954.3349452,140.625,-917.48046875,543.9453125,-950.68359375,0.0,0,0
1771941954.3936892,1771941954.3388367,117.67578125,827.63671875,339.35546875,874.0234375,0.0,0,0
1771941954.393715,1771941954.3427284,50.29296875,-549.31640625,-231.93359375,-513.671875,0.0,0,0
1771941954.39374,1771941954.3466198,39.55078125,-1000.0,-368.1640625,-1000.0,0.0,0,0
1771941954.3937652,1771941954.3505116,99.609375,-410.64453125,37.109375,-250.9765625,0.0,0,0
1771941954.4389172,1771941954.3546119,156.73828125,966.30859375,515.13671875,944.82421875,0.0,0,0
1771941954.438953,1771941954.3585036,161.62109375,886.71875,361.81640625,956.54296875,0.0,0,0
1771941954.438967,1771941954.3623953,113.76953125,-543.45703125,-196.2890625,-406.73828125,0.0,0,0
1771941954.438981,1771941954.3662868,101.07421875,-1000.0,-371.58203125,-1000.0,0.0,0,0
1771941954.438995,1771941954.3701785,121.58203125,-654.296875,-47.8515625,-461.42578125,0.0,0,0
1771941954.4390888,1771941954.3740702,173.33984375,797.36328125,475.5859375,799.8046875,0.0,0,0
1771941954.4391181,1771941954.3779616,187.98828125,-983.3984375,443.84765625,-938.4765625,0.0,0,0
1771941954.439134,1771941954.3818533,148.4375,-426.26953125,-108.88671875,-203.125,0.0,0,0
1771941954.439148,1771941954.385745,126.953125,-1000.0,-383.30078125,-1000.0,0.0,0,0
1771941954.439161,1771941954.3896365,159.1796875,-763.671875,-53.7109375,-587.40234375,0.0,0,0
1771941954.439175,1771941954.3935282,233.88671875,648.92578125,489.74609375,689.94140625,0.0,0,0
1771941954.439189,1771941954.3974197,223.6328125,-879.39453125,532.2265625,-878.41796875,0.0,0,0
1771941954.4831228,1771941954.401509,165.0390625,-253.90625,17.08984375,38.0859375,0.0,0,0
1771941954.483161,1771941954.4054008,148.4375,-1000.0,-338.37890625,-1000.0,0.0,0,0
1771941954.4831731,1771941954.4092925,178.22265625,-830.56640625,-59.5703125,-741.2109375,0.0,0,0
1771941954.483184,1771941954.413184,229.98046875,513.671875,466.796875,603.02734375,0.0,0,0
1771941954.4831948,1771941954.4170756,236.328125,-811.03515625,519.53125,-841.30859375,0.0,0,0
1771941954.483205,1771941954.4209673,207.51953125,150.87890625,96.19140625,360.3515625,0.0,0,0
1771941954.483215,1771941954.424859,189.94140625,-1000.0,-320.3125,-991.69921875,0.0,0,0
1771941954.483225,1771941954.4287505,210.44921875,-866.2109375,-122.55859375,-874.0234375,0.0,0,0
1771941954.483236,1771941954.4326422,285.64453125,522.94921875,443.84765625,551.26953125,0.0,0,0
1771941954.483246,1771941954.436534,318.359375,-811.03515625,575.68359375,-838.37890625,0.0,0,0
1771941954.483256,1771941954.4404256,249.51171875,483.88671875,166.50390625,577.1484375,0.0,0,0
1771941954.483266,1771941954.444317,177.24609375,-947.75390625,-327.63671875,-863.76953125,0.0,0,0
1771941954.570889,1771941954.4483967,207.51953125,-944.3359375,-186.5234375,-932.12890625,0.0,0,0
1771941954.570931,1771941954.4522884,270.01953125,506.8359375,365.234375,517.08984375,0.0,0,0
1771941954.570945,1771941954.45618,292.48046875,-832.03125,583.0078125,-859.86328125,0.0,0,0
1771941954.5709581,1771941954.4600718,273.4375,655.76171875,229.98046875,741.2109375,0.0,0,0
1771941954.57097,1771941954.4639633,213.8671875,-786.1328125,-331.54296875,-710.9375,0.0,0,0
1771941954.570982,1771941954.467855,193.84765625,-1000.0,-265.13671875,-1000.0,0.0,0,0
1771941954.570993,1771941954.4717467,244.62890625,351.07421875,244.140625,402.83203125,0.0,0,0
1771941954.5710049,1771941954.4756384,285.64453125,-851.07421875,509.27734375,-878.41796875,0.0,0,0
1771941954.571017,1771941954.47953,250.9765625,787.59765625,237.3046875,815.4296875,0.0,0,0
1771941954.571028,1771941954.4834218,184.08203125,-601.07421875,-300.29296875,-604.98046875,0.0,0,0
1771941954.57104,1771941954.4873135,180.17578125,-1000.0,-316.40625,-1000.0,0.0,0,0
1771941954.5710511,1771941954.4912052,227.5390625,142.08984375,170.8984375,217.7734375,0.0,0,0
1771941954.589685,1771941954.495365,272.94921875,-867.1875,541.015625,-910.64453125,0.0,0,0
1771941954.5897129,1771941954.4992566,268.5546875,805.6640625,322.75390625,850.09765625,0.0,0,0
1771941954.589728,1771941954.5031483,236.328125,-541.015625,-192.3828125,-533.203125,0.0,0,0
1771941954.5897422,1771941954.50704,210.44921875,-1000.0,-254.8828125,-1000.0,0.0,0,0
1771941954.589754,1771941954.5109317,218.26171875,-284.66796875,138.671875,-97.65625,0.0,0,0
1771941954.589767,1771941954.5148234,253.90625,-979.4921875,574.70703125,993.65234375,0.0,0,0
1771941954.589779,1771941954.5187151,260.7421875,851.07421875,427.24609375,917.48046875,0.0,0,0
1771941954.589792,1771941954.5226068,219.23828125,-558.10546875,-136.23046875,-464.84375,0.0,0,0
1771941954.589804,1771941954.5264986,204.1015625,-1000.0,-250.48828125,-1000.0,0.0,0,0
1771941954.589816,1771941954.5303903,242.1875,-563.96484375,119.140625,-340.33203125,0.0,0,0
1771941954.5898292,1771941954.534282,293.9453125,873.046875,595.703125,867.1875,0.0,0,0
1771941954.589841,1771941954.5381737,288.57421875,973.14453125,493.65234375,-981.4453125,0.0,0,0
1771941954.645678,1771941954.542238,221.6796875,-459.9609375,-57.12890625,-291.015625,0.0,0,0
1771941954.64571,1771941954.5461297,180.6640625,-1000.0,-278.3203125,-1000.0,0.0,0,0
1771941954.645726,1771941954.5500214,216.796875,-691.89453125,55.6640625,-514.16015625,0.0,0,0
1771941954.6457422,1771941954.553913,280.2734375,728.02734375,587.890625,734.375,0.0,0,0
1771941954.645758,1771941954.5578048,276.85546875,-906.25,551.7578125,-890.13671875,0.0,0,0
1771941954.6457741,1771941954.5616968,213.8671875,-278.80859375,28.80859375,-10.25390625,0.0,0,0
1771941954.645789,1771941954.5655885,177.24609375,-1000.0,-304.6875,-1000.0,0.0,0,0
1771941954.645804,1771941954.5694802,190.91796875,-830.078125,-39.55078125,-598.6328125,0.0,0,0
1771941954.645819,1771941954.573372,222.16796875,537.59765625,502.9296875,658.203125,0.0,0,0
1771941954.645834,1771941954.5772636,253.90625,-827.1484375,553.22265625,-858.88671875,0.0,0,0
1771941954.645849,1771941954.5811553,210.9375,-19.53125,88.37890625,294.921875,0.0,0,0
1771941954.645865,1771941954.5850472,145.99609375,-1000.0,-309.08203125,-1000.0,0.0,0,0
1771941954.677407,1771941954.5891006,160.15625,-845.703125,-85.44921875,-726.5625,0.0,0,0
1771941954.677462,1771941954.5929923,198.2421875,514.6484375,472.16796875,627.9296875,0.0,0,0
1771941954.677482,1771941954.596884,221.6796875,-807.6171875,584.47265625,-857.421875,0.0,0,0
1771941954.677501,1771941954.600776,198.73046875,403.80859375,177.24609375,568.359375,0.0,0,0
1771941954.677519,1771941954.6046677,125.48828125,-992.67578125,-289.0625,-879.8828125,0.0,0,0
1771941954.677537,1771941954.6085594,111.81640625,-902.34375,-132.32421875,-877.44140625,0.0,0,0
1771941954.677554,1771941954.6124513,154.296875,541.9921875,383.7890625,562.5,0.0,0,0
1771941954.677572,1771941954.616343,184.08203125,-829.58984375,561.5234375,-862.79296875,0.0,0,0
1771941954.677589,1771941954.6202347,166.9921875,621.58203125,248.53515625,713.8671875,0.0,0,0
1771941954.6776059,1771941954.6241264,121.09375,-839.84375,-240.72265625,-744.62890625,0.0,0,0
1771941954.677623,1771941954.6280184,121.58203125,-1000.0,-142.578125,-1000.0,0.0,0,0
1771941954.67764,1771941954.63191,170.41015625,438.4765625,388.671875,416.50390625,0.0,0,0
1771941954.726211,1771941954.6360366,210.9375,-843.75,624.0234375,-862.79296875,0.0,0,0
1771941954.7262568,1771941954.6399286,165.52734375,737.3046875,334.9609375,778.3203125,0.0,0,0
1771941954.726275,1771941954.6438203,92.28515625,-676.26953125,-182.12890625,-627.9296875,0.0,0,0
1771941954.726292,1771941954.6477122,97.65625,-1000.0,-180.17578125,-1000.0,0.0,0,0
1771941954.726308,1771941954.651604,167.48046875,239.74609375,297.8515625,168.45703125,0.0,0,0
1771941954.726325,1771941954.6554956,224.609375,-854.98046875,647.94921875,-895.01953125,0.0,0,0
1771941954.726342,1771941954.6593876,196.77734375,806.15234375,394.53125,828.125,0.0,0,0
1771941954.726361,1771941954.6632793,98.6328125,-549.8046875,-193.84765625,-558.59375,0.0,0,0
1771941954.726378,1771941954.6671712,71.2890625,-1000.0,-265.625,-1000.0,0.0,0,0
1771941954.7263942,1771941954.671063,127.44140625,-83.0078125,192.3828125,-104.4921875,0.0,0,0
1771941954.726411,1771941954.674955,166.9921875,-917.48046875,596.6796875,-974.12109375,0.0,0,0
1771941954.72651,1771941954.6788466,143.06640625,824.21875,385.25390625,876.46484375,0.0,0,0
1771941954.768373,1771941954.6829536,87.40234375,-545.41015625,-174.31640625,-515.13671875,0.0,0,0
1771941954.768425,1771941954.6868455,96.6796875,-1000.0,-285.64453125,-1000.0,0.0,0,0
1771941954.7684522,1771941954.6907372,147.4609375,-492.67578125,99.609375,-396.97265625,0.0,0,0
1771941954.768477,1771941954.6946292,186.03515625,917.48046875,564.94140625,882.8125,0.0,0,0
1771941954.768503,1771941954.698521,181.15234375,938.4765625,450.68359375,984.375,0.0,0,0
1771941954.768527,1771941954.7024128,123.046875,-491.2109375,-89.84375,-390.625,0.0,0,0
1771941954.7685509,1771941954.7063046,99.609375,-1000.0,-305.17578125,-1000.0,0.0,0,0
1771941954.768574,1771941954.7101965,130.37109375,-676.7578125,21.97265625,-549.31640625,0.0,0,0
1771941954.7686028,1771941954.7140884,183.10546875,764.16015625,529.78515625,761.23046875,0.0,0,0
1771941954.768627,1771941954.7179801,175.78125,-949.70703125,476.07421875,-931.640625,0.0,0,0
1771941954.768681,1771941954.721872,109.375,-373.53515625,-21.484375,-214.84375,0.0,0,0
1771941954.7687302,1771941954.7257638,90.8203125,-1000.0,-275.87890625,-1000.0,0.0,0,0
1771941954.813527,1771941954.7298617,145.01953125,-803.22265625,-3.90625,-681.640625,0.0,0,0
1771941954.8135822,1771941954.7337537,175.29296875,576.66015625,509.27734375,637.6953125,0.0,0,0
1771941954.813612,1771941954.7376456,187.01171875,-843.26171875,530.2734375,-860.83984375,0.0,0,0
1771941954.813642,1771941954.7415373,159.66796875,-105.46875,53.7109375,77.1484375,0.0,0,0
1771941954.813674,1771941954.7454293,108.88671875,-1000.0,-321.2890625,-1000.0,0.0,0,0
1771941954.8137012,1771941954.7493212,135.25390625,-844.23828125,-96.6796875,-779.78515625,0.0,0,0
1771941954.81373,1771941954.7532132,188.4765625,519.53125,445.80078125,588.37890625,0.0,0,0
1771941954.813759,1771941954.7571049,213.37890625,-810.05859375,539.0625,-841.796875,0.0,0,0
1771941954.813788,1771941954.7609968,152.83203125,214.35546875,109.375,341.796875,0.0,0,0
1771941954.813816,1771941954.7648888,77.1484375,-1000.0,-317.87109375,-985.83984375,0.0,0,0
1771941954.813844,1771941954.7687805,104.00390625,-873.046875,-138.18359375,-902.83203125,0.0,0,0
1771941954.8138728,1771941954.7726724,181.15234375,526.3671875,410.64453125,515.13671875,0.0,0,0
1771941954.8741188,1771941954.7768397,220.21484375,-816.40625,582.51953125,-837.40234375,0.0,0,0
1771941954.87418,1771941954.7807317,172.36328125,553.7109375,201.66015625,616.69921875,0.0,0,0
1771941954.8742049,1771941954.7846236,104.98046875,-896.97265625,-305.6640625,-818.84765625,0.0,0,0
1771941954.874229,1771941954.7885156,130.859375,-989.2578125,-192.3828125,-993.65234375,0.0,0,0
1771941954.874252,1771941954.7924075,181.15234375,461.42578125,333.984375,447.75390625,0.0,0,0
1771941954.8742762,1771941954.7962995,185.546875,-832.03125,565.4296875,-854.4921875,0.0,0,0
1771941954.8742988,1771941954.8001914,167.96875,678.22265625,251.953125,740.234375,0.0,0,0
1771941954.874322,1771941954.804083,127.44140625,-756.8359375,-271.484375,-677.24609375,0.0,0,0
1771941954.874348,1771941954.807975,122.55859375,-1000.0,-223.14453125,-1000.0,0.0,0,0
1771941954.87437,1771941954.811867,176.7578125,316.89453125,278.3203125,241.2109375,0.0,0,0
1771941954.874393,1771941954.815759,200.1953125,-854.4921875,575.68359375,-875.48828125,0.0,0,0
1771941954.874449,1771941954.819651,171.38671875,802.734375,295.41015625,804.6875,0.0,0,0
1771941954.903179,1771941954.8237324,114.74609375,-566.89453125,-232.91015625,-582.03125,0.0,0,0
1771941954.9032252,1771941954.8276243,90.8203125,-1000.0,-262.20703125,-1000.0,0.0,0,0
1771941954.90324,1771941954.8315163,127.9296875,49.31640625,187.5,-41.015625,0.0,0,0
1771941954.903255,1771941954.8354082,143.06640625,-884.765625,553.7109375,-943.84765625,0.0,0,0
1771941954.903279,1771941954.8393002,104.4921875,813.96484375,336.9140625,853.02734375,0.0,0,0
1771941954.903321,1771941954.843192,46.38671875,-543.9453125,-172.36328125,-533.69140625,0.0,0,0
1771941954.90334,1771941954.847084,46.38671875,-1000.0,-271.484375,-1000.0,0.0,0,0
1771941954.9033558,1771941954.850976,106.93359375,-335.9375,114.74609375,-341.796875,0.0,0,0
1771941954.903434,1771941954.854868,155.76171875,-997.55859375,563.4765625,935.05859375,0.0,0,0
1771941954.903455,1771941954.8587599,130.859375,857.91015625,402.83203125,931.640625,0.0,0,0
1771941954.9034722,1771941954.8626518,88.37890625,-562.5,-144.04296875,-472.16796875,0.0,0,0
1771941954.9035149,1771941954.8665438,60.05859375,-1000.0,-294.921875,-1000.0,0.0,0,0
1771941954.9483452,1771941954.8706095,83.0078125,-626.953125,24.4140625,-570.80078125,0.0,0,0
1771941954.948381,1771941954.8745015,130.37109375,822.265625,493.1640625,777.34375,0.0,0,0
1771941954.948399,1771941954.8783934,127.9296875,-994.140625,426.7578125,-958.984375,0.0,0,0
1771941954.9484181,1771941954.8822854,80.078125,-432.12890625,-82.03125,-312.5,0.0,0,0
1771941954.948436,1771941954.8861773,54.19921875,-1000.0,-305.17578125,-1000.0,0.0,0,0
1771941954.948452,1771941954.8900692,84.47265625,-747.55859375,-6.8359375,-671.38671875,0.0,0,0
1771941954.948469,1771941954.8939612,134.27734375,670.41015625,483.88671875,674.31640625,0.0,0,0
1771941954.9484859,1771941954.8978531,143.06640625,-889.16015625,477.05078125,-898.4375,0.0,0,0
1771941954.948503,1771941954.901745,56.640625,-270.99609375,-34.66796875,-120.1171875,0.0,0,0
1771941954.94852,1771941954.9056373,-8.30078125,-1000.0,-373.046875,-1000.0,0.0,0,0
1771941954.9485362,1771941954.9095292,40.52734375,-834.9609375,-110.3515625,-805.6640625,0.0,0,0
1771941954.948554,1771941954.9134212,98.14453125,520.5078125,441.89453125,572.265625,0.0,0,0
1771941955.0081742,1771941954.9174757,107.91015625,-817.87109375,504.8828125,-845.21484375,0.0,0,0
1771941955.008235,1771941954.9213676,60.05859375,54.6875,39.0625,184.08203125,0.0,0,0
1771941955.008257,1771941954.9252596,8.7890625,-1000.0,-364.74609375,-1000.0,0.0,0,0
1771941955.008277,1771941954.9291518,36.62109375,-854.4921875,-178.22265625,-889.16015625,0.0,0,0
1771941955.008299,1771941954.9330437,78.61328125,518.06640625,364.2578125,516.6015625,0.0,0,0
1771941955.008319,1771941954.9369357,85.9375,-808.10546875,541.015625,-832.03125,0.0,0,0
1771941955.00834,1771941954.9408276,64.94140625,435.05859375,154.78515625,432.12890625,0.0,0,0
1771941955.0083609,1771941954.9447198,22.4609375,-970.21484375,-318.359375,-910.64453125,0.0,0,0
1771941955.008381,1771941954.9486117,39.0625,-933.59375,-178.22265625,-986.81640625,0.0,0,0
1771941955.008401,1771941954.9525037,109.375,504.8828125,329.58984375,426.7578125,0.0,0,0
1771941955.00842,1771941954.9563956,125.48828125,-825.68359375,512.20703125,-837.40234375,0.0,0,0
1771941955.00844,1771941954.9602876,90.33203125,625.9765625,166.015625,605.46875,0.0,0,0
1771941955.053379,1771941954.9644113,45.41015625,-814.453125,-346.6796875,-766.11328125,0.0,0,0
1771941955.053443,1771941954.9683034,48.33984375,-1000.0,-272.94921875,-1000.0,0.0,0,0
1771941955.0534751,1771941954.9721954,106.93359375,357.91015625,251.46484375,249.51171875,0.0,0,0
1771941955.053505,1771941954.9760873,136.71875,-850.5859375,531.25,-862.3046875,0.0,0,0
1771941955.053536,1771941954.9799795,80.56640625,784.1796875,255.859375,720.21484375,0.0,0,0
1771941955.053566,1771941954.9838715,-11.23046875,-612.3046875,-274.4140625,-649.90234375,0.0,0,0
1771941955.0535948,1771941954.9877634,7.8125,-1000.0,-293.9453125,-1000.0,0.0,0,0
1771941955.053622,1771941954.9916556,118.65234375,181.640625,162.109375,-0.9765625,0.0,0,0
1771941955.053652,1771941954.9955475,145.01953125,-861.328125,476.5625,-918.45703125,0.0,0,0
1771941955.053681,1771941954.9994395,109.375,809.5703125,246.58203125,803.7109375,0.0,0,0
1771941955.053709,1771941955.0033317,65.4296875,-549.31640625,-275.390625,-590.8203125,0.0,0,0
1771941955.053739,1771941955.0072236,64.453125,-1000.0,-320.3125,-1000.0,0.0,0,0
1771941955.0985339,1771941955.011338,121.09375,-132.32421875,107.421875,-258.7890625,0.0,0,0
1771941955.098638,1771941955.01523,171.875,-931.15234375,491.69921875,983.3984375,0.0,0,0
1771941955.098676,1771941955.0191221,136.23046875,829.58984375,324.70703125,879.8828125,0.0,0,0
1771941955.098926,1771941955.023014,56.640625,-547.36328125,-179.19921875,-526.85546875,0.0,0,0
1771941955.098964,1771941955.0269063,15.13671875,-1000.0,-330.56640625,-1000.0,0.0,0,0
1771941955.0989969,1771941955.0307982,23.4375,-525.390625,25.390625,-549.31640625,0.0,0,0
1771941955.099031,1771941955.0346904,89.35546875,901.3671875,485.83984375,827.1484375,0.0,0,0
1771941955.099065,1771941955.0385823,83.984375,949.21875,374.0234375,980.95703125,0.0,0,0
1771941955.0990982,1771941955.0424745,22.4609375,-486.328125,-141.11328125,-436.03515625,0.0,0,0
1771941955.0991309,1771941955.0463665,6.34765625,-1000.0,-333.0078125,-1000.0,0.0,0,0
1771941955.099166,1771941955.0502586,60.05859375,-699.70703125,-9.27734375,-719.7265625,0.0,0,0
1771941955.099199,1771941955.0541506,116.69921875,736.328125,490.72265625,684.08203125,0.0,0,0
1771941955.175116,1771941955.0584161,82.03125,-932.12890625,442.87109375,-928.7109375,0.0,0,0
1771941955.1752808,1771941955.062308,19.04296875,-349.609375,-86.9140625,-273.4375,0.0,0,0
1771941955.175346,1771941955.0662003,-18.06640625,-1000.0,-373.046875,-1000.0,0.0,0,0
1771941955.175406,1771941955.0700924,8.30078125,-816.89453125,-84.9609375,-815.91796875,0.0,0,0
1771941955.175467,1771941955.0739846,58.10546875,553.22265625,435.546875,568.84765625,0.0,0,0
1771941955.175526,1771941955.0778766,56.15234375,-833.49609375,498.046875,-854.00390625,0.0,0,0
1771941955.175586,1771941955.0817688,20.01953125,-59.5703125,50.29296875,26.3671875,0.0,0,0
1771941955.175663,1771941955.085661,-10.25390625,-1000.0,-332.51953125,-1000.0,0.0,0,0
1771941955.175748,1771941955.089553,4.39453125,-845.703125,-113.28125,-871.09375,0.0,0,0
1771941955.1758022,1771941955.093445,51.26953125,517.578125,405.76171875,528.80859375,0.0,0,0
1771941955.1758568,1771941955.0973372,77.63671875,-807.6171875,504.8828125,-839.35546875,0.0,0,0
1771941955.175909,1771941955.1012294,36.62109375,291.015625,111.81640625,265.13671875,0.0,0,0
1771941955.1894789,1771941955.1053288,-40.0390625,-1000.0,-320.3125,-980.95703125,0.0,0,0
1771941955.1896052,1771941955.109221,-46.875,-884.27734375,-162.109375,-954.58984375,0.0,0,0
1771941955.1896708,1771941955.1131132,14.6484375,532.2265625,372.0703125,447.75390625,0.0,0,0
1771941955.189736,1771941955.1170053,31.73828125,-820.3125,555.6640625,-841.30859375,0.0,0,0
1771941955.1898,1771941955.1208975,8.30078125,582.51953125,199.21875,468.75,0.0,0,0
1771941955.189858,1771941955.1247895,-33.69140625,-865.72265625,-274.4140625,-840.8203125,0.0,0,0
1771941955.189919,1771941955.1286817,-50.78125,-1000.0,-200.1953125,-1000.0,0.0,0,0
1771941955.189974,1771941955.1325738,-5.37109375,415.0390625,293.45703125,299.31640625,0.0,0,0
1771941955.190033,1771941955.136466,20.99609375,-837.40234375,541.015625,-850.5859375,0.0,0,0
1771941955.190091,1771941955.1403582,-18.06640625,720.703125,226.5625,628.90625,0.0,0,0
1771941955.190155,1771941955.1442504,-78.125,-698.2421875,-303.22265625,-708.49609375,0.0,0,0
1771941955.190211,1771941955.1481426,-55.17578125,-1000.0,-255.37109375,-1000.0,0.0,0,0
1771941955.279142,1771941955.1524646,29.296875,250.9765625,228.515625,57.6171875,0.0,0,0
1771941955.27927,1771941955.1563568,60.05859375,-854.4921875,543.9453125,-896.97265625,0.0,0,0
1771941955.279318,1771941955.160249,9.765625,804.6875,302.734375,739.74609375,0.0,0,0
1771941955.279362,1771941955.1641414,-52.734375,-555.17578125,-248.53515625,-623.046875,0.0,0,0
1771941955.279406,1771941955.1680336,-68.84765625,-1000.0,-299.31640625,-1000.0,0.0,0,0
1771941955.279448,1771941955.1719258,-33.203125,-54.19921875,152.34375,-231.4453125,0.0,0,0
1771941955.27949,1771941955.175818,0.9765625,-910.64453125,527.83203125,-988.28125,0.0,0,0
1771941955.2795331,1771941955.1797101,-10.25390625,826.171875,339.84375,813.4765625,0.0,0,0
1771941955.2795782,1771941955.1836023,-74.21875,-549.31640625,-207.03125,-584.9609375,0.0,0,0
1771941955.2796211,1771941955.1874945,-100.5859375,-1000.0,-435.546875,-1000.0,0.0,0,0
1771941955.2796621,1771941955.1913867,-55.17578125,-375.48828125,-88.8671875,-505.859375,0.0,0,0
1771941955.279706,1771941955.1952791,-8.30078125,982.421875,376.46484375,876.46484375,0.0,0,0
1771941955.282072,1771941955.1993678,-25.87890625,877.44140625,250.0,918.45703125,0.0,0,0
1771941955.2821498,1771941955.20326,-92.28515625,-546.875,-282.71484375,-514.16015625,0.0,0,0
1771941955.282197,1771941955.2071521,-122.55859375,-1000.0,-456.0546875,-1000.0,0.0,0,0
1771941955.282241,1771941955.2110445,-95.703125,-664.0625,-104.4921875,-710.9375,0.0,0,0
1771941955.282283,1771941955.2149367,-36.1328125,780.76171875,358.88671875,714.35546875,0.0,0,0
1771941955.2823281,1771941955.218829,-13.671875,-967.28515625,305.6640625,-967.7734375,0.0,0,0
1771941955.282372,1771941955.222721,-86.42578125,-399.90234375,-190.91796875,-367.1875,0.0,0,0
1771941955.282424,1771941955.2266135,-117.1875,-1000.0,-431.640625,-1000.0,0.0,0,0
1771941955.282466,1771941955.2305057,-62.5,-788.0859375,-149.4140625,-782.2265625,0.0,0,0
1771941955.2825081,1771941955.234398,-20.99609375,611.328125,350.09765625,606.4453125,0.0,0,0
1771941955.282569,1771941955.23829,-12.20703125,-863.28125,388.18359375,-876.953125,0.0,0,0
1771941955.28262,1771941955.2421825,-27.34375,-199.21875,-72.265625,-88.8671875,0.0,0,0
1771941955.3238468,1771941955.2462442,-76.66015625,-1000.0,-383.30078125,-1000.0,0.0,0,0
1771941955.3239539,1771941955.2501366,-53.22265625,-837.890625,-123.53515625,-849.609375,0.0,0,0
1771941955.324002,1771941955.2540288,27.34375,519.04296875,375.48828125,543.9453125,0.0,0,0
1771941955.3240478,1771941955.257921,21.484375,-812.5,431.15234375,-846.6796875,0.0,0,0
1771941955.324091,1771941955.2618134,-34.66796875,129.8828125,7.8125,158.69140625,0.0,0,0
1771941955.3241348,1771941955.2657056,-62.98828125,-1000.0,-390.13671875,-1000.0,0.0,0,0
1771941955.3241768,1771941955.269598,-52.734375,-862.3046875,-208.984375,-923.33984375,0.0,0,0
1771941955.32422,1771941955.2734902,6.8359375,520.99609375,338.37890625,476.07421875,0.0,0,0
1771941955.32429,1771941955.2773824,38.57421875,-810.05859375,491.69921875,-837.890625,0.0,0,0
1771941955.324348,1771941955.2812748,-4.39453125,492.67578125,100.5859375,389.6484375,0.0,0,0
1771941955.324391,1771941955.285167,-64.453125,-937.98828125,-358.3984375,-895.99609375,0.0,0,0
1771941955.3244429,1771941955.2890592,-43.45703125,-961.42578125,-222.65625,-1000.0,0.0,0,0
1771941955.3835578,1771941955.2931113,19.04296875,484.375,284.1796875,339.35546875,0.0,0,0
1771941955.3836958,1771941955.2970035,34.1796875,-835.44921875,499.51171875,-852.5390625,0.0,0,0
1771941955.383757,1771941955.300896,16.11328125,684.5703125,188.4765625,571.2890625,0.0,0,0
1771941955.3838232,1771941955.304788,-27.83203125,-758.30078125,-310.546875,-751.46484375,0.0,0,0
1771941955.383883,1771941955.3086805,-18.5546875,-1000.0,-248.53515625,-1000.0,0.0,0,0
1771941955.383935,1771941955.3125727,13.671875,351.5625,264.16015625,161.62109375,0.0,0,0
1771941955.383978,1771941955.316465,24.90234375,-851.07421875,511.71875,-875.9765625,0.0,0,0
1771941955.384021,1771941955.3203573,7.32421875,785.15625,235.83984375,677.24609375,0.0,0,0
1771941955.38407,1771941955.3242495,-60.546875,-590.8203125,-247.55859375,-655.2734375,0.0,0,0
1771941955.3841228,1771941955.328142,-75.68359375,-1000.0,-278.3203125,-1000.0,0.0,0,0
1771941955.384175,1771941955.332034,-20.01953125,74.70703125,146.484375,-145.01953125,0.0,0,0
1771941955.384237,1771941955.3359265,32.71484375,-879.8828125,509.27734375,-951.66015625,0.0,0,0
1771941955.430187,1771941955.340047,3.41796875,812.98828125,332.51953125,793.45703125,0.0,0,0
1771941955.430342,1771941955.3439393,-51.7578125,-544.921875,-200.1953125,-593.75,0.0,0,0
1771941955.430409,1771941955.3478315,-51.26953125,-1000.0,-326.171875,-1000.0,0.0,0,0
1771941955.4304671,1771941955.351724,-11.23046875,-291.9921875,76.171875,-443.84765625,0.0,0,0
1771941955.430527,1771941955.355616,41.015625,-981.93359375,501.46484375,920.41015625,0.0,0,0
1771941955.430589,1771941955.3595085,21.484375,851.07421875,336.9140625,889.6484375,0.0,0,0
1771941955.430649,1771941955.363401,-6.34765625,-558.10546875,-178.7109375,-546.875,0.0,0,0
1771941955.430722,1771941955.3672931,-41.015625,-1000.0,-330.56640625,-1000.0,0.0,0,0
1771941955.431048,1771941955.3711855,-36.62109375,-600.5859375,0.0,-605.46875,0.0,0,0
1771941955.43111,1771941955.3750777,20.5078125,846.19140625,464.35546875,786.62109375,0.0,0,0
1771941955.431178,1771941955.3789701,11.71875,991.2109375,375.48828125,-989.2578125,0.0,0,0
1771941955.4312372,1771941955.3828626,-21.97265625,-444.82421875,-119.62890625,-389.6484375,0.0,0,0
1771941955.473876,1771941955.3869724,-42.96875,-1000.0,-309.08203125,-1000.0,0.0,0,0
1771941955.4739509,1771941955.3908648,-20.01953125,-718.75,-41.9921875,-741.2109375,0.0,0,0
1771941955.473995,1771941955.394757,33.69140625,711.42578125,408.69140625,655.2734375,0.0,0,0
1771941955.4740381,1771941955.3986495,54.19921875,-914.0625,413.0859375,-911.1328125,0.0,0,0
1771941955.474081,1771941955.4025419,1.953125,-318.359375,-61.5234375,-209.47265625,0.0,0,0
1771941955.474123,1771941955.4064343,-56.15234375,-1000.0,-337.40234375,-1000.0,0.0,0,0
1771941955.474165,1771941955.4103265,-41.50390625,-834.47265625,-103.02734375,-826.66015625,0.0,0,0
1771941955.474208,1771941955.414219,33.203125,522.4609375,404.78515625,558.10546875,0.0,0,0
1771941955.474251,1771941955.4181113,53.22265625,-822.265625,490.72265625,-850.09765625,0.0,0,0
1771941955.474296,1771941955.4220035,0.9765625,8.7890625,33.203125,98.14453125,0.0,0,0
1771941955.474337,1771941955.425896,-16.6015625,-1000.0,-339.84375,-1000.0,0.0,0,0
1771941955.47438,1771941955.4297884,22.94921875,-851.07421875,-120.60546875,-880.859375,0.0,0,0
1771941955.51883,1771941955.4338875,59.08203125,518.06640625,392.08984375,520.5078125,0.0,0,0
1771941955.518958,1771941955.43778,51.7578125,-808.10546875,499.51171875,-836.9140625,0.0,0,0
1771941955.519008,1771941955.441672,4.39453125,372.0703125,117.67578125,371.58203125,0.0,0,0
1771941955.519053,1771941955.4455645,-50.29296875,-1000.0,-315.4296875,-935.05859375,0.0,0,0
1771941955.519097,1771941955.449457,-42.96875,-896.97265625,-166.015625,-969.23828125,0.0,0,0
1771941955.5191412,1771941955.4533494,15.625,539.55078125,358.88671875,440.4296875,0.0,0,0
1771941955.5191839,1771941955.4572418,69.82421875,-828.125,538.57421875,-837.40234375,0.0,0,0
1771941955.519237,1771941955.4611342,50.29296875,618.1640625,210.9375,588.37890625,0.0,0,0
1771941955.519295,1771941955.4650266,-24.90234375,-833.0078125,-269.53125,-782.2265625,0.0,0,0
1771941955.519357,1771941955.4689188,-22.94921875,-1000.0,-194.82421875,-1000.0,0.0,0,0
1771941955.519419,1771941955.4728112,29.78515625,404.78515625,301.7578125,282.2265625,0.0,0,0
1771941955.5194812,1771941955.4767036,58.10546875,-843.75,556.15234375,-857.421875,0.0,0,0
1771941955.58014,1771941955.480877,40.52734375,750.0,291.50390625,713.37890625,0.0,0,0
1771941955.58027,1771941955.4847693,-32.2265625,-664.0625,-218.26171875,-660.64453125,0.0,0,0
1771941955.58032,1771941955.4886618,-35.15625,-1000.0,-206.54296875,-1000.0,0.0,0,0
1771941955.580364,1771941955.4925542,7.8125,243.65234375,268.5546875,45.41015625,0.0,0,0
1771941955.580418,1771941955.4964466,20.01953125,-854.4921875,556.640625,-907.71484375,0.0,0,0
1771941955.5804732,1771941955.500339,-4.39453125,803.22265625,337.40234375,790.0390625,0.0,0,0
1771941955.580517,1771941955.5042315,-38.57421875,-544.921875,-165.0390625,-591.30859375,0.0,0,0
1771941955.580587,1771941955.5081239,-53.22265625,-1000.0,-229.4921875,-1000.0,0.0,0,0
1771941955.580637,1771941955.5120163,-36.62109375,-137.6953125,190.91796875,-254.39453125,0.0,0,0
1771941955.580698,1771941955.5159087,9.27734375,-932.6171875,569.3359375,995.1171875,0.0,0,0
1771941955.580756,1771941955.5198011,-9.27734375,831.0546875,368.65234375,860.83984375,0.0,0,0
1771941955.5807989,1771941955.5236936,-30.2734375,-548.828125,-141.6015625,-553.22265625,0.0,0,0
1771941955.609751,1771941955.527779,-19.04296875,-1000.0,-247.0703125,-1000.0,0.0,0,0
1771941955.609847,1771941955.5316715,-7.32421875,-509.765625,95.703125,-483.3984375,0.0,0,0
1771941955.6098938,1771941955.535564,36.62109375,916.9921875,549.8046875,860.3515625,0.0,0,0
1771941955.6099389,1771941955.5394564,34.66796875,923.828125,440.4296875,978.515625,0.0,0,0
1771941955.609982,1771941955.5433488,-32.2265625,-521.97265625,-97.16796875,-433.10546875,0.0,0,0
1771941955.610026,1771941955.5472412,-54.6875,-1000.0,-274.4140625,-1000.0,0.0,0,0
1771941955.610066,1771941955.5511339,-20.99609375,-698.73046875,16.6015625,-627.44140625,0.0,0,0
1771941955.61011,1771941955.5550263,13.671875,741.2109375,463.8671875,723.6328125,0.0,0,0
1771941955.610152,1771941955.5589187,22.4609375,-941.40625,436.5234375,-933.59375,0.0,0,0
1771941955.610195,1771941955.5628111,-24.4140625,-368.1640625,-73.73046875,-256.8359375,0.0,0,0
1771941955.610246,1771941955.5667036,-46.875,-1000.0,-334.47265625,-1000.0,0.0,0,0
1771941955.610286,1771941955.570596,-16.11328125,-814.453125,-56.640625,-738.76953125,0.0,0,0
1771941955.6699898,1771941955.5747485,20.5078125,573.73046875,418.9453125,616.69921875,0.0,0,0
1771941955.670136,1771941955.578641,33.203125,-850.5859375,457.51953125,-869.62890625,0.0,0,0
1771941955.670203,1771941955.5825334,-11.23046875,-162.59765625,18.06640625,9.765625,0.0,0,0
1771941955.6702652,1771941955.586426,-70.80078125,-1000.0,-344.7265625,-1000.0,0.0,0,0
1771941955.670324,1771941955.5903184,-72.75390625,-835.44921875,-120.60546875,-827.1484375,0.0,0,0
1771941955.670392,1771941955.5942109,-17.08984375,513.18359375,411.1328125,561.03515625,0.0,0,0
1771941955.6704519,1771941955.5981033,-22.94921875,-807.6171875,492.67578125,-846.6796875,0.0,0,0
1771941955.670505,1771941955.601996,-65.4296875,247.55859375,77.1484375,253.41796875,0.0,0,0
1771941955.670549,1771941955.6058884,-107.91015625,-1000.0,-338.8671875,-990.234375,0.0,0,0
1771941955.670592,1771941955.6097808,-109.86328125,-877.44140625,-164.0625,-944.3359375,0.0,0,0
1771941955.670636,1771941955.6136734,-37.59765625,528.3203125,338.8671875,451.171875,0.0,0,0
1771941955.670697,1771941955.6175659,-0.48828125,-818.84765625,508.30078125,-833.0078125,0.0,0,0
1771941955.72999,1771941955.6217787,-40.0390625,572.265625,190.4296875,511.71875,0.0,0,0
1771941955.730144,1771941955.6256714,-83.49609375,-884.765625,-272.94921875,-845.21484375,0.0,0,0
1771941955.730218,1771941955.6295638,-61.03515625,-995.60546875,-182.6171875,-1000.0,0.0,0,0
1771941955.730279,1771941955.6334565,-4.39453125,461.42578125,310.05859375,360.3515625,0.0,0,0
1771941955.730339,1771941955.637349,4.39453125,-842.28515625,505.859375,-845.21484375,0.0,0,0
1771941955.730398,1771941955.6412416,-32.71484375,723.14453125,219.23828125,694.3359375,0.0,0,0
1771941955.730458,1771941955.645134,-75.1953125,-705.078125,-293.9453125,-695.80078125,0.0,0,0
1771941955.730535,1771941955.6490266,-69.82421875,-1000.0,-285.15625,-1000.0,0.0,0,0
1771941955.730603,1771941955.652919,3.41796875,296.875,225.09765625,164.55078125,0.0,0,0
1771941955.730706,1771941955.6568117,51.7578125,-853.515625,534.66796875,-879.8828125,0.0,0,0
1771941955.730774,1771941955.6607044,18.06640625,801.7578125,267.578125,764.6484375,0.0,0,0
1771941955.730842,1771941955.6645968,-68.84765625,-571.2890625,-241.69921875,-608.3984375,0.0,0,0
1771941955.7591848,1771941955.6686475,-94.7265625,-1000.0,-269.53125,-1000.0,0.0,0,0
1771941955.759329,1771941955.67254,-47.36328125,51.7578125,157.71484375,-150.390625,0.0,0,0
1771941955.759394,1771941955.6764326,-8.30078125,-883.7890625,528.3203125,-965.33203125,0.0,0,0
1771941955.759454,1771941955.680325,-31.25,811.5234375,341.796875,805.6640625,0.0,0,0
1771941955.759512,1771941955.6842177,-73.2421875,-541.50390625,-192.87109375,-581.54296875,0.0,0,0
1771941955.759572,1771941955.6881104,-93.26171875,-1000.0,-283.69140625,-1000.0,0.0,0,0
1771941955.759628,1771941955.6920028,-55.17578125,-377.9296875,95.21484375,-450.68359375,0.0,0,0
1771941955.759687,1771941955.6958954,25.87890625,986.328125,504.39453125,899.90234375,0.0,0,0
1771941955.759747,1771941955.699788,3.90625,864.74609375,366.2109375,926.7578125,0.0,0,0
1771941955.759805,1771941955.7036805,-87.890625,-565.91796875,-156.25,-502.9296875,0.0,0,0
1771941955.759881,1771941955.7075732,-88.37890625,-1000.0,-321.2890625,-1000.0,0.0,0,0
1771941955.759954,1771941955.7114656,-38.57421875,-628.90625,24.4140625,-607.91015625,0.0,0,0
1771941955.803348,1771941955.7155018,4.39453125,821.77734375,501.953125,767.578125,0.0,0,0
1771941955.803484,1771941955.7193944,-13.18359375,-996.58203125,426.26953125,-968.75,0.0,0,0
1771941955.803536,1771941955.723287,-72.75390625,-438.96484375,-85.9375,-339.84375,0.0,0,0
1771941955.803585,1771941955.7271795,-106.4453125,-1000.0,-322.75390625,-1000.0,0.0,0,0
1771941955.803628,1771941955.7310722,-73.2421875,-761.23046875,-41.50390625,-754.39453125,0.0,0,0
1771941955.803675,1771941955.7349648,-24.4140625,651.3671875,448.2421875,629.8828125,0.0,0,0
1771941955.803755,1771941955.7388575,-18.06640625,-880.37109375,461.9140625,-884.27734375,0.0,0,0
1771941955.8038201,1771941955.74275,-55.6640625,-256.34765625,-35.15625,-104.4921875,0.0,0,0
1771941955.803881,1771941955.7466426,-83.0078125,-1000.0,-380.859375,-1000.0,0.0,0,0
1771941955.80394,1771941955.7505352,-34.66796875,-833.49609375,-131.34765625,-826.171875,0.0,0,0
1771941955.804002,1771941955.7544277,25.390625,518.5546875,376.46484375,560.546875,0.0,0,0
1771941955.804054,1771941955.7583203,37.59765625,-814.94140625,477.05078125,-848.14453125,0.0,0,0
1771941955.849994,1771941955.762425,0.0,91.796875,49.31640625,159.66796875,0.0,0,0
1771941955.850123,1771941955.7663176,-44.921875,-1000.0,-358.88671875,-1000.0,0.0,0,0
1771941955.850184,1771941955.77021,-26.3671875,-857.421875,-139.6484375,-894.53125,0.0,0,0
1771941955.8502452,1771941955.7741027,28.3203125,519.04296875,354.00390625,501.46484375,0.0,0,0
1771941955.850312,1771941955.7779953,52.24609375,-809.5703125,476.5625,-831.54296875,0.0,0,0
1771941955.850372,1771941955.781888,11.71875,479.98046875,155.2734375,450.68359375,0.0,0,0
1771941955.850431,1771941955.7857807,-45.41015625,-949.21875,-307.6171875,-898.4375,0.0,0,0
1771941955.850498,1771941955.789673,-19.53125,-944.82421875,-206.0546875,-989.74609375,0.0,0,0
1771941955.8505569,1771941955.7935658,31.73828125,504.39453125,296.875,416.9921875,0.0,0,0
1771941955.850615,1771941955.7974584,25.87890625,-830.56640625,501.46484375,-839.84375,0.0,0,0
1771941955.850689,1771941955.801351,-1.46484375,651.3671875,195.80078125,642.578125,0.0,0,0
1771941955.8507469,1771941955.8052437,-43.9453125,-791.50390625,-302.734375,-748.53515625,0.0,0,0
1771941955.894067,1771941955.809339,-52.734375,-1000.0,-229.4921875,-1000.0,0.0,0,0
1771941955.894221,1771941955.8132317,3.90625,353.515625,242.1875,253.90625,0.0,0,0
1771941955.8942862,1771941955.8171244,32.71484375,-846.19140625,502.9296875,-865.234375,0.0,0,0
1771941955.89435,1771941955.821017,8.30078125,768.5546875,269.04296875,731.4453125,0.0,0,0
1771941955.894418,1771941955.8249097,-39.0625,-615.72265625,-246.09375,-641.6015625,0.0,0,0
1771941955.894486,1771941955.8288023,-53.22265625,-1000.0,-278.80859375,-1000.0,0.0,0,0
1771941955.894542,1771941955.832695,-4.39453125,94.23828125,146.97265625,-9.27734375,0.0,0,0
1771941955.8946009,1771941955.8365877,44.43359375,-876.953125,488.76953125,-924.8046875,0.0,0,0
1771941955.894665,1771941955.8404803,23.4375,815.91796875,281.25,808.10546875,0.0,0,0
1771941955.8947232,1771941955.844373,-45.41015625,-550.29296875,-236.328125,-586.42578125,0.0,0,0
1771941955.8947861,1771941955.8482656,-45.41015625,-1000.0,-315.4296875,-1000.0,0.0,0,0
1771941955.894846,1771941955.8521583,18.5546875,-194.82421875,76.66015625,-243.1640625,0.0,0,0
1771941955.938893,1771941955.8562417,73.73046875,-950.1953125,470.21484375,982.91015625,0.0,0,0
1771941955.939014,1771941955.8601344,70.3125,836.9140625,312.98828125,890.625,0.0,0,0
1771941955.9390788,1771941955.864027,3.90625,-551.26953125,-217.28515625,-512.20703125,0.0,0,0
1771941955.9392,1771941955.8679197,-41.015625,-1000.0,-354.98046875,-1000.0,0.0,0,0
1771941955.939282,1771941955.8718123,-17.578125,-581.54296875,-5.37109375,-527.34375,0.0,0,0
1771941955.939351,1771941955.875705,37.109375,875.0,477.5390625,824.70703125,0.0,0,0
1771941955.9394119,1771941955.8795977,36.1328125,946.2890625,383.7890625,997.0703125,0.0,0,0
1771941955.93949,1771941955.8834903,-19.04296875,-513.671875,-142.578125,-398.92578125,0.0,0,0
1771941955.939568,1771941955.8873832,-39.0625,-1000.0,-347.16796875,-1000.0,0.0,0,0
1771941955.9396238,1771941955.891276,-5.37109375,-685.546875,-63.96484375,-648.92578125,0.0,0,0
1771941955.93968,1771941955.8951685,35.15625,739.2578125,404.296875,699.70703125,0.0,0,0
1771941955.939723,1771941955.8990612,34.1796875,-920.41015625,381.34765625,-911.62109375,0.0,0,0
1771941956.0291321,1771941955.9031363,-10.7421875,-308.10546875,-97.65625,-172.8515625,0.0,0,0
1771941956.029278,1771941955.907029,-67.87109375,-1000.0,-374.51171875,-1000.0,0.0,0,0
1771941956.0293381,1771941955.9109218,-64.94140625,-790.52734375,-114.74609375,-766.11328125,0.0,0,0
1771941956.0294,1771941955.9148145,20.99609375,573.73046875,357.91015625,592.7734375,0.0,0,0
1771941956.02946,1771941955.9187071,47.36328125,-828.125,421.38671875,-847.65625,0.0,0,0
1771941956.029522,1771941955.9225998,3.41796875,42.96875,36.1328125,145.99609375,0.0,0,0
1771941956.02958,1771941955.9264925,-32.71484375,-1000.0,-329.1015625,-1000.0,0.0,0,0
1771941956.0296352,1771941955.930385,-33.69140625,-857.421875,-129.8828125,-841.796875,0.0,0,0
1771941956.02977,1771941955.934278,12.6953125,522.4609375,369.62890625,554.19921875,0.0,0,0
1771941956.02992,1771941955.9381707,49.31640625,-808.59375,456.0546875,-839.84375,0.0,0,0
1771941956.029989,1771941955.9420633,29.296875,329.58984375,80.078125,395.5078125,0.0,0,0
1771941956.03005,1771941955.945956,-24.90234375,-1000.0,-320.3125,-943.84765625,0.0,0,0
1771941956.0457149,1771941955.9501061,-7.32421875,-890.13671875,-171.875,-930.6640625,0.0,0,0
1771941956.045838,1771941955.9539988,48.33984375,535.64453125,299.8046875,489.74609375,0.0,0,0
1771941956.045884,1771941955.9578917,61.03515625,-825.1953125,474.12109375,-839.35546875,0.0,0,0
1771941956.045933,1771941955.9617844,20.99609375,607.421875,166.50390625,626.953125,0.0,0,0
1771941956.0459762,1771941955.965677,-28.80859375,-851.5625,-345.21484375,-790.0390625,0.0,0,0
1771941956.0460212,1771941955.96957,3.90625,-1000.0,-263.18359375,-1000.0,0.0,0,0
1771941956.0460632,1771941955.9734626,57.12890625,434.08203125,253.90625,365.72265625,0.0,0,0
1771941956.046106,1771941955.9773552,69.82421875,-839.84375,478.515625,-854.98046875,0.0,0,0
1771941956.046149,1771941955.9812481,25.87890625,723.6328125,170.41015625,693.84765625,0.0,0,0
1771941956.0461912,1771941955.9851408,-45.8984375,-694.82421875,-332.03125,-682.12890625,0.0,0,0
1771941956.0462348,1771941955.9890335,-61.03515625,-1000.0,-291.50390625,-1000.0,0.0,0,0
1771941956.046278,1771941955.9929264,-11.23046875,252.9296875,165.52734375,114.2578125,0.0,0,0
1771941956.07444,1771941955.9969811,32.71484375,-855.46875,465.8203125,-894.04296875,0.0,0,0
1771941956.074566,1771941956.0008738,7.8125,807.6171875,211.42578125,790.52734375,0.0,0,0
1771941956.0746171,1771941956.0047667,-40.52734375,-552.24609375,-598.6328125,-597.16796875,0.0,0,0
1771941956.074663,1771941956.0086594,-55.17578125,-1000.0,-838.8671875,-1000.0,0.0,0,0
1771941956.074705,1771941956.012552,-16.11328125,-46.38671875,-392.08984375,-155.2734375,0.0,0,0
1771941956.074751,1771941956.016445,34.1796875,-908.203125,-17.578125,-975.5859375,0.0,0,0
1771941956.0747929,1771941956.0203376,2.9296875,821.2890625,-184.5703125,842.7734375,0.0,0,0
1771941956.074836,1771941956.0242305,-46.875,-544.43359375,-666.015625,-556.640625,0.0,0,0
1771941956.074879,1771941956.0281231,-48.33984375,-1000.0,-748.046875,-1000.0,0.0,0,0
1771941956.074919,1771941956.032016,-20.01953125,-454.58984375,-369.62890625,-445.3125,0.0,0,0
1771941956.074961,1771941956.0359087,32.71484375,947.265625,46.875,881.8359375,0.0,0,0
1771941956.075003,1771941956.0398016,15.625,898.92578125,-67.3828125,960.9375,0.0,0,0
1771941956.13342,1771941956.043847,-53.7109375,-539.55078125,-543.45703125,-445.3125,0.0,0,0
1771941956.133539,1771941956.04774,-75.68359375,-1000.0,-720.21484375,-1000.0,0.0,0,0
1771941956.133575,1771941956.0516326,-35.15625,-622.55859375,-381.8359375,-612.79296875,0.0,0,0
1771941956.133612,1771941956.0555255,8.7890625,809.5703125,109.86328125,746.09375,0.0,0,0
1771941956.133648,1771941956.0594182,6.34765625,-962.890625,55.6640625,-942.3828125,0.0,0,0
1771941956.1338592,1771941956.063311,-47.8515625,-367.1875,-404.296875,-268.06640625,0.0,0,0
1771941956.133899,1771941956.0672038,-79.58984375,-1000.0,-632.32421875,-1000.0,0.0,0,0
1771941956.133931,1771941956.0710967,-49.31640625,-774.90234375,-366.69921875,-753.90625,0.0,0,0
1771941956.133965,1771941956.0749893,21.97265625,641.11328125,151.3671875,624.0234375,0.0,0,0
1771941956.133999,1771941956.0788822,22.94921875,-876.953125,194.3359375,-877.9296875,0.0,0,0
1771941956.1340318,1771941956.0827749,-43.45703125,-253.90625,-258.7890625,-58.59375,0.0,0,0
1771941956.1340642,1771941956.0866678,-70.80078125,-1000.0,-576.66015625,-1000.0,0.0,0,0
1771941956.1796858,1771941956.0907025,-42.48046875,-827.1484375,-317.3828125,-813.4765625,0.0,0,0
1771941956.1798851,1771941956.0945954,25.87890625,509.765625,214.35546875,561.03515625,0.0,0,0
1771941956.17996,1771941956.098488,58.59375,-808.10546875,309.5703125,-840.33203125,0.0,0,0
1771941956.1800241,1771941956.102381,19.04296875,212.890625,-72.75390625,278.80859375,0.0,0,0
1771941956.180085,1771941956.106274,-29.296875,-1000.0,-469.23828125,-1000.0,0.0,0,0
1771941956.180143,1771941956.1101665,-15.625,-874.0234375,-286.62109375,-893.06640625,0.0,0,0
1771941956.180188,1771941956.1140594,24.4140625,526.3671875,214.35546875,521.97265625,0.0,0,0
1771941956.1802409,1771941956.1179523,34.1796875,-812.5,363.28125,-843.26171875,0.0,0,0
1771941956.1802938,1771941956.121845,-10.25390625,512.20703125,3.41796875,481.4453125,0.0,0,0
1771941956.180356,1771941956.125738,-79.1015625,-928.7109375,-474.12109375,-871.09375,0.0,0,0
1771941956.180435,1771941956.1296306,-54.19921875,-967.7734375,-342.28515625,-1000.0,0.0,0,0
1771941956.180496,1771941956.1335235,18.06640625,481.4453125,176.26953125,400.390625,0.0,0,0
1771941956.223907,1771941956.1376243,61.03515625,-833.984375,372.55859375,-845.21484375,0.0,0,0
1771941956.224024,1771941956.141517,26.85546875,679.19921875,83.0078125,691.40625,0.0,0,0
1771941956.224074,1771941956.1454098,-56.15234375,-758.30078125,-397.94921875,-708.984375,0.0,0,0
1771941956.2241201,1771941956.1493027,-58.10546875,-1000.0,-361.81640625,-1000.0,0.0,0,0
1771941956.224163,1771941956.1531956,-3.41796875,328.61328125,93.26171875,213.8671875,0.0,0,0
1771941956.2242072,1771941956.1570883,40.52734375,-852.5390625,387.20703125,-875.9765625,0.0,0,0
1771941956.224253,1771941956.1609812,23.92578125,794.43359375,151.85546875,781.25,0.0,0,0
1771941956.224313,1771941956.164874,-45.41015625,-579.1015625,-370.1171875,-610.3515625,0.0,0,0
1771941956.2243571,1771941956.168767,-58.59375,-1000.0,-401.3671875,-1000.0,0.0,0,0
1771941956.224407,1771941956.1726596,-4.8828125,63.96484375,47.8515625,-21.97265625,0.0,0,0
1771941956.224449,1771941956.1765525,53.7109375,-881.8359375,410.15625,-936.03515625,0.0,0,0
1771941956.224502,1771941956.1804454,23.4375,812.98828125,207.51953125,841.796875,0.0,0,0
1771941956.270036,1771941956.1845355,-43.45703125,-543.45703125,-312.5,-552.24609375,0.0,0,0
1771941956.2701561,1771941956.1884284,-49.8046875,-1000.0,-408.69140625,-1000.0,0.0,0,0
1771941956.270221,1771941956.1923213,2.44140625,-324.70703125,-16.11328125,-300.29296875,0.0,0,0
1771941956.270282,1771941956.1962142,67.3828125,-994.62890625,416.015625,948.2421875,0.0,0,0
1771941956.2703419,1771941956.200107,48.828125,858.88671875,269.04296875,921.875,0.0,0,0
1771941956.270402,1771941956.204,-29.78515625,-557.12890625,-229.4921875,-479.98046875,0.0,0,0
1771941956.2704692,1771941956.207893,-48.33984375,-1000.0,-384.27734375,-1000.0,0.0,0,0
1771941956.270529,1771941956.2117856,-2.44140625,-632.8125,-69.3359375,-549.31640625,0.0,0,0
1771941956.270599,1771941956.2156785,52.24609375,825.1953125,373.046875,791.9921875,0.0,0,0
1771941956.270666,1771941956.2195714,43.45703125,991.69921875,303.22265625,-976.5625,0.0,0,0
1771941956.270727,1771941956.2234643,-0.48828125,-460.44921875,-185.05859375,-352.05078125,0.0,0,0
1771941956.270795,1771941956.2273571,-32.71484375,-1000.0,-396.484375,-1000.0,0.0,0,0
1771941956.328782,1771941956.2315135,-20.99609375,-741.2109375,-95.703125,-649.90234375,0.0,0,0
1771941956.328876,1771941956.2354064,45.8984375,674.31640625,375.9765625,682.12890625,0.0,0,0
1771941956.3289301,1771941956.2392993,48.828125,-889.16015625,371.58203125,-897.94921875,0.0,0,0
1771941956.3289752,1771941956.2431922,-10.7421875,-266.11328125,-73.73046875,-112.3046875,0.0,0,0
1771941956.3290188,1771941956.247085,-41.015625,-1000.0,-381.34765625,-1000.0,0.0,0,0
1771941956.32906,1771941956.250978,2.44140625,-823.73046875,-132.8125,-744.140625,0.0,0,0
1771941956.329103,1771941956.254871,68.359375,537.59765625,355.95703125,598.14453125,0.0,0,0
1771941956.329151,1771941956.2587638,85.9375,-821.77734375,399.4140625,-848.6328125,0.0,0,0
1771941956.329206,1771941956.2626567,46.38671875,42.48046875,-14.6484375,214.35546875,0.0,0,0
1771941956.329258,1771941956.2665496,3.41796875,-1000.0,-402.34375,-1000.0,0.0,0,0
1771941956.3293078,1771941956.2704425,32.71484375,-854.4921875,-214.84375,-836.42578125,0.0,0,0
1771941956.329369,1771941956.2743354,79.1015625,519.04296875,286.62109375,560.05859375,0.0,0,0
1771941956.3588889,1771941956.2784042,87.40234375,-808.59375,394.04296875,-840.8203125,0.0,0,0
1771941956.359015,1771941956.2822971,57.6171875,402.83203125,20.01953125,477.5390625,0.0,0,0
1771941956.359081,1771941956.28619,-5.37109375,-993.1640625,-395.01953125,-909.66796875,0.0,0,0
1771941956.359134,1771941956.290083,-0.48828125,-902.34375,-240.234375,-921.38671875,0.0,0,0
1771941956.359185,1771941956.2939758,61.5234375,541.50390625,256.34765625,510.25390625,0.0,0,0
1771941956.359234,1771941956.297869,78.61328125,-827.1484375,431.15234375,-849.609375,0.0,0,0
1771941956.359283,1771941956.3017619,49.8046875,610.3515625,130.859375,666.015625,0.0,0,0
1771941956.3593311,1771941956.3056548,-0.9765625,-837.890625,-330.56640625,-755.859375,0.0,0,0
1771941956.3593931,1771941956.3095477,1.46484375,-1000.0,-269.04296875,-1000.0,0.0,0,0
1771941956.3594391,1771941956.3134406,53.7109375,395.99609375,202.63671875,344.7265625,0.0,0,0
1771941956.359497,1771941956.3173335,97.16796875,-846.19140625,460.44921875,-862.79296875,0.0,0,0
1771941956.359553,1771941956.3212264,78.61328125,759.765625,215.33203125,779.78515625,0.0,0,0
1771941956.417366,1771941956.3252869,-4.8828125,-641.11328125,-305.17578125,-626.46484375,0.0,0,0
1771941956.4175282,1771941956.3291798,-4.8828125,-1000.0,-318.84765625,-1000.0,0.0,0,0
1771941956.417592,1771941956.3330727,61.03515625,193.84765625,174.31640625,130.859375,0.0,0,0
1771941956.417666,1771941956.3369656,87.890625,-859.375,494.62890625,-901.85546875,0.0,0,0
1771941956.417727,1771941956.3408587,78.125,807.12890625,249.0234375,821.2890625,0.0,0,0
1771941956.4177868,1771941956.3447516,34.66796875,-546.875,-256.34765625,-565.4296875,0.0,0,0
1771941956.417848,1771941956.3486445,19.04296875,-1000.0,-312.01171875,-1000.0,0.0,0,0
1771941956.4179149,1771941956.3525374,55.6640625,-150.87890625,65.91796875,-166.015625,0.0,0,0
1771941956.4179761,1771941956.3564303,88.37890625,-936.5234375,450.1953125,-997.0703125,0.0,0,0
1771941956.4180532,1771941956.3603234,55.17578125,833.0078125,304.6875,893.5546875,0.0,0,0
1771941956.418141,1771941956.3642163,-2.44140625,-549.31640625,-223.6328125,-500.48828125,0.0,0,0
1771941956.4182332,1771941956.3681092,-35.15625,-1000.0,-365.72265625,-1000.0,0.0,0,0
1771941956.448798,1771941956.3721588,7.32421875,-516.11328125,-17.08984375,-421.875,0.0,0,0
1771941956.4488902,1771941956.3760517,67.87109375,914.55078125,420.41015625,870.1171875,0.0,0,0
1771941956.448939,1771941956.3799448,52.734375,924.31640625,313.4765625,986.328125,0.0,0,0
1771941956.4489841,1771941956.3838377,-8.7890625,-522.4609375,-178.7109375,-394.53125,0.0,0,0
1771941956.449028,1771941956.3877306,-30.2734375,-1000.0,-369.140625,-1000.0,0.0,0,0
1771941956.449069,1771941956.3916237,33.203125,-666.015625,-62.98828125,-567.3828125,0.0,0,0
1771941956.449111,1771941956.3955166,72.265625,769.53125,395.99609375,738.76953125,0.0,0,0
1771941956.449155,1771941956.3994095,52.24609375,-947.265625,341.796875,-918.9453125,0.0,0,0
1771941956.449198,1771941956.4033027,19.53125,-363.28125,-131.34765625,-159.1796875,0.0,0,0
1771941956.449453,1771941956.4071956,-20.01953125,-1000.0,-383.30078125,-1000.0,0.0,0,0
1771941956.4494982,1771941956.4110885,2.9296875,-817.3828125,-133.7890625,-693.84765625,0.0,0,0
1771941956.449541,1771941956.4149816,64.453125,560.546875,364.2578125,630.37109375,0.0,0,0
1771941956.5073972,1771941956.4190218,91.30859375,-840.8203125,412.109375,-859.375,0.0,0,0
1771941956.507541,1771941956.4229147,43.45703125,-110.3515625,-37.109375,113.28125,0.0,0,0
1771941956.507606,1771941956.4268079,-1.46484375,-1000.0,-355.95703125,-1000.0,0.0,0,0
1771941956.5076742,1771941956.4307008,37.109375,-845.21484375,-136.23046875,-758.7890625,0.0,0,0
1771941956.507735,1771941956.4345937,64.453125,521.484375,333.49609375,595.21484375,0.0,0,0
1771941956.507794,1771941956.4384868,61.03515625,-811.5234375,450.1953125,-847.16796875,0.0,0,0
1771941956.5078552,1771941956.4423797,43.9453125,187.98828125,61.03515625,375.9765625,0.0,0,0
1771941956.507927,1771941956.4462729,1.46484375,-1000.0,-370.1171875,-970.703125,0.0,0,0
1771941956.5079942,1771941956.4501657,18.5546875,-868.1640625,-214.35546875,-872.0703125,0.0,0,0
1771941956.508053,1771941956.4540586,91.796875,523.92578125,270.5078125,542.48046875,0.0,0,0
1771941956.508132,1771941956.4579518,126.953125,-817.3828125,423.828125,-847.16796875,0.0,0,0
1771941956.5081909,1771941956.4618447,98.14453125,578.61328125,111.81640625,628.90625,0.0,0,0
1771941956.5539908,1771941956.4658742,27.34375,-876.46484375,-335.9375,-800.78125,0.0,0,0
1771941956.554129,1771941956.4697673,28.80859375,-1000.0,-243.1640625,-1000.0,0.0,0,0
1771941956.554189,1771941956.4736602,85.44921875,444.3359375,237.79296875,412.59765625,0.0,0,0
1771941956.55425,1771941956.4775534,118.65234375,-839.84375,465.33203125,-858.88671875,0.0,0,0
1771941956.5543108,1771941956.4814463,66.89453125,720.703125,197.75390625,757.8125,0.0,0,0
1771941956.554371,1771941956.4853394,-7.32421875,-699.70703125,-287.109375,-658.69140625,0.0,0,0
1771941956.5544388,1771941956.4892323,-0.9765625,-1000.0,-291.015625,-1000.0,0.0,0,0
1771941956.554501,1771941956.4931254,56.15234375,263.18359375,182.12890625,206.0546875,0.0,0,0
1771941956.554562,1771941956.4970183,103.02734375,-854.98046875,494.62890625,-885.7421875,0.0,0,0
1771941956.554621,1771941956.5009115,92.7734375,808.59375,262.20703125,811.03515625,0.0,0,0
1771941956.554681,1771941956.5048044,26.3671875,-564.453125,-251.953125,-583.49609375,0.0,0,0
1771941956.554739,1771941956.5086975,0.9765625,-1000.0,-294.921875,-1000.0,0.0,0,0
1771941956.6287072,1771941956.5129452,39.0625,41.9921875,123.046875,-41.015625,0.0,0,0
1771941956.6288562,1771941956.5168383,85.9375,-886.23046875,476.07421875,-948.73046875,0.0,0,0
1771941956.628907,1771941956.5207312,81.54296875,815.4296875,291.50390625,850.09765625,0.0,0,0
1771941956.628952,1771941956.5246243,5.859375,-545.41015625,-233.88671875,-541.9921875,0.0,0,0
1771941956.6289961,1771941956.5285175,-23.4375,-1000.0,-341.30859375,-1000.0,0.0,0,0
1771941956.6290371,1771941956.5324106,60.05859375,-323.73046875,74.70703125,-332.03125,0.0,0,0
1771941956.629083,1771941956.5363035,112.79296875,-993.1640625,488.28125,922.8515625,0.0,0,0
1771941956.62913,1771941956.5401967,101.5625,856.4453125,318.359375,949.21875,0.0,0,0
1771941956.6291819,1771941956.5440898,66.89453125,-560.546875,-177.734375,-451.66015625,0.0,0,0
1771941956.629236,1771941956.5479827,35.15625,-1000.0,-311.5234375,-1000.0,0.0,0,0
1771941956.629278,1771941956.5518758,62.5,-633.7890625,20.01953125,-488.28125,0.0,0,0
1771941956.62932,1771941956.555769,118.65234375,817.3828125,458.984375,796.875,0.0,0,0
1771941956.644149,1771941956.5598617,101.5625,-994.140625,384.765625,-956.54296875,0.0,0,0
1771941956.644248,1771941956.5637546,43.45703125,-437.01171875,-126.953125,-272.94921875,0.0,0,0
1771941956.644301,1771941956.5676477,18.06640625,-1000.0,-361.328125,-1000.0,0.0,0,0
1771941956.644344,1771941956.5715408,58.59375,-764.16015625,-53.22265625,-609.86328125,0.0,0,0
1771941956.6443882,1771941956.575434,136.23046875,648.92578125,433.10546875,678.22265625,0.0,0,0
1771941956.6444318,1771941956.579327,153.3203125,-880.859375,459.9609375,-884.27734375,0.0,0,0
1771941956.644475,1771941956.5832202,81.0546875,-259.27734375,-3.41796875,-3.41796875,0.0,0,0
1771941956.644518,1771941956.5871131,25.390625,-1000.0,-313.4765625,-1000.0,0.0,0,0
1771941956.6445582,1771941956.5910063,38.57421875,-832.03125,-98.14453125,-742.1875,0.0,0,0
1771941956.644605,1771941956.5948994,85.44921875,516.11328125,354.98046875,601.07421875,0.0,0,0
1771941956.6446478,1771941956.5987926,79.58984375,-812.98828125,441.40625,-843.75,0.0,0,0
1771941956.644691,1771941956.6026857,36.62109375,116.2109375,13.18359375,290.0390625,0.0,0,0
1771941956.689295,1771941956.6067617,-3.90625,-1000.0,-377.44140625,-1000.0,0.0,0,0
1771941956.689394,1771941956.6106548,26.3671875,-862.3046875,-187.01171875,-830.56640625,0.0,0,0
1771941956.6894562,1771941956.614548,87.890625,521.97265625,282.71484375,562.01171875,0.0,0,0
1771941956.6895292,1771941956.618441,125.9765625,-809.5703125,443.359375,-844.7265625,0.0,0,0
1771941956.689588,1771941956.6223342,106.93359375,449.21875,60.546875,548.828125,0.0,0,0
1771941956.689645,1771941956.6262274,38.0859375,-962.40234375,-435.05859375,-867.67578125,0.0,0,0
1771941956.689704,1771941956.6301205,44.921875,-940.4296875,-336.42578125,-951.171875,0.0,0,0
1771941956.689764,1771941956.6340137,106.93359375,500.48828125,138.671875,484.86328125,0.0,0,0
1771941956.689822,1771941956.6379068,118.1640625,-830.56640625,322.75390625,-852.5390625,0.0,0,0
1771941956.689899,1771941956.6418,76.66015625,656.73828125,-3.90625,707.51953125,0.0,0,0
1771941956.689974,1771941956.645693,24.4140625,-783.203125,-496.58203125,-720.703125,0.0,0,0
1771941956.6900501,1771941956.6495862,19.53125,-1000.0,-433.59375,-1000.0,0.0,0,0
1771941956.7338848,1771941956.6536524,66.89453125,343.75,47.8515625,317.3828125,0.0,0,0
1771941956.7340071,1771941956.6575456,113.28125,-850.5859375,330.078125,-871.58203125,0.0,0,0
1771941956.734072,1771941956.6614387,82.03125,788.0859375,84.9609375,792.96875,0.0,0,0
1771941956.734133,1771941956.6653318,0.48828125,-615.72265625,-422.36328125,-618.65234375,0.0,0,0
1771941956.7341938,1771941956.669225,-24.4140625,-1000.0,-440.4296875,-1000.0,0.0,0,0
1771941956.73425,1771941956.673118,41.015625,219.23828125,49.8046875,160.15625,0.0,0,0
1771941956.734307,1771941956.6770113,80.56640625,-853.02734375,365.234375,-890.625,0.0,0,0
1771941956.734369,1771941956.6809044,51.7578125,795.8984375,127.44140625,832.03125,0.0,0,0
1771941956.734427,1771941956.6847975,16.6015625,-534.66796875,-361.81640625,-534.1796875,0.0,0,0
1771941956.734504,1771941956.6886907,5.37109375,-1000.0,-450.68359375,-1000.0,0.0,0,0
1771941956.734559,1771941956.6925838,41.50390625,-299.8046875,-78.125,-212.40234375,0.0,0,0
1771941956.734635,1771941956.696477,84.47265625,-985.3515625,333.984375,972.65625,0.0,0,0
1771941956.778804,1771941956.700534,72.265625,853.515625,189.94140625,918.9453125,0.0,0,0
1771941956.7788968,1771941956.7044272,31.25,-559.5703125,-331.54296875,-479.4921875,0.0,0,0
1771941956.778947,1771941956.7083204,7.32421875,-1000.0,-469.7265625,-1000.0,0.0,0,0
1771941956.7789881,1771941956.7122135,48.33984375,-566.89453125,-101.07421875,-412.109375,0.0,0,0
1771941956.779032,1771941956.7161067,124.0234375,875.9765625,362.3046875,850.09765625,0.0,0,0
1771941956.7790751,1771941956.7199998,142.08984375,966.30859375,307.6171875,-989.2578125,0.0,0,0
1771941956.779118,1771941956.723893,94.23828125,-489.74609375,-205.078125,-346.19140625,0.0,0,0
1771941956.779161,1771941956.7277863,50.78125,-1000.0,-416.9921875,-1000.0,0.0,0,0
1771941956.779201,1771941956.7316794,63.4765625,-610.83984375,-85.44921875,-523.4375,0.0,0,0
1771941956.779244,1771941956.7355726,100.5859375,746.58203125,358.88671875,729.00390625,0.0,0,0
1771941956.779287,1771941956.7394657,104.00390625,-924.8046875,337.40234375,-906.73828125,0.0,0,0
1771941956.77933,1771941956.7433589,47.36328125,-289.55078125,-88.37890625,-68.359375,0.0,0,0
1771941956.825063,1771941956.7474074,15.625,-1000.0,-376.953125,-1000.0,0.0,0,0
1771941956.8252869,1771941956.7513008,52.24609375,-825.68359375,-129.8828125,-698.2421875,0.0,0,0
1771941956.825517,1771941956.755194,110.3515625,537.109375,357.91015625,622.0703125,0.0,0,0
1771941956.825566,1771941956.759087,142.08984375,-825.1953125,427.24609375,-852.5390625,0.0,0,0
1771941956.82561,1771941956.7629802,89.84375,3.90625,48.828125,228.02734375,0.0,0,0
1771941956.825658,1771941956.7668734,30.76171875,-1000.0,-314.453125,-1000.0,0.0,0,0
1771941956.8256981,1771941956.7707667,49.8046875,-852.05078125,-164.0625,-800.29296875,0.0,0,0
1771941956.82576,1771941956.7746599,77.1484375,519.53125,330.56640625,582.51953125,0.0,0,0
1771941956.825804,1771941956.778553,104.98046875,-808.10546875,460.44921875,-843.75,0.0,0,0
1771941956.825846,1771941956.7824461,94.7265625,337.890625,85.9375,472.16796875,0.0,0,0
1771941956.825888,1771941956.7863393,24.4140625,-1000.0,-338.37890625,-918.45703125,0.0,0,0
1771941956.8259299,1771941956.7902327,28.3203125,-891.11328125,-184.08203125,-909.1796875,0.0,0,0
1771941956.882538,1771941956.794272,80.078125,536.1328125,297.8515625,518.5546875,0.0,0,0
1771941956.882703,1771941956.798165,99.609375,-824.21875,434.08203125,-849.609375,0.0,0,0
1771941956.882768,1771941956.8020582,70.3125,603.02734375,115.72265625,647.94921875,0.0,0,0
1771941956.8828318,1771941956.8059516,6.8359375,-851.5625,-349.12109375,-772.4609375,0.0,0,0
1771941956.882893,1771941956.8098447,17.578125,-1000.0,-297.8515625,-1000.0,0.0,0,0
1771941956.882949,1771941956.8137379,101.5625,423.33984375,200.68359375,364.2578125,0.0,0,0
1771941956.883008,1771941956.817631,100.5859375,-842.28515625,451.171875,-861.81640625,0.0,0,0
1771941956.8830762,1771941956.8215244,19.04296875,736.328125,175.29296875,764.6484375,0.0,0,0
1771941956.883153,1771941956.8254175,-64.94140625,-674.31640625,-309.08203125,-649.90234375,0.0,0,0
1771941956.883221,1771941956.8293107,-70.80078125,-1000.0,-293.9453125,-1000.0,0.0,0,0
1771941956.883295,1771941956.833204,7.32421875,225.5859375,177.24609375,178.7109375,0.0,0,0
1771941956.883352,1771941956.8370972,66.40625,-856.4453125,507.8125,-897.94921875,0.0,0,0
1771941956.9289448,1771941956.8412,27.34375,812.5,274.90234375,823.73046875,0.0,0,0
1771941956.9290528,1771941956.8450935,-41.50390625,-558.10546875,-241.2109375,-568.84765625,0.0,0,0
1771941956.9291022,1771941956.8489866,-39.0625,-1000.0,-300.29296875,-1000.0,0.0,0,0
1771941956.929146,1771941956.85288,-0.9765625,2.9296875,116.69921875,-95.703125,0.0,0,0
1771941956.92919,1771941956.8567731,42.96875,-896.484375,500.48828125,-978.515625,0.0,0,0
1771941956.9292328,1771941956.8606665,44.43359375,812.5,350.09765625,880.859375,0.0,0,0
1771941956.929286,1771941956.8645597,-72.265625,-539.0625,-156.73828125,-509.765625,0.0,0,0
1771941956.92934,1771941956.8684528,-106.4453125,-1000.0,-276.3671875,-1000.0,0.0,0,0
1771941956.9293802,1771941956.8723462,-37.59765625,-498.046875,68.359375,-391.6015625,0.0,0,0
1771941956.929423,1771941956.8762393,35.64453125,923.828125,481.93359375,876.953125,0.0,0,0
1771941956.929478,1771941956.8801327,33.69140625,917.96875,363.76953125,984.86328125,0.0,0,0
1771941956.929534,1771941956.8840258,-18.5546875,-526.3671875,-134.27734375,-393.06640625,0.0,0,0
1771941956.974524,1771941956.8881185,-39.0625,-1000.0,-290.52734375,-1000.0,0.0,0,0
1771941956.974634,1771941956.892012,-6.34765625,-669.921875,34.66796875,-515.13671875,0.0,0,0
1771941956.9746828,1771941956.895905,58.59375,771.97265625,497.0703125,759.765625,0.0,0,0
1771941956.974727,1771941956.8997984,80.56640625,-957.51953125,437.01171875,-925.78125,0.0,0,0
1771941956.974772,1771941956.9036918,28.3203125,-384.765625,-34.66796875,-154.296875,0.0,0,0
1771941956.974814,1771941956.907585,-10.7421875,-1000.0,-272.94921875,-1000.0,0.0,0,0
1771941956.974854,1771941956.9114783,0.48828125,-794.43359375,-50.29296875,-656.25,0.0,0,0
1771941956.974902,1771941956.9153714,46.875,596.19140625,429.19921875,652.34375,0.0,0,0
1771941956.974963,1771941956.9192648,64.453125,-853.02734375,481.4453125,-863.28125,0.0,0,0
1771941956.975014,1771941956.923158,8.7890625,-156.73828125,37.59765625,120.60546875,0.0,0,0
1771941956.975075,1771941956.9270513,-28.80859375,-1000.0,-298.828125,-1000.0,0.0,0,0
1771941956.975134,1771941956.9309444,5.37109375,-837.40234375,-67.3828125,-730.95703125,0.0,0,0
1771941957.018803,1771941956.9350276,51.7578125,515.625,427.24609375,606.4453125,0.0,0,0
1771941957.018931,1771941956.9389207,70.80078125,-809.08203125,525.390625,-845.21484375,0.0,0,0
1771941957.018993,1771941956.942814,44.921875,218.26171875,139.16015625,426.7578125,0.0,0,0
1771941957.019053,1771941956.9467075,-22.4609375,-1000.0,-285.15625,-952.63671875,0.0,0,0
1771941957.019111,1771941956.9506006,-13.671875,-873.53515625,-109.375,-801.26953125,0.0,0,0
1771941957.019177,1771941956.954494,42.48046875,526.3671875,396.484375,591.796875,0.0,0,0
1771941957.0192351,1771941956.9583874,60.05859375,-816.89453125,536.62109375,-860.3515625,0.0,0,0
1771941957.019299,1771941956.9622805,30.2734375,561.03515625,214.35546875,664.55078125,0.0,0,0
1771941957.019375,1771941956.966174,-17.578125,-888.671875,-232.91015625,-791.015625,0.0,0,0
1771941957.019433,1771941956.9700673,11.23046875,-999.0234375,-128.90625,-958.0078125,0.0,0,0
1771941957.019503,1771941956.9739604,69.3359375,447.265625,340.33203125,470.703125,0.0,0,0
1771941957.0195699,1771941956.9778538,74.70703125,-832.03125,557.12890625,-863.76953125,0.0,0,0
1771941957.06374,1771941956.981928,34.1796875,682.6171875,282.71484375,742.1875,0.0,0,0
1771941957.063875,1771941956.9858212,-7.8125,-764.16015625,-213.8671875,-690.91796875,0.0,0,0
1771941957.063927,1771941956.9897146,-15.13671875,-1000.0,-166.50390625,-1000.0,0.0,0,0
1771941957.06397,1771941956.993608,31.73828125,356.93359375,312.98828125,299.8046875,0.0,0,0
1771941957.0640142,1771941956.9975014,90.33203125,-854.98046875,583.49609375,-884.765625,0.0,0,0
1771941957.064061,1771941957.0013945,66.89453125,796.875,357.91015625,814.453125,0.0,0,0
1771941957.064106,1771941957.005288,3.41796875,-569.3359375,-137.6953125,-582.51953125,0.0,0,0
1771941957.064161,1771941957.0091813,-0.9765625,-1000.0,-181.640625,-1000.0,0.0,0,0
1771941957.0642161,1771941957.0130746,46.38671875,43.45703125,237.3046875,15.625,0.0,0,0
1771941957.06426,1771941957.0169678,90.8203125,-886.23046875,582.51953125,-951.66015625,0.0,0,0
1771941957.064312,1771941957.0208611,60.546875,813.96484375,393.06640625,868.1640625,0.0,0,0
1771941957.064356,1771941957.0247545,0.0,-543.45703125,-102.5390625,-519.53125,0.0,0,0
1771941957.109932,1771941957.028818,-31.25,-1000.0,-214.35546875,-1000.0,0.0,0,0
1771941957.110052,1771941957.0327113,5.37109375,-350.09765625,122.0703125,-268.06640625,0.0,0,0
1771941957.110121,1771941957.0366046,66.40625,997.55859375,530.2734375,940.4296875,0.0,0,0
1771941957.110183,1771941957.040498,46.875,859.86328125,403.3203125,943.359375,0.0,0,0
1771941957.1102421,1771941957.0443912,-17.578125,-563.96484375,-106.4453125,-439.94140625,0.0,0,0
1771941957.110303,1771941957.0482845,-48.828125,-1000.0,-249.0234375,-1000.0,0.0,0,0
1771941957.1103601,1771941957.052178,-3.90625,-637.20703125,58.59375,-502.44140625,0.0,0,0
1771941957.110424,1771941957.0560713,49.31640625,813.96484375,489.74609375,789.55078125,0.0,0,0
1771941957.110494,1771941957.0599647,54.6875,-992.1875,458.0078125,-955.078125,0.0,0,0
1771941957.110566,1771941957.063858,17.578125,-434.5703125,-28.80859375,-269.04296875,0.0,0,0
1771941957.110633,1771941957.0677514,-31.25,-1000.0,-281.25,-1000.0,0.0,0,0
1771941957.110688,1771941957.0716448,-6.34765625,-756.34765625,1.953125,-633.7890625,0.0,0,0
1771941957.153908,1771941957.0757003,60.546875,662.109375,507.8125,681.640625,0.0,0,0
1771941957.154042,1771941957.0795937,61.03515625,-889.16015625,504.39453125,-889.16015625,0.0,0,0
1771941957.1540952,1771941957.083487,8.30078125,-277.34375,20.01953125,-39.55078125,0.0,0,0
1771941957.154141,1771941957.0873804,-30.76171875,-1000.0,-287.59765625,-1000.0,0.0,0,0
1771941957.1541839,1771941957.0912738,-0.9765625,-833.984375,-35.15625,-736.328125,0.0,0,0
1771941957.154229,1771941957.0951672,68.84765625,520.01953125,475.5859375,610.3515625,0.0,0,0
1771941957.154284,1771941957.0990605,62.5,-817.3828125,534.1796875,-851.07421875,0.0,0,0
1771941957.154526,1771941957.102954,-6.8359375,59.08203125,107.91015625,228.02734375,0.0,0,0
1771941957.154573,1771941957.1068473,-42.48046875,-1000.0,-241.69921875,-1000.0,0.0,0,0
1771941957.154614,1771941957.1107407,-22.94921875,-854.98046875,48.33984375,-818.359375,0.0,0,0
1771941957.1546571,1771941957.114634,20.01953125,518.06640625,616.2109375,565.91796875,0.0,0,0
1771941957.1547,1771941957.1185274,50.29296875,-809.08203125,725.09765625,-845.703125,0.0,0,0
1771941957.2590458,1771941957.1228676,18.5546875,438.96484375,331.54296875,503.90625,0.0,0,0
1771941957.259181,1771941957.1267612,-28.80859375,-972.16796875,-122.0703125,-882.8125,0.0,0,0
1771941957.25923,1771941957.1306546,-21.484375,-924.31640625,3.41796875,-971.19140625,0.0,0,0
1771941957.259274,1771941957.134548,28.80859375,521.484375,502.44140625,457.03125,0.0,0,0
1771941957.259321,1771941957.1384413,55.6640625,-831.54296875,693.84765625,-844.23828125,0.0,0,0
1771941957.2593658,1771941957.1423347,20.99609375,645.5078125,361.81640625,688.4765625,0.0,0,0
1771941957.25941,1771941957.1462283,-35.64453125,-801.26953125,-137.6953125,-734.86328125,0.0,0,0
1771941957.2594528,1771941957.1501217,-15.625,-1000.0,-72.265625,-1000.0,0.0,0,0
1771941957.259498,1771941957.154015,53.7109375,375.0,424.31640625,311.5234375,0.0,0,0
1771941957.25954,1771941957.1579084,87.890625,-848.14453125,682.6171875,-868.65234375,0.0,0,0
1771941957.259584,1771941957.1618018,65.4296875,771.97265625,413.57421875,780.2734375,0.0,0,0
1771941957.259627,1771941957.1656954,9.765625,-623.046875,-101.07421875,-621.09375,0.0,0,0
1771941957.262031,1771941957.1698182,5.37109375,-1000.0,-131.34765625,-1000.0,0.0,0,0
1771941957.2621162,1771941957.1737118,53.22265625,166.015625,315.4296875,62.01171875,0.0,0,0
1771941957.262165,1771941957.1776052,89.35546875,-863.28125,675.78125,-918.45703125,0.0,0,0
1771941957.262211,1771941957.1814985,69.3359375,803.22265625,465.8203125,826.171875,0.0,0,0
1771941957.2622569,1771941957.1853921,19.04296875,-540.0390625,-99.12109375,-567.87109375,0.0,0,0
1771941957.262306,1771941957.1892855,22.94921875,-1000.0,-162.59765625,-1000.0,0.0,0,0
1771941957.2623491,1771941957.193179,52.24609375,-273.92578125,242.1875,-213.37890625,0.0,0,0
1771941957.2624042,1771941957.1970725,85.9375,-976.07421875,627.44140625,980.46875,0.0,0,0
1771941957.26245,1771941957.200966,83.984375,850.5859375,487.3046875,911.62109375,0.0,0,0
1771941957.2625122,1771941957.2048593,25.390625,-557.6171875,-14.6484375,-493.1640625,0.0,0,0
1771941957.262584,1771941957.2087529,5.859375,-1000.0,-181.15234375,-1000.0,0.0,0,0
1771941957.262624,1771941957.2126462,67.3828125,-544.921875,162.109375,-393.5546875,0.0,0,0
1771941957.304079,1771941957.2166767,109.86328125,895.01953125,627.9296875,863.76953125,0.0,0,0
1771941957.3042219,1771941957.2205703,92.7734375,943.359375,520.5078125,996.58203125,0.0,0,0
1771941957.304287,1771941957.2244637,40.0390625,-504.39453125,8.30078125,-362.3046875,0.0,0,0
1771941957.304351,1771941957.2283573,4.8828125,-1000.0,-189.94140625,-1000.0,0.0,0,0
1771941957.304408,1771941957.2322507,37.59765625,-701.66015625,98.14453125,-591.30859375,0.0,0,0
1771941957.304468,1771941957.2361443,96.19140625,735.3515625,571.77734375,715.8203125,0.0,0,0
1771941957.304527,1771941957.2400377,89.35546875,-933.59375,540.52734375,-911.62109375,0.0,0,0
1771941957.304586,1771941957.243931,32.71484375,-354.00390625,33.69140625,-153.3203125,0.0,0,0
1771941957.304644,1771941957.2478247,13.671875,-1000.0,-239.74609375,-1000.0,0.0,0,0
1771941957.3046982,1771941957.251718,48.828125,-817.3828125,64.453125,-669.43359375,0.0,0,0
1771941957.304769,1771941957.2556117,97.65625,557.12890625,568.84765625,633.7890625,0.0,0,0
1771941957.3048441,1771941957.259505,106.93359375,-836.9140625,589.35546875,-859.375,0.0,0,0
1771941957.3488,1771941957.2635927,54.6875,-85.9375,124.0234375,148.4375,0.0,0,0
1771941957.348911,1771941957.267486,4.8828125,-1000.0,-255.859375,-1000.0,0.0,0,0
1771941957.34897,1771941957.2713797,15.625,-841.30859375,-35.64453125,-783.203125,0.0,0,0
1771941957.349031,1771941957.2752733,73.73046875,514.16015625,470.21484375,587.40234375,0.0,0,0
1771941957.349091,1771941957.2791667,107.421875,-806.15234375,585.9375,-842.28515625,0.0,0,0
1771941957.34915,1771941957.2830603,65.91796875,317.3828125,220.703125,440.4296875,0.0,0,0
1771941957.349209,1771941957.2869537,2.9296875,-1000.0,-230.46875,-937.5,0.0,0,0
1771941957.3492649,1771941957.2908473,1.46484375,-888.18359375,-62.01171875,-897.4609375,0.0,0,0
1771941957.349325,1771941957.2947407,54.6875,534.1796875,450.68359375,525.87890625,0.0,0,0
1771941957.349393,1771941957.2986343,67.87109375,-821.77734375,608.3984375,-848.14453125,0.0,0,0
1771941957.3494542,1771941957.3025277,35.64453125,588.37890625,276.3671875,624.51171875,0.0,0,0
1771941957.349531,1771941957.3064213,-11.71875,-864.2578125,-215.33203125,-791.9921875,0.0,0,0
1771941957.394839,1771941957.3104997,3.41796875,-1000.0,-126.46484375,-1000.0,0.0,0,0
1771941957.3949492,1771941957.3143933,69.3359375,426.26953125,386.71875,381.8359375,0.0,0,0
1771941957.3950112,1771941957.3182867,89.84375,-836.42578125,608.88671875,-854.4921875,0.0,0,0
1771941957.395071,1771941957.3221803,50.29296875,713.8671875,310.05859375,722.65625,0.0,0,0
1771941957.3951302,1771941957.326074,-14.6484375,-700.1953125,-181.15234375,-671.38671875,0.0,0,0
1771941957.395189,1771941957.3299673,-16.11328125,-1000.0,-144.04296875,-1000.0,0.0,0,0
1771941957.395246,1771941957.3338609,38.0859375,231.4453125,303.22265625,142.578125,0.0,0,0
1771941957.395305,1771941957.3377545,82.03125,-855.46875,627.44140625,-895.5078125,0.0,0,0
1771941957.395363,1771941957.3416479,62.01171875,808.59375,410.64453125,808.10546875,0.0,0,0
1771941957.395422,1771941957.3455415,16.6015625,-552.24609375,-113.28125,-587.890625,0.0,0,0
1771941957.3954802,1771941957.349435,33.203125,-1000.0,-162.109375,-1000.0,0.0,0,0
1771941957.395534,1771941957.3533285,70.80078125,-56.15234375,256.8359375,-107.91015625,0.0,0,0
1771941957.438733,1771941957.357397,85.44921875,-910.64453125,629.8828125,-976.5625,0.0,0,0
1771941957.4388359,1771941957.3612905,68.359375,821.2890625,441.89453125,872.55859375,0.0,0,0
1771941957.438965,1771941957.365184,4.8828125,-543.9453125,-87.40234375,-519.53125,0.0,0,0
1771941957.439032,1771941957.3690777,-31.25,-1000.0,-242.1875,-1000.0,0.0,0,0
1771941957.439091,1771941957.3729713,2.44140625,-488.76953125,93.26171875,-412.109375,0.0,0,0
1771941957.439163,1771941957.3768647,59.08203125,937.01171875,567.3828125,888.18359375,0.0,0,0
1771941957.439223,1771941957.3807583,62.01171875,892.578125,466.796875,958.49609375,0.0,0,0
1771941957.439285,1771941957.384652,16.6015625,-561.5234375,-78.125,-457.51953125,0.0,0,0
1771941957.439349,1771941957.3885455,-15.13671875,-1000.0,-264.16015625,-1000.0,0.0,0,0
1771941957.439423,1771941957.392439,22.4609375,-660.15625,73.2421875,-546.38671875,0.0,0,0
1771941957.4395,1771941957.3963325,74.70703125,787.109375,563.4765625,762.6953125,0.0,0,0
1771941957.439557,1771941957.400226,83.49609375,-973.14453125,521.484375,-951.171875,0.0,0,0
1771941957.528318,1771941957.4042873,35.64453125,-408.203125,30.2734375,-267.578125,0.0,0,0
1771941957.52848,1771941957.408181,-10.7421875,-1000.0,-220.703125,-1000.0,0.0,0,0
1771941957.528543,1771941957.4120746,16.11328125,-763.671875,40.52734375,-704.1015625,0.0,0,0
1771941957.528605,1771941957.4159682,79.58984375,637.6953125,507.8125,640.625,0.0,0,0
1771941957.528664,1771941957.4198616,85.9375,-866.2109375,505.37109375,-872.0703125,0.0,0,0
1771941957.528723,1771941957.4237552,42.48046875,-186.5234375,64.453125,14.6484375,0.0,0,0
1771941957.528773,1771941957.4276488,15.13671875,-1000.0,-272.94921875,-1000.0,0.0,0,0
1771941957.528814,1771941957.4315424,41.015625,-838.37890625,-41.9921875,-782.2265625,0.0,0,0
1771941957.528857,1771941957.435436,86.42578125,519.04296875,487.3046875,582.03125,0.0,0,0
1771941957.528899,1771941957.4393296,81.54296875,-812.01171875,562.01171875,-846.19140625,0.0,0,0
1771941957.528942,1771941957.4432232,36.62109375,140.625,130.859375,276.85546875,0.0,0,0
1771941957.528984,1771941957.4471166,-10.7421875,-1000.0,-257.8125,-1000.0,0.0,0,0
1771941957.530956,1771941957.4511786,-11.71875,-863.28125,-85.44921875,-891.11328125,0.0,0,0
1771941957.531014,1771941957.4550722,36.1328125,520.99609375,380.37109375,518.06640625,0.0,0,0
1771941957.5310578,1771941957.4589658,63.4765625,-812.01171875,546.875,-835.9375,0.0,0,0
1771941957.531101,1771941957.4628594,48.33984375,520.01953125,214.84375,541.50390625,0.0,0,0
1771941957.531144,1771941957.466753,-17.08984375,-928.7109375,-287.109375,-857.91015625,0.0,0,0
1771941957.531187,1771941957.4706466,-24.90234375,-955.078125,-138.671875,-966.30859375,0.0,0,0
1771941957.531229,1771941957.4745402,40.0390625,503.41796875,378.90625,449.21875,0.0,0,0
1771941957.531271,1771941957.4784338,64.453125,-833.984375,570.80078125,-853.515625,0.0,0,0
1771941957.531313,1771941957.4823275,30.76171875,667.96875,272.94921875,690.4296875,0.0,0,0
1771941957.5313559,1771941957.486221,-34.1796875,-770.99609375,-236.81640625,-711.9140625,0.0,0,0
1771941957.5313978,1771941957.4901147,-29.78515625,-1000.0,-205.078125,-1000.0,0.0,0,0
1771941957.531438,1771941957.4940083,32.71484375,335.9375,286.1328125,226.07421875,0.0,0,0
1771941957.575331,1771941957.4980555,51.7578125,-850.5859375,561.5234375,-875.48828125,0.0,0,0
1771941957.575465,1771941957.501949,26.3671875,787.59765625,306.640625,772.94921875,0.0,0,0
1771941957.5755131,1771941957.5058427,8.7890625,-591.30859375,-190.4296875,-619.62890625,0.0,0,0
1771941957.575561,1771941957.5097363,28.3203125,-1000.0,-222.65625,-1000.0,0.0,0,0
1771941957.5756018,1771941957.51363,49.8046875,84.9609375,219.7265625,-10.7421875,0.0,0,0
1771941957.575645,1771941957.5175235,88.8671875,-878.41796875,593.75,-936.03515625,0.0,0,0
1771941957.575688,1771941957.5214171,85.44921875,813.96484375,375.48828125,837.40234375,0.0,0,0
1771941957.575731,1771941957.5253108,13.18359375,-546.875,-169.921875,-559.08203125,0.0,0,0
1771941957.575774,1771941957.5292044,-24.4140625,-1000.0,-257.8125,-1000.0,0.0,0,0
1771941957.575813,1771941957.533098,-10.25390625,-253.90625,138.18359375,-270.5078125,0.0,0,0
1771941957.5758562,1771941957.5369916,33.203125,-969.7265625,556.640625,962.890625,0.0,0,0
1771941957.5758982,1771941957.5408854,12.20703125,846.6796875,424.31640625,903.80859375,0.0,0,0
1771941957.634911,1771941957.544922,-47.8515625,-555.6640625,-100.5859375,-497.0703125,0.0,0,0
1771941957.635079,1771941957.5488157,-78.61328125,-1000.0,-279.296875,-1000.0,0.0,0,0
1771941957.635145,1771941957.5527093,-42.48046875,-569.82421875,76.171875,-540.0390625,0.0,0,0
1771941957.635208,1771941957.5566032,29.296875,864.2578125,570.3125,801.26953125,0.0,0,0
1771941957.6352682,1771941957.5604968,29.296875,984.86328125,497.0703125,-978.02734375,0.0,0,0
1771941957.6353269,1771941957.5643904,-13.671875,-444.82421875,23.4375,-331.54296875,0.0,0,0
1771941957.6353862,1771941957.568284,-37.109375,-1000.0,-194.82421875,-1000.0,0.0,0,0
1771941957.6354408,1771941957.5721776,-1.46484375,-748.53515625,85.9375,-694.3359375,0.0,0,0
1771941957.635499,1771941957.5760713,52.24609375,683.59375,594.23828125,674.8046875,0.0,0,0
1771941957.6355588,1771941957.5799649,65.91796875,-912.109375,575.68359375,-906.73828125,0.0,0,0
1771941957.63562,1771941957.5838585,11.23046875,-331.54296875,76.171875,-159.1796875,0.0,0,0
1771941957.635679,1771941957.5877523,-30.76171875,-1000.0,-210.9375,-1000.0,0.0,0,0
1771941957.679809,1771941957.5917947,11.71875,-831.0546875,33.203125,-769.04296875,0.0,0,0
1771941957.679935,1771941957.5956883,75.1953125,527.83203125,527.83203125,589.84375,0.0,0,0
1771941957.679984,1771941957.599582,101.07421875,-824.70703125,582.03125,-850.5859375,0.0,0,0
1771941957.680029,1771941957.6034756,82.51953125,-5.37109375,132.8125,171.875,0.0,0,0
1771941957.6800718,1771941957.6073692,50.29296875,-1000.0,-253.41796875,-1000.0,0.0,0,0
1771941957.680116,1771941957.611263,74.70703125,-847.65625,-46.875,-822.265625,0.0,0,0
1771941957.680158,1771941957.6151567,126.953125,515.13671875,451.171875,560.546875,0.0,0,0
1771941957.680201,1771941957.6190503,128.41796875,-807.6171875,553.7109375,-844.23828125,0.0,0,0
1771941957.680258,1771941957.6229439,81.54296875,412.109375,168.9453125,445.3125,0.0,0,0
1771941957.680319,1771941957.6268375,11.71875,-987.3046875,-274.4140625,-911.1328125,0.0,0,0
1771941957.6803799,1771941957.6307313,-1.953125,-908.69140625,-126.46484375,-966.30859375,0.0,0,0
1771941957.680442,1771941957.634625,48.33984375,535.15625,378.41796875,456.0546875,0.0,0,0
1771941957.739798,1771941957.6387105,73.73046875,-826.66015625,563.96484375,-840.33203125,0.0,0,0
1771941957.739947,1771941957.642604,49.31640625,612.3046875,272.4609375,622.55859375,0.0,0,0
