timestamp,lsl_timestamp,TP9,AF7,AF8,TP10,Right AUX,keypress_A,keypress_B
1771941895.3994172,1771941895.3089314,-151.85546875,-563.96484375,-573.73046875,-714.84375,0.0,0,0
1771941895.399601,1771941895.312824,-149.90234375,-1000.0,-1000.0,-1000.0,0.0,0,0
1771941895.399633,1771941895.3167167,-43.9453125,-622.55859375,-12.6953125,121.58203125,0.0,0,0
1771941895.3996632,1771941895.320609,18.5546875,814.94140625,-902.34375,-908.203125,0.0,0,0
1771941895.399691,1771941895.3245018,-19.53125,-974.12109375,820.3125,640.625,0.0,0,0
1771941895.399719,1771941895.3283944,-127.44140625,-392.08984375,-546.38671875,-664.0625,0.0,0,0
1771941895.3997471,1771941895.332287,-151.85546875,-1000.0,-1000.0,-1000.0,0.0,0,0
1771941895.399773,1771941895.3361797,-62.5,-791.015625,-383.7890625,-183.59375,0.0,0,0
1771941895.3998091,1771941895.3400722,36.62109375,624.0234375,975.09765625,-988.28125,0.0,0,0
1771941895.399839,1771941895.3439648,7.32421875,-881.8359375,882.8125,740.72265625,0.0,0,0
1771941895.399866,1771941895.3478575,-113.76953125,-277.34375,-542.48046875,-622.0703125,0.0,0,0
1771941895.399895,1771941895.3517501,-136.71875,-1000.0,-1000.0,-1000.0,0.0,0,0
1771941895.430881,1771941895.355811,-50.29296875,-832.03125,-625.48828125,-372.55859375,0.0,0,0
1771941895.430957,1771941895.3597038,51.26953125,522.94921875,818.84765625,896.97265625,0.0,0,0
1771941895.43099,1771941895.3635964,33.203125,-817.87109375,-998.53515625,894.04296875,0.0,0,0
1771941895.431073,1771941895.367489,-85.44921875,60.05859375,-437.01171875,-518.5546875,0.0,0,0
1771941895.4311209,1771941895.3713815,-135.7421875,-1000.0,-1000.0,-1000.0,0.0,0,0
1771941895.431149,1771941895.3752742,-72.265625,-857.421875,-754.8828125,-532.71484375,0.0,0,0
1771941895.431242,1771941895.3791668,37.59765625,520.99609375,661.62109375,776.3671875,0.0,0,0
1771941895.431318,1771941895.3830595,31.73828125,-808.59375,-893.06640625,995.60546875,0.0,0,0
1771941895.431401,1771941895.3869522,-83.0078125,389.16015625,-272.4609375,-359.86328125,0.0,0,0
1771941895.431432,1771941895.3908448,-129.39453125,-988.76953125,-1000.0,-1000.0,0.0,0,0
1771941895.4314592,1771941895.3947375,-58.59375,-924.8046875,-829.1015625,-640.625,0.0,0,0
1771941895.431487,1771941895.3986301,46.875,504.39453125,530.76171875,671.38671875,0.0,0,0
1771941895.476634,1771941895.402699,60.05859375,-832.51953125,-821.77734375,-913.57421875,0.0,0,0
1771941895.4767969,1771941895.4065917,-45.41015625,664.0625,52.734375,-110.83984375,0.0,0,0
1771941895.477052,1771941895.4104843,-126.953125,-792.96875,-1000.0,-1000.0,0.0,0,0
1771941895.477162,1771941895.414377,-78.125,-1000.0,-856.93359375,-725.5859375,0.0,0,0
1771941895.477212,1771941895.4182699,19.53125,402.34375,520.5078125,618.65234375,0.0,0,0
1771941895.477225,1771941895.4221625,43.9453125,-836.9140625,-809.5703125,-883.30078125,0.0,0,0
1771941895.477236,1771941895.4260552,-38.57421875,723.6328125,395.01953125,122.0703125,0.0,0,0
1771941895.477246,1771941895.4299479,-148.4375,-681.640625,-984.375,-1000.0,0.0,0,0
1771941895.477279,1771941895.4338405,-113.28125,-1000.0,-926.7578125,-823.73046875,0.0,0,0
1771941895.477333,1771941895.4377332,15.13671875,180.17578125,503.41796875,550.29296875,0.0,0,0
1771941895.477356,1771941895.4416258,66.89453125,-862.3046875,-825.68359375,-864.2578125,0.0,0,0
1771941895.477367,1771941895.4455185,-10.7421875,803.22265625,626.953125,375.9765625,0.0,0,0
1771941895.519841,1771941895.4495573,-131.34765625,-541.015625,-815.91796875,-911.1328125,0.0,0,0
1771941895.519951,1771941895.45345,-106.4453125,-1000.0,-1000.0,-945.3125,0.0,0,0
1771941895.519994,1771941895.4573429,19.53125,-249.0234375,371.09375,449.70703125,0.0,0,0
1771941895.5200372,1771941895.4612355,73.2421875,-968.26171875,-843.75,-866.69921875,0.0,0,0
1771941895.520105,1771941895.4651282,11.23046875,845.21484375,752.44140625,522.4609375,0.0,0,0
1771941895.52015,1771941895.4690208,-101.5625,-555.6640625,-645.5078125,-780.2734375,0.0,0,0
1771941895.520247,1771941895.4729135,-101.07421875,-1000.0,-1000.0,-1000.0,0.0,0,0
1771941895.5202932,1771941895.4768062,7.8125,-604.4921875,159.66796875,243.65234375,0.0,0,0
1771941895.520342,1771941895.4806988,73.2421875,865.234375,-869.140625,-886.23046875,0.0,0,0
1771941895.520391,1771941895.4845915,10.25390625,937.5,812.01171875,610.83984375,0.0,0,0
1771941895.520443,1771941895.4884841,-104.4921875,-535.64453125,-550.29296875,-701.171875,0.0,0,0
1771941895.5204842,1771941895.492377,-98.14453125,-1000.0,-1000.0,-1000.0,0.0,0,0
1771941895.5651588,1771941895.4964056,4.8828125,-676.7578125,-151.3671875,28.3203125,0.0,0,0
1771941895.56527,1771941895.5002983,85.9375,736.328125,-939.94140625,-928.22265625,0.0,0,0
1771941895.565321,1771941895.504191,23.92578125,-906.25,834.9609375,716.30859375,0.0,0,0
1771941895.5653691,1771941895.5080836,-114.2578125,-263.18359375,-551.7578125,-633.7890625,0.0,0,0
1771941895.5654452,1771941895.5119765,-124.51171875,-1000.0,-1000.0,-1000.0,0.0,0,0
1771941895.565494,1771941895.5158691,-33.69140625,-794.921875,-492.1875,-237.79296875,0.0,0,0
1771941895.565541,1771941895.5197618,54.19921875,605.46875,916.9921875,979.98046875,0.0,0,0
1771941895.565587,1771941895.5236545,25.390625,-851.5625,925.78125,801.26953125,0.0,0,0
1771941895.565633,1771941895.5275471,-96.6796875,-139.6484375,-511.71875,-582.51953125,0.0,0,0
1771941895.56568,1771941895.53144,-112.3046875,-1000.0,-1000.0,-1000.0,0.0,0,0
1771941895.565723,1771941895.5353327,-33.69140625,-838.8671875,-694.3359375,-495.60546875,0.0,0,0
1771941895.5657868,1771941895.5392253,46.38671875,516.11328125,746.58203125,837.40234375,0.0,0,0
1771941895.6255748,1771941895.5432518,23.92578125,-808.59375,-949.21875,884.27734375,0.0,0,0
1771941895.625759,1771941895.5471444,-94.23828125,233.88671875,-377.9296875,-514.6484375,0.0,0,0
1771941895.6258078,1771941895.551037,-151.3671875,-1000.0,-1000.0,-1000.0,0.0,0,0
1771941895.625849,1771941895.55493,-81.0546875,-876.46484375,-802.734375,-630.859375,0.0,0,0
1771941895.625932,1771941895.5588226,33.69140625,528.3203125,587.40234375,716.30859375,0.0,0,0
1771941895.625988,1771941895.5627153,33.203125,-815.91796875,-855.46875,-967.7734375,0.0,0,0
1771941895.62603,1771941895.5666082,-68.359375,544.43359375,-161.1328125,-294.43359375,0.0,0,0
1771941895.6260831,1771941895.5705009,-124.51171875,-901.85546875,-1000.0,-1000.0,0.0,0,0
1771941895.626142,1771941895.5743935,-70.80078125,-986.328125,-838.37890625,-718.26171875,0.0,0,0
1771941895.626194,1771941895.5782864,47.36328125,462.890625,517.08984375,636.23046875,0.0,0,0
1771941895.626245,1771941895.582179,55.6640625,-831.54296875,-810.546875,-913.57421875,0.0,0,0
1771941895.626312,1771941895.5860717,-45.41015625,676.7578125,209.9609375,-61.5234375,0.0,0,0
1771941895.6708522,1771941895.5901675,-123.046875,-738.76953125,-1000.0,-1000.0,0.0,0,0
1771941895.671016,1771941895.5940604,-77.63671875,-1000.0,-874.0234375,-810.546875,0.0,0,0
1771941895.671063,1771941895.597953,30.2734375,240.72265625,527.83203125,569.3359375,0.0,0,0
1771941895.671107,1771941895.601846,48.828125,-854.4921875,-816.40625,-874.51171875,0.0,0,0
1771941895.671152,1771941895.6057386,-25.87890625,804.6875,529.78515625,208.0078125,0.0,0,0
1771941895.671196,1771941895.6096315,-116.2109375,-565.4296875,-904.78515625,-986.81640625,0.0,0,0
1771941895.671249,1771941895.6135242,-90.8203125,-1000.0,-985.3515625,-898.4375,0.0,0,0
1771941895.671299,1771941895.617417,17.08984375,0.9765625,457.51953125,499.0234375,0.0,0,0
1771941895.671341,1771941895.6213098,49.8046875,-896.97265625,-833.984375,-867.67578125,0.0,0,0
1771941895.671403,1771941895.6252024,-22.94921875,818.84765625,685.05859375,404.296875,0.0,0,0
1771941895.671445,1771941895.6290953,-130.37109375,-545.41015625,-745.1171875,-864.2578125,0.0,0,0
1771941895.671498,1771941895.632988,-115.234375,-1000.0,-1000.0,-998.046875,0.0,0,0
1771941895.745856,1771941895.6372452,0.9765625,-372.55859375,301.26953125,369.140625,0.0,0,0
1771941895.7460291,1771941895.641138,48.828125,988.28125,-851.07421875,-870.60546875,0.0,0,0
1771941895.7460759,1771941895.645031,-23.4375,865.234375,788.57421875,539.0625,0.0,0,0
1771941895.74612,1771941895.6489236,-133.30078125,-564.94140625,-588.37890625,-742.67578125,0.0,0,0
1771941895.7475479,1771941895.6528165,-133.7890625,-1000.0,-1000.0,-1000.0,0.0,0,0
1771941895.7476008,1771941895.6567094,-31.25,-578.125,48.33984375,103.515625,0.0,0,0
1771941895.747636,1771941895.660602,44.43359375,861.328125,-889.16015625,-903.3203125,0.0,0,0
1771941895.7476711,1771941895.664495,-4.8828125,982.91015625,816.40625,628.90625,0.0,0,0
1771941895.747703,1771941895.668388,-119.140625,-453.125,-545.8984375,-675.29296875,0.0,0,0
1771941895.747736,1771941895.6722806,-132.32421875,-1000.0,-1000.0,-1000.0,0.0,0,0
1771941895.747767,1771941895.6761734,-38.57421875,-759.765625,-318.84765625,-162.109375,0.0,0,0
1771941895.747808,1771941895.6800663,40.0390625,661.62109375,-997.0703125,-979.4921875,0.0,0,0
1771941895.805473,1771941895.684402,-5.37109375,-895.5078125,862.79296875,710.44921875,0.0,0,0
1771941895.805621,1771941895.688295,-114.74609375,-296.38671875,-553.22265625,-641.6015625,0.0,0,0
1771941895.805652,1771941895.6921878,-119.62890625,-1000.0,-1000.0,-1000.0,0.0,0,0
1771941895.805679,1771941895.6960807,-30.2734375,-836.42578125,-583.49609375,-384.27734375,0.0,0,0
1771941895.805707,1771941895.6999736,52.24609375,534.66796875,850.09765625,911.62109375,0.0,0,0
1771941895.8057358,1771941895.7038665,10.25390625,-953.125,781.25,663.0859375,0.0,0,0
1771941895.8057642,1771941895.7077594,-99.12109375,-133.30078125,-542.48046875,-629.8828125,0.0,0,0
1771941895.805792,1771941895.7116523,-127.44140625,-1000.0,-1000.0,-1000.0,0.0,0,0
1771941895.805835,1771941895.7155452,-47.8515625,-845.703125,-750.9765625,-543.45703125,0.0,0,0
1771941895.805865,1771941895.719438,67.87109375,511.71875,693.359375,794.43359375,0.0,0,0
1771941895.8058932,1771941895.723331,52.734375,-806.640625,-905.2734375,-994.140625,0.0,0,0
1771941895.8059242,1771941895.7272239,-67.87109375,441.89453125,-301.26953125,-371.09375,0.0,0,0
1771941895.810783,1771941895.731298,-122.55859375,-972.65625,-1000.0,-1000.0,0.0,0,0
1771941895.810853,1771941895.7351909,-50.29296875,-918.9453125,-823.2421875,-604.4921875,0.0,0,0
1771941895.810891,1771941895.7390838,50.29296875,529.296875,542.48046875,696.77734375,0.0,0,0
1771941895.8109262,1771941895.7429767,43.9453125,-825.1953125,-828.125,-937.5,0.0,0,0
1771941895.810959,1771941895.7468696,-64.453125,606.93359375,-3.41796875,-166.9921875,0.0,0,0
1771941895.810994,1771941895.7507625,-129.8828125,-832.03125,-1000.0,-1000.0,0.0,0,0
1771941895.8110259,1771941895.7546554,-70.80078125,-1000.0,-850.09765625,-739.2578125,0.0,0,0
1771941895.8110578,1771941895.7585485,24.90234375,362.3046875,518.06640625,613.28125,0.0,0,0
1771941895.811094,1771941895.7624414,20.01953125,-851.07421875,-809.08203125,-892.578125,0.0,0,0
1771941895.8111281,1771941895.7663343,-67.3828125,785.15625,371.58203125,68.84765625,0.0,0,0
1771941895.81116,1771941895.7702272,-150.390625,-616.69921875,-997.0703125,-1000.0,0.0,0,0
1771941895.811193,1771941895.77412,-106.93359375,-1000.0,-913.57421875,-860.83984375,0.0,0,0
1771941895.851532,1771941895.7781708,12.6953125,211.42578125,515.13671875,538.0859375,0.0,0,0
1771941895.851668,1771941895.782064,36.1328125,-857.421875,-825.1953125,-866.2109375,0.0,0,0
1771941895.851729,1771941895.7859569,-35.64453125,807.6171875,615.72265625,288.0859375,0.0,0,0
1771941895.851788,1771941895.7898498,-123.046875,-549.31640625,-833.984375,-938.4765625,0.0,0,0
1771941895.851847,1771941895.7937427,-95.21484375,-1000.0,-1000.0,-973.14453125,0.0,0,0
1771941895.851903,1771941895.7976358,19.53125,-110.83984375,402.34375,429.19921875,0.0,0,0
1771941895.8519602,1771941895.8015287,52.24609375,-924.8046875,-841.30859375,-867.67578125,0.0,0,0
1771941895.852024,1771941895.8054216,-14.16015625,827.63671875,733.88671875,423.828125,0.0,0,0
1771941895.852082,1771941895.8093145,-114.74609375,-546.875,-674.8046875,-820.3125,0.0,0,0
1771941895.85214,1771941895.8132076,-111.328125,-1000.0,-1000.0,-1000.0,0.0,0,0
1771941895.852194,1771941895.8171005,-2.44140625,-507.8125,210.44921875,249.0234375,0.0,0,0
1771941895.852252,1771941895.8209934,55.6640625,910.64453125,-861.81640625,-893.5546875,0.0,0,0
1771941895.895742,1771941895.8250277,1.46484375,941.89453125,806.15234375,572.75390625,0.0,0,0
1771941895.895869,1771941895.8289206,-115.72265625,-490.72265625,-555.6640625,-708.0078125,0.0,0,0
1771941895.895943,1771941895.8328135,-128.41796875,-1000.0,-1000.0,-1000.0,0.0,0,0
1771941895.895998,1771941895.8367066,-39.55078125,-687.01171875,-100.09765625,21.484375,0.0,0,0
1771941895.896062,1771941895.8405995,28.80859375,743.1640625,-925.29296875,-925.29296875,0.0,0,0
1771941895.8961222,1771941895.8444924,-16.6015625,-926.7578125,829.1015625,679.6875,0.0,0,0
1771941895.896181,1771941895.8483856,-138.671875,-325.68359375,-549.31640625,-649.4140625,0.0,0,0
1771941895.896248,1771941895.8522785,-161.1328125,-1000.0,-1000.0,-1000.0,0.0,0,0
1771941895.896319,1771941895.8561714,-53.7109375,-820.80078125,-457.51953125,-258.30078125,0.0,0,0
1771941895.896397,1771941895.8600645,56.640625,582.51953125,939.94140625,983.88671875,0.0,0,0
1771941895.8964539,1771941895.8639574,18.06640625,-860.83984375,904.78515625,805.17578125,0.0,0,0
1771941895.89653,1771941895.8678503,-121.09375,-220.703125,-532.71484375,-590.8203125,0.0,0,0
1771941895.9539452,1771941895.8718748,-160.15625,-1000.0,-1000.0,-1000.0,0.0,0,0
1771941895.954093,1771941895.875768,-69.82421875,-829.58984375,-664.55078125,-452.1484375,0.0,0,0
1771941895.95413,1771941895.8796608,40.0390625,510.7421875,777.83203125,860.3515625,0.0,0,0
1771941895.954165,1771941895.8835537,23.4375,-807.6171875,-964.84375,893.5546875,0.0,0,0
1771941895.954199,1771941895.8874469,-89.35546875,237.3046875,-394.53125,-504.39453125,0.0,0,0
1771941895.954232,1771941895.8913398,-136.71875,-1000.0,-1000.0,-1000.0,0.0,0,0
1771941895.954263,1771941895.895233,-72.75390625,-879.39453125,-790.0390625,-624.51171875,0.0,0,0
1771941895.954296,1771941895.8991258,29.78515625,529.78515625,606.93359375,729.4921875,0.0,0,0
1771941895.9543302,1771941895.903019,19.53125,-812.5,-864.2578125,-978.02734375,0.0,0,0
1771941895.9543629,1771941895.9069118,-90.8203125,478.02734375,-189.94140625,-326.66015625,0.0,0,0
1771941895.954397,1771941895.9108047,-139.6484375,-944.3359375,-1000.0,-1000.0,0.0,0,0
1771941895.954429,1771941895.914698,-73.2421875,-959.47265625,-837.890625,-689.453125,0.0,0,0
1771941896.000096,1771941895.9187102,31.73828125,481.93359375,518.06640625,648.4375,0.0,0,0
1771941896.000248,1771941895.9226034,35.64453125,-830.56640625,-812.98828125,-916.9921875,0.0,0,0
1771941896.000314,1771941895.9264963,-82.51953125,664.55078125,166.50390625,-86.9140625,0.0,0,0
1771941896.000375,1771941895.9303894,-177.24609375,-777.34375,-1000.0,-1000.0,0.0,0,0
1771941896.000432,1771941895.9342823,-122.0703125,-1000.0,-869.140625,-788.0859375,0.0,0,0
1771941896.000491,1771941895.9381754,-0.9765625,347.16796875,524.90234375,580.56640625,0.0,0,0
1771941896.0005498,1771941895.9420683,16.6015625,-845.703125,-813.4765625,-870.1171875,0.0,0,0
1771941896.000609,1771941895.9459615,-71.2890625,764.6484375,491.69921875,194.3359375,0.0,0,0
1771941896.0006678,1771941895.9498544,-154.78515625,-604.4921875,-930.6640625,-1000.0,0.0,0,0
1771941896.000731,1771941895.9537475,-112.3046875,-1000.0,-966.796875,-894.53125,0.0,0,0
1771941896.0007942,1771941895.9576404,1.46484375,1.953125,473.14453125,503.90625,0.0,0,0
1771941896.0008729,1771941895.9615335,32.2265625,-897.94921875,-832.03125,-863.76953125,0.0,0,0
1771941896.045912,1771941895.9656234,-60.05859375,823.73046875,668.9453125,384.765625,0.0,0,0
1771941896.046077,1771941895.9695163,-157.71484375,-551.7578125,-767.08984375,-880.859375,0.0,0,0
1771941896.046138,1771941895.9734094,-125.48828125,-1000.0,-1000.0,-990.72265625,0.0,0,0
1771941896.046197,1771941895.9773023,-21.97265625,-270.01953125,329.58984375,384.765625,0.0,0,0
1771941896.046261,1771941895.9811954,10.25390625,-974.609375,-848.6328125,-870.60546875,0.0,0,0
1771941896.0463328,1771941895.9850886,-70.80078125,847.16796875,776.85546875,510.7421875,0.0,0,0
1771941896.046392,1771941895.9889815,-182.12890625,-557.6171875,-607.421875,-763.671875,0.0,0,0
1771941896.0464509,1771941895.9928746,-175.78125,-1000.0,-1000.0,-1000.0,0.0,0,0
1771941896.04685,1771941895.9967678,-63.4765625,-639.6484375,90.8203125,152.83203125,0.0,0,0
1771941896.046906,1771941896.0006607,4.39453125,837.890625,-880.37109375,-900.390625,0.0,0,0
1771941896.0469491,1771941896.0045538,-52.734375,951.66015625,813.96484375,598.14453125,0.0,0,0
1771941896.0469928,1771941896.008447,-160.64453125,-532.2265625,-546.875,-687.01171875,0.0,0,0
1771941896.10549,1771941896.01261,-172.36328125,-1000.0,-1000.0,-1000.0,0.0,0,0
1771941896.105657,1771941896.016503,-76.171875,-745.60546875,-256.8359375,-117.67578125,0.0,0,0
1771941896.105719,1771941896.0203962,5.859375,669.43359375,-973.14453125,-961.9140625,0.0,0,0
1771941896.105846,1771941896.0242894,-35.64453125,-893.5546875,848.6328125,708.984375,0.0,0,0
1771941896.10591,1771941896.0281825,-142.578125,-281.25,-556.15234375,-639.6484375,0.0,0,0
1771941896.105957,1771941896.0320756,-159.1796875,-1000.0,-1000.0,-1000.0,0.0,0,0
1771941896.1060019,1771941896.0359685,-75.68359375,-817.87109375,-578.125,-367.67578125,0.0,0,0
1771941896.106047,1771941896.0398617,9.27734375,507.32421875,859.86328125,926.26953125,0.0,0,0
1771941896.10609,1771941896.0437548,-25.390625,-805.17578125,972.65625,833.984375,0.0,0,0
1771941896.106132,1771941896.047648,-139.6484375,287.109375,-467.7734375,-563.4765625,0.0,0,0
1771941896.106174,1771941896.051541,-174.8046875,-1000.0,-1000.0,-1000.0,0.0,0,0
1771941896.1062121,1771941896.055434,-109.375,-896.97265625,-723.6328125,-571.2890625,0.0,0,0
1771941896.135663,1771941896.0595014,-8.7890625,544.43359375,706.0546875,793.45703125,0.0,0,0
1771941896.135817,1771941896.0633945,-25.390625,-814.94140625,-917.48046875,923.828125,0.0,0,0
1771941896.135863,1771941896.0672877,-154.296875,279.296875,-323.73046875,-460.44921875,0.0,0,0
1771941896.135906,1771941896.0711808,-203.61328125,-1000.0,-1000.0,-1000.0,0.0,0,0
1771941896.1359448,1771941896.075074,-139.16015625,-890.13671875,-821.77734375,-700.68359375,0.0,0,0
1771941896.135988,1771941896.078967,-40.0390625,519.04296875,552.734375,680.17578125,0.0,0,0
1771941896.13603,1771941896.0828602,-51.7578125,-817.3828125,-836.9140625,-972.16796875,0.0,0,0
1771941896.1360729,1771941896.0867534,-174.31640625,579.58984375,-62.98828125,-272.4609375,0.0,0,0
1771941896.1361148,1771941896.0906463,-246.09375,-859.86328125,-1000.0,-1000.0,0.0,0,0
1771941896.1361558,1771941896.0945394,-183.59375,-1000.0,-845.703125,-771.484375,0.0,0,0
1771941896.136197,1771941896.0984325,-61.03515625,380.859375,517.578125,603.515625,0.0,0,0
1771941896.136238,1771941896.1023257,-48.33984375,-839.35546875,-809.5703125,-896.97265625,0.0,0,0
1771941896.1946921,1771941896.1063817,-161.62109375,737.3046875,311.03515625,-0.48828125,0.0,0,0
1771941896.194929,1771941896.110275,-244.62890625,-688.96484375,-1000.0,-1000.0,0.0,0,0
1771941896.194978,1771941896.1141682,-193.359375,-1000.0,-895.01953125,-868.65234375,0.0,0,0
1771941896.195022,1771941896.1180613,-77.1484375,275.87890625,524.90234375,530.2734375,0.0,0,0
1771941896.195065,1771941896.1219544,-30.2734375,-854.00390625,-823.2421875,-866.69921875,0.0,0,0
1771941896.1951098,1771941896.1258476,-104.4921875,799.8046875,593.75,242.67578125,0.0,0,0
1771941896.1951518,1771941896.1297407,-199.70703125,-541.50390625,-852.5390625,-958.49609375,0.0,0,0
1771941896.195195,1771941896.1336339,-161.62109375,-1000.0,-1000.0,-953.61328125,0.0,0,0
1771941896.195235,1771941896.137527,-40.52734375,-160.64453125,417.96875,443.84765625,0.0,0,0
1771941896.1952782,1771941896.1414201,2.9296875,-939.94140625,-839.35546875,-864.74609375,0.0,0,0
1771941896.195321,1771941896.1453133,-69.3359375,837.890625,722.16796875,421.38671875,0.0,0,0
1771941896.195363,1771941896.1492064,-184.08203125,-553.22265625,-697.265625,-831.54296875,0.0,0,0
1771941896.225879,1771941896.1532521,-160.64453125,-1000.0,-1000.0,-1000.0,0.0,0,0
1771941896.226023,1771941896.1571455,-35.64453125,-447.265625,255.859375,277.34375,0.0,0,0
1771941896.226059,1771941896.1610386,10.7421875,947.75390625,-854.4921875,-879.39453125,0.0,0,0
1771941896.2260962,1771941896.1649318,-48.33984375,902.83203125,797.8515625,544.921875,0.0,0,0
1771941896.226131,1771941896.168825,-152.34375,-531.25,-565.91796875,-727.05078125,0.0,0,0
1771941896.2261639,1771941896.172718,-157.71484375,-1000.0,-1000.0,-1000.0,0.0,0,0
1771941896.226194,1771941896.1766112,-65.91796875,-619.62890625,-50.29296875,36.1328125,0.0,0,0
1771941896.226228,1771941896.1805043,-5.859375,830.56640625,-911.1328125,-924.31640625,0.0,0,0
1771941896.22626,1771941896.1843977,-70.80078125,-1000.0,823.73046875,613.76953125,0.0,0,0
1771941896.226293,1771941896.1882908,-204.58984375,-442.3828125,-547.36328125,-678.22265625,0.0,0,0
1771941896.2263281,1771941896.192184,-233.3984375,-1000.0,-1000.0,-1000.0,0.0,0,0
1771941896.226358,1771941896.196077,-143.5546875,-780.2734375,-419.43359375,-253.90625,0.0,0,0
1771941896.2707682,1771941896.200112,-46.38671875,632.8125,959.9609375,988.76953125,0.0,0,0
1771941896.270955,1771941896.2040052,-74.21875,-882.32421875,890.13671875,741.69921875,0.0,0,0
1771941896.271004,1771941896.2078984,-187.98828125,-273.4375,-542.48046875,-628.90625,0.0,0,0
1771941896.271049,1771941896.2117918,-202.63671875,-1000.0,-1000.0,-1000.0,0.0,0,0
1771941896.27109,1771941896.215685,-120.1171875,-833.49609375,-657.71484375,-479.00390625,0.0,0,0
1771941896.2711391,1771941896.219578,-22.4609375,519.04296875,791.015625,861.328125,0.0,0,0
1771941896.271182,1771941896.2234712,-39.0625,-816.40625,-980.95703125,849.609375,0.0,0,0
1771941896.271243,1771941896.2273645,-169.921875,73.73046875,-422.36328125,-552.24609375,0.0,0,0
1771941896.271298,1771941896.2312577,-209.9609375,-1000.0,-1000.0,-1000.0,0.0,0,0
1771941896.271355,1771941896.2351508,-131.34765625,-854.4921875,-782.2265625,-632.8125,0.0,0,0
1771941896.271421,1771941896.239044,-27.34375,517.08984375,620.1171875,736.328125,0.0,0,0
1771941896.2714748,1771941896.2429373,-30.76171875,-810.05859375,-872.55859375,989.2578125,0.0,0,0
1771941896.328784,1771941896.2469585,-143.06640625,495.60546875,-218.26171875,-376.953125,0.0,0,0
1771941896.328924,1771941896.2508516,-201.66015625,-950.68359375,-1000.0,-1000.0,0.0,0,0
1771941896.328987,1771941896.2547448,-138.671875,-925.29296875,-833.49609375,-729.98046875,0.0,0,0
1771941896.329047,1771941896.2586381,-14.16015625,541.50390625,523.4375,642.578125,0.0,0,0
1771941896.329105,1771941896.2625313,-0.9765625,-845.21484375,-815.4296875,-926.7578125,0.0,0,0
1771941896.329165,1771941896.2664244,-112.3046875,698.73046875,130.859375,-135.25390625,0.0,0,0
1771941896.329223,1771941896.2703178,-188.4765625,-736.81640625,-1000.0,-1000.0,0.0,0,0
1771941896.329278,1771941896.274211,-125.9765625,-1000.0,-865.234375,-809.08203125,0.0,0,0
1771941896.329334,1771941896.278104,-11.23046875,331.0546875,523.92578125,577.1484375,0.0,0,0
1771941896.329391,1771941896.2819974,-11.71875,-849.12109375,-812.01171875,-882.32421875,0.0,0,0
1771941896.329449,1771941896.2858906,-110.3515625,783.203125,455.56640625,105.46875,0.0,0,0
1771941896.3295062,1771941896.2897837,-192.3828125,-599.12109375,-952.63671875,-1000.0,0.0,0,0
1771941896.404875,1771941896.2937937,-147.4609375,-1000.0,-946.77734375,-883.30078125,0.0,0,0
1771941896.404937,1771941896.2976868,-38.57421875,95.21484375,492.1875,511.23046875,0.0,0,0
1771941896.4049568,1771941896.3015802,-4.8828125,-875.9765625,-828.61328125,-867.67578125,0.0,0,0
1771941896.4049752,1771941896.3054733,-88.8671875,808.59375,643.5546875,319.3359375,0.0,0,0
1771941896.404993,1771941896.3093667,-202.1484375,-541.50390625,-796.875,-908.203125,0.0,0,0
1771941896.40501,1771941896.3132598,-175.78125,-1000.0,-1000.0,-1000.0,0.0,0,0
1771941896.405025,1771941896.317153,-51.26953125,-325.68359375,353.02734375,373.53515625,0.0,0,0
1771941896.405042,1771941896.3210464,-2.44140625,-994.140625,-846.6796875,-866.69921875,0.0,0,0
1771941896.40506,1771941896.3249395,-69.3359375,858.3984375,767.08984375,489.2578125,0.0,0,0
1771941896.405077,1771941896.3288329,-171.875,-562.01171875,-626.953125,-773.92578125,0.0,0,0
1771941896.4050932,1771941896.332726,-170.8984375,-1000.0,-1000.0,-1000.0,0.0,0,0
1771941896.405109,1771941896.3366194,-76.171875,-552.24609375,145.5078125,169.921875,0.0,0,0
1771941896.419461,1771941896.3407087,-20.01953125,891.6015625,-870.60546875,-896.97265625,0.0,0,0
1771941896.419509,1771941896.344602,-76.171875,939.453125,810.05859375,570.3125,0.0,0,0
1771941896.419528,1771941896.3484952,-188.96484375,-514.16015625,-546.875,-703.125,0.0,0,0
1771941896.419544,1771941896.3523886,-187.01171875,-1000.0,-1000.0,-1000.0,0.0,0,0
1771941896.4195719,1771941896.3562818,-93.26171875,-714.84375,-208.0078125,-80.078125,0.0,0,0
1771941896.419589,1771941896.3601751,-14.6484375,730.46875,-956.54296875,-952.1484375,0.0,0,0
1771941896.419606,1771941896.3640683,-58.10546875,-946.2890625,841.30859375,671.38671875,0.0,0,0
1771941896.4196212,1771941896.3679616,-192.87109375,-390.13671875,-554.19921875,-654.296875,0.0,0,0
1771941896.419636,1771941896.371855,-211.9140625,-1000.0,-1000.0,-1000.0,0.0,0,0
1771941896.41965,1771941896.3757482,-122.0703125,-826.66015625,-543.45703125,-359.86328125,0.0,0,0
1771941896.419668,1771941896.3796415,-38.0859375,537.109375,887.20703125,936.5234375,0.0,0,0
1771941896.4197,1771941896.3835347,-64.94140625,-832.03125,947.75390625,785.15625,0.0,0,0
1771941896.464586,1771941896.3876054,-177.24609375,-62.01171875,-495.60546875,-596.6796875,0.0,0,0
1771941896.464649,1771941896.3914988,-206.0546875,-1000.0,-1000.0,-1000.0,0.0,0,0
1771941896.4646661,1771941896.3953922,-118.1640625,-843.26171875,-700.68359375,-551.7578125,0.0,0,0
1771941896.464681,1771941896.3992853,-6.34765625,514.6484375,731.4453125,811.03515625,0.0,0,0
1771941896.4646971,1771941896.4031787,-20.01953125,-807.12890625,-930.17578125,910.15625,0.0,0,0
1771941896.464712,1771941896.407072,-132.32421875,341.30859375,-340.33203125,-491.2109375,0.0,0,0
1771941896.464727,1771941896.4109652,-180.6640625,-1000.0,-1000.0,-1000.0,0.0,0,0
1771941896.4647412,1771941896.4148586,-111.81640625,-899.90234375,-816.89453125,-670.41015625,0.0,0,0
1771941896.464756,1771941896.418752,0.9765625,539.55078125,572.265625,698.2421875,0.0,0,0
1771941896.464771,1771941896.422645,-20.99609375,-812.98828125,-850.5859375,-983.88671875,0.0,0,0
1771941896.4647858,1771941896.4265385,-141.6015625,413.57421875,-150.87890625,-311.03515625,0.0,0,0
1771941896.464803,1771941896.4304318,-207.03125,-958.984375,-1000.0,-1000.0,0.0,0,0
1771941896.509521,1771941896.4344914,-151.3671875,-979.00390625,-836.42578125,-777.34375,0.0,0,0
1771941896.5095522,1771941896.4383848,-24.90234375,428.7109375,513.18359375,602.5390625,0.0,0,0
1771941896.5095732,1771941896.442278,-14.6484375,-842.28515625,-809.08203125,-899.4140625,0.0,0,0
1771941896.5095942,1771941896.4461713,-125.9765625,743.65234375,276.85546875,-29.296875,0.0,0,0
1771941896.5096152,1771941896.4500647,-200.1953125,-691.40625,-1000.0,-1000.0,0.0,0,0
1771941896.509634,1771941896.453958,-158.69140625,-1000.0,-885.7421875,-822.265625,0.0,0,0
1771941896.509653,1771941896.4578512,-51.7578125,328.125,529.296875,560.546875,0.0,0,0
1771941896.509672,1771941896.4617445,-12.20703125,-855.46875,-819.82421875,-873.53515625,0.0,0,0
1771941896.5096908,1771941896.465638,-93.26171875,804.19921875,558.59375,214.35546875,0.0,0,0
1771941896.509712,1771941896.4695313,-188.96484375,-548.828125,-884.27734375,-975.5859375,0.0,0,0
1771941896.509755,1771941896.4734247,-153.3203125,-1000.0,-998.53515625,-952.1484375,0.0,0,0
1771941896.5097852,1771941896.4773178,-34.1796875,-40.0390625,448.73046875,455.56640625,0.0,0,0
1771941896.554611,1771941896.4813676,-4.8828125,-907.2265625,-835.9375,-869.140625,0.0,0,0
1771941896.554654,1771941896.4852607,-82.03125,823.2421875,698.2421875,328.61328125,0.0,0,0
1771941896.554683,1771941896.489154,-195.3125,-547.36328125,-728.02734375,-869.62890625,0.0,0,0
1771941896.5547142,1771941896.4930475,-190.4296875,-1000.0,-1000.0,-1000.0,0.0,0,0
1771941896.55474,1771941896.4969409,-80.56640625,-398.4375,284.1796875,267.578125,0.0,0,0
1771941896.5547678,1771941896.5008342,-21.484375,977.5390625,-851.5625,-878.41796875,0.0,0,0
1771941896.554796,1771941896.5047276,-74.21875,868.1640625,791.50390625,504.39453125,0.0,0,0
1771941896.554823,1771941896.508621,-188.96484375,-567.3828125,-578.125,-747.55859375,0.0,0,0
1771941896.554852,1771941896.5125144,-190.4296875,-1000.0,-1000.0,-1000.0,0.0,0,0
1771941896.554903,1771941896.5164075,-89.35546875,-619.140625,1.46484375,52.734375,0.0,0,0
1771941896.554942,1771941896.5203009,-16.6015625,813.4765625,-898.92578125,-916.015625,0.0,0,0
1771941896.554971,1771941896.5241942,-56.15234375,-968.26171875,819.82421875,626.953125,0.0,0,0
1771941896.600233,1771941896.5282335,-179.6875,-372.55859375,-546.38671875,-673.33984375,0.0,0,0
1771941896.600296,1771941896.532127,-205.56640625,-1000.0,-1000.0,-1000.0,0.0,0,0
1771941896.600331,1771941896.5360203,-109.375,-733.3984375,-364.2578125,-217.28515625,0.0,0,0
1771941896.600368,1771941896.5399137,-16.6015625,667.96875,983.88671875,-999.0234375,0.0,0,0
1771941896.600406,1771941896.543807,-62.01171875,-868.65234375,877.44140625,706.0546875,0.0,0,0
1771941896.600443,1771941896.5477004,-181.640625,-155.2734375,-543.9453125,-640.625,0.0,0,0
1771941896.600478,1771941896.5515938,-196.77734375,-1000.0,-1000.0,-1000.0,0.0,0,0
1771941896.60051,1771941896.555487,-113.28125,-854.00390625,-624.0234375,-461.42578125,0.0,0,0
1771941896.6005461,1771941896.5593803,-2.9296875,539.0625,823.2421875,881.34765625,0.0,0,0
1771941896.6005812,1771941896.5632737,-24.4140625,-831.54296875,996.58203125,843.26171875,0.0,0,0
1771941896.600617,1771941896.567167,-154.78515625,-64.94140625,-446.2890625,-562.98828125,0.0,0,0
1771941896.600651,1771941896.5710604,-197.75390625,-1000.0,-1000.0,-1000.0,0.0,0,0
1771941896.644874,1771941896.575091,-122.55859375,-839.35546875,-755.859375,-596.19140625,0.0,0,0
1771941896.64498,1771941896.5789843,-16.11328125,511.23046875,661.62109375,759.27734375,0.0,0,0
1771941896.6450171,1771941896.5828776,-23.92578125,-806.640625,-894.04296875,992.1875,0.0,0,0
1771941896.645052,1771941896.586771,-136.71875,408.203125,-279.296875,-385.7421875,0.0,0,0
1771941896.645087,1771941896.5906644,-208.49609375,-982.91015625,-1000.0,-1000.0,0.0,0,0
1771941896.645123,1771941896.594558,-145.01953125,-921.875,-828.125,-685.05859375,0.0,0,0
1771941896.645168,1771941896.5984514,-26.85546875,514.6484375,532.2265625,663.0859375,0.0,0,0
1771941896.645204,1771941896.6023448,-30.2734375,-830.56640625,-822.265625,-932.12890625,0.0,0,0
1771941896.645237,1771941896.6062381,-141.6015625,645.99609375,47.8515625,-172.36328125,0.0,0,0
1771941896.645283,1771941896.6101315,-208.49609375,-801.26953125,-1000.0,-1000.0,0.0,0,0
1771941896.645317,1771941896.6140249,-147.4609375,-1000.0,-856.4453125,-781.73828125,0.0,0,0
1771941896.645351,1771941896.6179183,-34.1796875,373.046875,520.99609375,591.796875,0.0,0,0
1771941896.706346,1771941896.6220207,-20.99609375,-834.9609375,-809.5703125,-885.7421875,0.0,0,0
1771941896.706445,1771941896.625914,-121.09375,721.6796875,385.25390625,67.87109375,0.0,0,0
1771941896.706484,1771941896.6298077,-220.21484375,-671.875,-988.28125,-1000.0,0.0,0,0
1771941896.706516,1771941896.633701,-184.5703125,-1000.0,-924.8046875,-902.34375,0.0,0,0
1771941896.706549,1771941896.6375945,-68.359375,105.46875,502.9296875,499.0234375,0.0,0,0
1771941896.706583,1771941896.6414878,-31.25,-875.0,-825.68359375,-862.79296875,0.0,0,0
1771941896.7066162,1771941896.6453812,-107.91015625,815.91796875,625.9765625,281.25,0.0,0,0
1771941896.706651,1771941896.6492748,-218.26171875,-551.26953125,-818.84765625,-931.15234375,0.0,0,0
1771941896.7066848,1771941896.6531682,-198.2421875,-1000.0,-1000.0,-984.86328125,0.0,0,0
1771941896.7067158,1771941896.6570616,-72.265625,-166.9921875,378.90625,392.578125,0.0,0,0
1771941896.706749,1771941896.660955,-0.9765625,-941.40625,-843.75,-861.81640625,0.0,0,0
1771941896.706784,1771941896.6648483,-63.96484375,833.49609375,751.953125,477.05078125,0.0,0,0
1771941896.748745,1771941896.668857,-185.546875,-549.8046875,-646.97265625,-791.015625,0.0,0,0
1771941896.748797,1771941896.6727507,-178.7109375,-1000.0,-1000.0,-1000.0,0.0,0,0
1771941896.7488158,1771941896.676644,-70.3125,-564.94140625,168.45703125,190.4296875,0.0,0,0
1771941896.7488341,1771941896.6805375,2.9296875,877.9296875,-867.1875,-885.25390625,0.0,0,0
1771941896.748896,1771941896.6844308,-30.2734375,956.54296875,810.546875,603.515625,0.0,0,0
1771941896.748916,1771941896.6883245,-142.08984375,-489.2578125,-549.31640625,-696.2890625,0.0,0,0
1771941896.748933,1771941896.6922178,-166.9921875,-1000.0,-1000.0,-1000.0,0.0,0,0
1771941896.74899,1771941896.6961112,-79.1015625,-711.9140625,-157.2265625,-47.8515625,0.0,0,0
1771941896.749009,1771941896.7000046,7.32421875,731.4453125,-941.89453125,-938.4765625,0.0,0,0
1771941896.749067,1771941896.7038982,-33.203125,-941.40625,835.9375,690.91796875,0.0,0,0
1771941896.74913,1771941896.7077916,-144.04296875,-375.0,-552.24609375,-649.4140625,0.0,0,0
1771941896.7491672,1771941896.711685,-153.80859375,-1000.0,-1000.0,-1000.0,0.0,0,0
1771941896.794394,1771941896.7157638,-71.77734375,-807.12890625,-492.67578125,-314.94140625,0.0,0,0
1771941896.794419,1771941896.7196572,8.7890625,565.91796875,918.45703125,958.0078125,0.0,0,0
1771941896.79443,1771941896.7235508,-27.83203125,-837.40234375,922.8515625,765.13671875,0.0,0,0
1771941896.794441,1771941896.7274442,-150.87890625,-73.2421875,-516.6015625,-610.83984375,0.0,0,0
1771941896.794452,1771941896.7313375,-177.734375,-1000.0,-1000.0,-1000.0,0.0,0,0
1771941896.794462,1771941896.7352312,-94.23828125,-850.5859375,-686.03515625,-516.11328125,0.0,0,0
1771941896.794472,1771941896.7391245,-3.90625,525.390625,756.8359375,832.51953125,0.0,0,0
1771941896.794483,1771941896.7430182,-32.71484375,-812.98828125,-956.0546875,898.4375,0.0,0,0
1771941896.794493,1771941896.7469115,-147.4609375,168.9453125,-388.671875,-505.37109375,0.0,0,0
1771941896.794504,1771941896.750805,-192.3828125,-1000.0,-1000.0,-1000.0,0.0,0,0
1771941896.794514,1771941896.7546985,-130.37109375,-866.2109375,-799.8046875,-650.390625,0.0,0,0
1771941896.794524,1771941896.758592,-13.671875,523.4375,590.8203125,711.42578125,0.0,0,0
1771941896.839401,1771941896.7626598,-6.34765625,-814.94140625,-857.421875,-968.75,0.0,0,0
1771941896.839432,1771941896.7665534,-127.44140625,556.15234375,-166.9921875,-298.828125,0.0,0,0
1771941896.839442,1771941896.7704468,-201.171875,-881.8359375,-1000.0,-1000.0,0.0,0,0
1771941896.8394518,1771941896.7743404,-135.7421875,-1000.0,-839.84375,-708.49609375,0.0,0,0
1771941896.839461,1771941896.7782338,-12.20703125,409.1796875,518.5546875,639.16015625,0.0,0,0
1771941896.839485,1771941896.7821274,-0.48828125,-823.73046875,-812.01171875,-905.2734375,0.0,0,0
1771941896.839509,1771941896.7860208,-117.67578125,661.62109375,177.734375,-56.640625,0.0,0,0
1771941896.839521,1771941896.7899144,-213.37890625,-767.578125,-1000.0,-1000.0,0.0,0,0
1771941896.839531,1771941896.7938077,-158.203125,-1000.0,-869.62890625,-836.42578125,0.0,0,0
1771941896.8395488,1771941896.7977014,-44.43359375,282.71484375,525.390625,553.22265625,0.0,0,0
1771941896.83956,1771941896.8015947,-21.484375,-851.07421875,-814.94140625,-871.58203125,0.0,0,0
1771941896.8395698,1771941896.8054883,-102.05078125,790.0390625,517.08984375,178.7109375,0.0,0,0
1771941896.885014,1771941896.8095455,-194.3359375,-570.3125,-912.109375,-996.58203125,0.0,0,0
1771941896.885055,1771941896.813439,-164.55078125,-1000.0,-982.421875,-905.2734375,0.0,0,0
1771941896.885068,1771941896.8173325,-38.0859375,-51.26953125,457.03125,489.74609375,0.0,0,0
1771941896.88508,1771941896.8212261,-1.46484375,-910.64453125,-830.078125,-864.2578125,0.0,0,0
1771941896.885091,1771941896.8251195,-110.3515625,822.265625,668.45703125,379.39453125,0.0,0,0
1771941896.885102,1771941896.829013,-225.5859375,-545.8984375,-761.23046875,-872.55859375,0.0,0,0
1771941896.885112,1771941896.8329065,-193.359375,-1000.0,-1000.0,-1000.0,0.0,0,0
1771941896.885122,1771941896.8368,-67.87109375,-445.80078125,302.734375,332.03125,0.0,0,0
1771941896.885133,1771941896.8406937,-17.08984375,957.51953125,-849.12109375,-868.1640625,0.0,0,0
1771941896.885144,1771941896.844587,-77.1484375,876.46484375,781.25,542.96875,0.0,0,0
1771941896.885154,1771941896.8484807,-190.91796875,-570.80078125,-598.14453125,-747.55859375,0.0,0,0
1771941896.885165,1771941896.852374,-192.87109375,-1000.0,-1000.0,-1000.0,0.0,0,0
1771941896.9294238,1771941896.856421,-81.0546875,-614.2578125,56.640625,138.18359375,0.0,0,0
1771941896.9294531,1771941896.8603144,-11.71875,834.47265625,-886.71875,-897.94921875,0.0,0,0
1771941896.929467,1771941896.864208,-59.08203125,997.0703125,815.91796875,626.953125,0.0,0,0
1771941896.929481,1771941896.8681016,-172.36328125,-438.96484375,-547.36328125,-679.19921875,0.0,0,0
1771941896.929494,1771941896.871995,-172.36328125,-1000.0,-1000.0,-1000.0,0.0,0,0
1771941896.929507,1771941896.8758886,-87.40234375,-711.9140625,-291.9921875,-84.47265625,0.0,0,0
1771941896.9295201,1771941896.8797822,-24.90234375,720.21484375,-989.74609375,-980.46875,0.0,0,0
1771941896.929534,1771941896.8836758,-59.5703125,-917.96875,856.4453125,723.6328125,0.0,0,0
1771941896.929547,1771941896.8875692,-185.05859375,-322.265625,-557.6171875,-636.23046875,0.0,0,0
1771941896.9295611,1771941896.8914628,-220.703125,-1000.0,-1000.0,-1000.0,0.0,0,0
1771941896.929573,1771941896.8953564,-120.60546875,-833.49609375,-596.6796875,-393.06640625,0.0,0,0
1771941896.929586,1771941896.89925,-10.25390625,520.99609375,848.14453125,914.0625,0.0,0,0
1771941897.018441,1771941896.9034579,-60.546875,-820.80078125,974.12109375,836.42578125,0.0,0,0
1771941897.018496,1771941896.9073515,-188.4765625,25.390625,-473.6328125,-571.2890625,0.0,0,0
1771941897.018514,1771941896.911245,-210.9375,-1000.0,-1000.0,-1000.0,0.0,0,0
1771941897.018529,1771941896.9151385,-132.8125,-855.46875,-735.3515625,-559.5703125,0.0,0,0
1771941897.0185442,1771941896.919032,-27.34375,521.484375,688.96484375,780.2734375,0.0,0,0
1771941897.01856,1771941896.9229257,-32.2265625,-808.59375,-907.2265625,973.14453125,0.0,0,0
1771941897.0185752,1771941896.9268193,-143.06640625,333.49609375,-306.15234375,-412.109375,0.0,0,0
1771941897.018591,1771941896.930713,-189.453125,-1000.0,-1000.0,-1000.0,0.0,0,0
1771941897.0186071,1771941896.9346066,-118.65234375,-890.625,-821.2890625,-648.92578125,0.0,0,0
1771941897.0186229,1771941896.9385002,-1.46484375,537.109375,544.43359375,683.10546875,0.0,0,0
1771941897.018639,1771941896.9423938,6.8359375,-828.125,-828.61328125,-932.12890625,0.0,0,0
1771941897.0186539,1771941896.9462874,-114.74609375,626.953125,-4.39453125,-182.12890625,0.0,0,0
1771941897.0200682,1771941896.9503207,-179.6875,-814.94140625,-1000.0,-1000.0,0.0,0,0
1771941897.020098,1771941896.9542143,-105.46875,-1000.0,-851.07421875,-727.5390625,0.0,0,0
1771941897.020117,1771941896.958108,6.8359375,363.76953125,519.04296875,609.86328125,0.0,0,0
1771941897.020133,1771941896.9620016,20.5078125,-835.9375,-809.08203125,-878.41796875,0.0,0,0
1771941897.020148,1771941896.9658952,-67.3828125,727.5390625,354.00390625,110.3515625,0.0,0,0
1771941897.020164,1771941896.9697888,-145.99609375,-689.453125,-1000.0,-1000.0,0.0,0,0
1771941897.020179,1771941896.9736824,-102.05078125,-1000.0,-910.15625,-826.66015625,0.0,0,0
1771941897.020193,1771941896.977576,12.6953125,228.02734375,515.625,559.08203125,0.0,0,0
1771941897.02021,1771941896.9814696,48.828125,-854.98046875,-823.2421875,-863.76953125,0.0,0,0
1771941897.020225,1771941896.9853632,-32.2265625,804.6875,600.09765625,326.66015625,0.0,0,0
1771941897.0202398,1771941896.9892569,-145.01953125,-546.875,-843.26171875,-936.03515625,0.0,0,0
1771941897.020255,1771941896.9931505,-135.25390625,-1000.0,-1000.0,-927.734375,0.0,0,0
1771941897.077905,1771941896.997164,-17.578125,-122.0703125,400.390625,462.890625,0.0,0,0
1771941897.077937,1771941897.0010576,47.8515625,-928.7109375,-844.23828125,-865.234375,0.0,0,0
1771941897.0779572,1771941897.0049515,-19.04296875,835.44921875,747.0703125,512.6953125,0.0,0,0
1771941897.0779772,1771941897.008845,-139.16015625,-554.19921875,-664.55078125,-797.8515625,0.0,0,0
1771941897.077996,1771941897.0127387,-117.1875,-1000.0,-1000.0,-1000.0,0.0,0,0
1771941897.078014,1771941897.0166323,1.953125,-378.90625,228.02734375,302.24609375,0.0,0,0
1771941897.078034,1771941897.020526,61.03515625,978.02734375,-858.3984375,-875.9765625,0.0,0,0
1771941897.078055,1771941897.0244195,17.578125,884.765625,800.29296875,617.67578125,0.0,0,0
1771941897.078181,1771941897.0283132,-83.0078125,-537.109375,-560.05859375,-702.63671875,0.0,0,0
1771941897.078203,1771941897.0322068,-77.63671875,-1000.0,-1000.0,-1000.0,0.0,0,0
1771941897.078221,1771941897.0361004,20.99609375,-684.5703125,-100.09765625,62.01171875,0.0,0,0
1771941897.07824,1771941897.039994,91.30859375,762.20703125,-925.29296875,-919.43359375,0.0,0,0
1771941897.1238499,1771941897.0439966,39.55078125,-959.9609375,829.58984375,716.30859375,0.0,0,0
1771941897.1239622,1771941897.0478904,-89.35546875,-398.4375,-549.31640625,-637.6953125,0.0,0,0
1771941897.123998,1771941897.051784,-109.375,-1000.0,-1000.0,-1000.0,0.0,0,0
1771941897.1240242,1771941897.0556777,-10.25390625,-804.19921875,-449.70703125,-201.171875,0.0,0,0
1771941897.124052,1771941897.0595713,82.03125,599.12109375,944.82421875,991.69921875,0.0,0,0
1771941897.124079,1771941897.0634649,44.921875,-867.1875,903.3203125,814.94140625,0.0,0,0
1771941897.124106,1771941897.0673585,-76.171875,-240.72265625,-532.71484375,-578.61328125,0.0,0,0
1771941897.1241338,1771941897.0712523,-93.75,-1000.0,-1000.0,-1000.0,0.0,0,0
1771941897.1241589,1771941897.075146,0.0,-830.56640625,-661.62109375,-404.78515625,0.0,0,0
1771941897.124186,1771941897.0790396,113.76953125,513.18359375,782.2265625,873.046875,0.0,0,0
1771941897.124245,1771941897.0829332,108.3984375,-810.05859375,-968.75,949.21875,0.0,0,0
1771941897.124306,1771941897.0868268,-26.3671875,177.734375,-399.4140625,-454.58984375,0.0,0,0
1771941897.170044,1771941897.0909083,-92.28515625,-1000.0,-1000.0,-1000.0,0.0,0,0
1771941897.170142,1771941897.094802,-13.18359375,-871.09375,-781.25,-524.4140625,0.0,0,0
1771941897.17018,1771941897.0986955,106.93359375,525.87890625,620.1171875,756.8359375,0.0,0,0
1771941897.170217,1771941897.1025894,88.37890625,-810.05859375,-869.140625,-954.58984375,0.0,0,0
1771941897.170251,1771941897.106483,-33.203125,465.8203125,-203.61328125,-256.8359375,0.0,0,0
1771941897.170285,1771941897.1103766,-83.0078125,-943.84765625,-1000.0,-1000.0,0.0,0,0
1771941897.1703172,1771941897.1142704,-21.484375,-970.703125,-837.40234375,-587.40234375,0.0,0,0
1771941897.17035,1771941897.118164,91.30859375,457.03125,518.06640625,675.29296875,0.0,0,0
1771941897.170387,1771941897.1220577,123.53515625,-827.63671875,-813.4765625,-890.625,0.0,0,0
1771941897.1704419,1771941897.1259513,25.87890625,663.0859375,152.83203125,35.64453125,0.0,0,0
1771941897.170475,1771941897.1298451,-58.59375,-777.83203125,-1000.0,-1000.0,0.0,0,0
1771941897.1705139,1771941897.1337388,11.71875,-1000.0,-867.67578125,-684.08203125,0.0,0,0
1771941897.2161689,1771941897.1378088,129.39453125,338.37890625,524.90234375,628.90625,0.0,0,0
1771941897.216217,1771941897.1417027,158.69140625,-850.09765625,-813.4765625,-866.69921875,0.0,0,0
1771941897.216236,1771941897.1455963,92.7734375,786.1328125,479.00390625,308.59375,0.0,0,0
1771941897.216253,1771941897.14949,-10.7421875,-613.28125,-941.89453125,-975.5859375,0.0,0,0
1771941897.21627,1771941897.1533837,25.390625,-1000.0,-950.68359375,-754.8828125,0.0,0,0
1771941897.216287,1771941897.1572776,152.83203125,189.94140625,495.60546875,594.23828125,0.0,0,0
1771941897.2163048,1771941897.1611712,193.84765625,-858.88671875,-832.51953125,-867.1875,0.0,0,0
1771941897.216321,1771941897.1650648,135.7421875,797.36328125,660.15625,561.03515625,0.0,0,0
1771941897.216338,1771941897.1689587,22.94921875,-534.1796875,-778.3203125,-835.44921875,0.0,0,0
1771941897.216355,1771941897.1728523,33.203125,-1000.0,-1000.0,-887.20703125,0.0,0,0
1771941897.216371,1771941897.1767461,155.76171875,-341.796875,343.75,508.30078125,0.0,0,0
1771941897.216388,1771941897.1806397,188.4765625,-1000.0,-848.14453125,-869.62890625,0.0,0,0
1771941897.2595918,1771941897.1846948,117.1875,862.3046875,774.4140625,666.9921875,0.0,0,0
1771941897.2596421,1771941897.1885886,18.06640625,-563.96484375,-618.1640625,-732.421875,0.0,0,0
1771941897.2596622,1771941897.1924822,31.25,-1000.0,-1000.0,-985.83984375,0.0,0,0
1771941897.259679,1771941897.196376,141.6015625,-516.11328125,139.16015625,349.12109375,0.0,0,0
1771941897.259697,1771941897.2002697,221.6796875,902.34375,-871.58203125,-885.7421875,0.0,0,0
1771941897.259715,1771941897.2041636,174.8046875,955.078125,809.08203125,765.625,0.0,0,0
1771941897.259732,1771941897.2080572,44.43359375,-476.07421875,-545.41015625,-638.671875,0.0,0,0
1771941897.2597492,1771941897.211951,39.55078125,-1000.0,-1000.0,-1000.0,0.0,0,0
1771941897.259765,1771941897.2158446,148.92578125,-754.39453125,-235.83984375,95.703125,0.0,0,0
1771941897.2597818,1771941897.2197385,229.00390625,661.62109375,-965.8203125,-943.359375,0.0,0,0
1771941897.2598,1771941897.223632,191.89453125,-889.16015625,845.703125,847.65625,0.0,0,0
1771941897.259816,1771941897.227526,78.125,-274.90234375,-556.15234375,-565.4296875,0.0,0,0
1771941897.304776,1771941897.2315695,61.03515625,-1000.0,-1000.0,-1000.0,0.0,0,0
1771941897.30481,1771941897.2354634,147.4609375,-833.0078125,-547.36328125,-104.00390625,0.0,0,0
1771941897.304835,1771941897.239357,235.3515625,535.64453125,883.30078125,967.28515625,0.0,0,0
1771941897.3048608,1771941897.2432508,221.19140625,-827.1484375,952.1484375,932.12890625,0.0,0,0
1771941897.304884,1771941897.2471445,114.2578125,-22.4609375,-490.234375,-465.8203125,0.0,0,0
1771941897.304907,1771941897.2510383,82.51953125,-1000.0,-1000.0,-1000.0,0.0,0,0
1771941897.304928,1771941897.2549322,166.9921875,-850.09765625,-720.21484375,-278.80859375,0.0,0,0
1771941897.304951,1771941897.2588258,266.6015625,519.04296875,709.47265625,858.3984375,0.0,0,0
1771941897.304974,1771941897.2627196,244.62890625,-807.6171875,-920.8984375,-977.5390625,0.0,0,0
1771941897.3049972,1771941897.2666132,135.7421875,311.5234375,-329.1015625,-282.2265625,0.0,0,0
1771941897.3050208,1771941897.270507,86.9140625,-1000.0,-1000.0,-1000.0,0.0,0,0
1771941897.305042,1771941897.274401,149.4140625,-886.71875,-812.5,-406.73828125,0.0,0,0
1771941897.349565,1771941897.2784355,249.0234375,535.15625,565.91796875,754.8828125,0.0,0,0
1771941897.349634,1771941897.2823293,245.60546875,-828.61328125,-840.8203125,-910.15625,0.0,0,0
1771941897.349663,1771941897.286223,147.4609375,625.48828125,-76.66015625,-38.57421875,0.0,0,0
1771941897.349687,1771941897.2901168,95.21484375,-831.0546875,-1000.0,-1000.0,0.0,0,0
1771941897.349709,1771941897.2940106,155.2734375,-1000.0,-845.21484375,-505.37109375,0.0,0,0
1771941897.349731,1771941897.2979043,263.18359375,420.41015625,518.06640625,697.75390625,0.0,0,0
1771941897.349754,1771941897.301798,269.04296875,-829.1015625,-809.5703125,-880.859375,0.0,0,0
1771941897.349777,1771941897.305692,162.109375,683.59375,283.203125,220.21484375,0.0,0,0
1771941897.3497999,1771941897.3095856,77.1484375,-708.984375,-1000.0,-1000.0,0.0,0,0
1771941897.349822,1771941897.3134794,132.8125,-1000.0,-892.08984375,-631.34765625,0.0,0,0
1771941897.349844,1771941897.3173733,262.6953125,107.91015625,520.99609375,652.83203125,0.0,0,0
1771941897.349867,1771941897.3212671,277.83203125,-876.46484375,-819.82421875,-869.140625,0.0,0,0
1771941897.394725,1771941897.3252897,191.89453125,820.80078125,567.3828125,461.9140625,0.0,0,0
1771941897.394795,1771941897.3291836,104.00390625,-558.10546875,-875.9765625,-905.76171875,0.0,0,0
1771941897.394835,1771941897.3330774,148.4375,-1000.0,-1000.0,-746.09375,0.0,0,0
1771941897.39487,1771941897.336971,272.94921875,-83.0078125,438.4765625,600.5859375,0.0,0,0
1771941897.394907,1771941897.340865,302.734375,-917.96875,-838.37890625,-873.53515625,0.0,0,0
1771941897.394943,1771941897.3447587,236.328125,823.73046875,713.37890625,651.3671875,0.0,0,0
1771941897.394979,1771941897.3486526,126.953125,-544.43359375,-708.0078125,-774.4140625,0.0,0,0
1771941897.395015,1771941897.3525465,129.8828125,-1000.0,-1000.0,-923.33984375,0.0,0,0
1771941897.395048,1771941897.35644,243.1640625,-517.578125,267.578125,450.68359375,0.0,0,0
1771941897.3950841,1771941897.360334,284.1796875,927.24609375,-853.02734375,-876.46484375,0.0,0,0
1771941897.3951201,1771941897.3642278,210.44921875,889.16015625,794.921875,729.4921875,0.0,0,0
1771941897.395156,1771941897.3681216,99.12109375,-576.66015625,-572.265625,-681.15234375,0.0,0,0
1771941897.4538581,1771941897.3721368,102.5390625,-1000.0,-1000.0,-1000.0,0.0,0,0
1771941897.454008,1771941897.3760307,213.37890625,-663.57421875,-21.97265625,247.0703125,0.0,0,0
1771941897.454078,1771941897.3799245,294.43359375,787.59765625,-904.78515625,-902.34375,0.0,0,0
1771941897.4541419,1771941897.3838184,241.2109375,-979.4921875,821.2890625,797.8515625,0.0,0,0
1771941897.4542022,1771941897.387712,111.81640625,-427.24609375,-546.875,-610.83984375,0.0,0,0
1771941897.454261,1771941897.3916059,97.65625,-1000.0,-1000.0,-1000.0,0.0,0,0
1771941897.454315,1771941897.3954997,204.58984375,-799.8046875,-390.625,11.71875,0.0,0,0
1771941897.4543738,1771941897.3993936,300.29296875,608.88671875,972.65625,-972.65625,0.0,0,0
1771941897.454433,1771941897.4032874,268.06640625,-876.953125,882.32421875,875.9765625,0.0,0,0
1771941897.454493,1771941897.4071813,156.25,-270.01953125,-545.41015625,-534.1796875,0.0,0,0
1771941897.4545522,1771941897.411075,129.39453125,-1000.0,-1000.0,-1000.0,0.0,0,0
1771941897.454607,1771941897.4149687,213.8671875,-835.44921875,-625.48828125,-207.03125,0.0,0,0
1771941897.500396,1771941897.4189734,323.2421875,520.99609375,818.359375,928.7109375,0.0,0,0
1771941897.500536,1771941897.4228673,310.05859375,-818.359375,-997.0703125,957.03125,0.0,0,0
1771941897.500598,1771941897.4267612,179.19921875,49.8046875,-436.03515625,-420.8984375,0.0,0,0
1771941897.500658,1771941897.430655,125.9765625,-1000.0,-1000.0,-1000.0,0.0,0,0
1771941897.500724,1771941897.4345489,208.984375,-855.46875,-764.16015625,-408.203125,0.0,0,0
1771941897.5007832,1771941897.4384427,325.68359375,519.53125,648.4375,801.7578125,0.0,0,0
1771941897.50084,1771941897.4423366,306.640625,-808.10546875,-887.20703125,-965.8203125,0.0,0,0
1771941897.5008981,1771941897.4462304,159.66796875,400.390625,-258.7890625,-270.5078125,0.0,0,0
1771941897.5009549,1771941897.450124,84.47265625,-984.86328125,-1000.0,-1000.0,0.0,0,0
1771941897.501012,1771941897.4540179,147.4609375,-925.78125,-829.58984375,-527.34375,0.0,0,0
1771941897.5010712,1771941897.4579117,251.953125,505.859375,532.71484375,701.171875,0.0,0,0
1771941897.501131,1771941897.4618056,268.06640625,-830.078125,-822.75390625,-896.97265625,0.0,0,0
1771941897.5456572,1771941897.4658864,173.33984375,646.97265625,52.734375,3.90625,0.0,0,0
1771941897.5457668,1771941897.4697802,103.02734375,-812.5,-1000.0,-1000.0,0.0,0,0
1771941897.545811,1771941897.473674,166.015625,-1000.0,-855.95703125,-595.21484375,0.0,0,0
1771941897.5458539,1771941897.4775681,283.203125,422.8515625,519.53125,660.64453125,0.0,0,0
1771941897.5459,1771941897.481462,310.05859375,-852.05078125,-810.05859375,-870.1171875,0.0,0,0
1771941897.545942,1771941897.4853559,216.796875,775.87890625,417.96875,309.08203125,0.0,0,0
1771941897.545984,1771941897.4892497,101.07421875,-622.0703125,-975.5859375,-986.81640625,0.0,0,0
1771941897.546029,1771941897.4931436,130.859375,-1000.0,-928.7109375,-726.07421875,0.0,0,0
1771941897.5460732,1771941897.4970374,248.53515625,206.0546875,508.30078125,618.1640625,0.0,0,0
1771941897.5461252,1771941897.5009313,294.921875,-857.421875,-827.1484375,-871.58203125,0.0,0,0
1771941897.546168,1771941897.504825,213.8671875,804.6875,629.8828125,501.46484375,0.0,0,0
1771941897.54622,1771941897.508719,100.09765625,-544.43359375,-813.4765625,-868.65234375,0.0,0,0
1771941897.6055958,1771941897.5128727,123.046875,-1000.0,-1000.0,-889.16015625,0.0,0,0
1771941897.605707,1771941897.5167665,240.234375,-171.38671875,372.55859375,505.37109375,0.0,0,0
1771941897.605738,1771941897.5206606,298.33984375,-942.87109375,-843.75,-868.1640625,0.0,0,0
1771941897.605767,1771941897.5245545,230.95703125,832.03125,752.9296875,610.83984375,0.0,0,0
1771941897.605798,1771941897.5284483,115.72265625,-550.78125,-642.578125,-757.32421875,0.0,0,0
1771941897.6058471,1771941897.5323422,122.0703125,-1000.0,-1000.0,-1000.0,0.0,0,0
1771941897.605875,1771941897.536236,236.328125,-651.85546875,148.4375,313.96484375,0.0,0,0
1771941897.6059132,1771941897.5401301,301.7578125,821.2890625,-870.60546875,-881.34765625,0.0,0,0
1771941897.605943,1771941897.544024,230.46875,967.28515625,812.01171875,703.125,0.0,0,0
1771941897.605973,1771941897.5479178,99.12109375,-509.765625,-549.31640625,-671.875,0.0,0,0
1771941897.6060019,1771941897.5518117,94.23828125,-1000.0,-1000.0,-1000.0,0.0,0,0
1771941897.60603,1771941897.5557058,193.84765625,-724.609375,-171.875,81.54296875,0.0,0,0
1771941897.6360588,1771941897.5597692,268.06640625,714.35546875,-945.3125,-925.29296875,0.0,0,0
1771941897.636153,1771941897.5636632,217.28515625,-933.59375,837.40234375,795.8984375,0.0,0,0
1771941897.6362,1771941897.567557,101.5625,-367.1875,-552.734375,-597.16796875,0.0,0,0
1771941897.63625,1771941897.571451,93.26171875,-1000.0,-1000.0,-1000.0,0.0,0,0
1771941897.636294,1771941897.575345,172.8515625,-828.61328125,-510.7421875,-151.85546875,0.0,0,0
1771941897.636338,1771941897.579239,270.5078125,565.4296875,910.15625,989.2578125,0.0,0,0
1771941897.636381,1771941897.5831327,239.74609375,-856.93359375,923.828125,874.0234375,0.0,0,0
1771941897.6364229,1771941897.5870266,117.1875,-212.40234375,-521.97265625,-524.4140625,0.0,0,0
1771941897.636466,1771941897.5909207,90.8203125,-1000.0,-1000.0,-1000.0,0.0,0,0
1771941897.6365042,1771941897.5948145,165.52734375,-828.125,-688.96484375,-447.75390625,0.0,0,0
1771941897.6365492,1771941897.5987084,265.625,507.8125,751.46484375,848.14453125,0.0,0,0
1771941897.63659,1771941897.6026025,233.88671875,-805.6640625,-950.68359375,964.84375,0.0,0,0
1771941897.681399,1771941897.606651,101.5625,284.1796875,-377.9296875,-436.5234375,0.0,0,0
1771941897.681566,1771941897.610545,66.89453125,-1000.0,-1000.0,-1000.0,0.0,0,0
1771941897.681628,1771941897.6144388,151.85546875,-882.8125,-799.8046875,-596.19140625,0.0,0,0
1771941897.6816928,1771941897.6183329,260.25390625,532.2265625,588.8671875,720.21484375,0.0,0,0
1771941897.681758,1771941897.6222267,252.44140625,-824.70703125,-854.00390625,-939.94140625,0.0,0,0
1771941897.681819,1771941897.6261208,159.66796875,607.421875,-146.484375,-229.4921875,0.0,0,0
1771941897.681879,1771941897.6300147,113.28125,-866.69921875,-1000.0,-1000.0,0.0,0,0
1771941897.681937,1771941897.6339087,185.546875,-986.328125,-841.796875,-665.0390625,0.0,0,0
1771941897.681994,1771941897.6378026,289.0625,488.28125,520.01953125,647.4609375,0.0,0,0
1771941897.682053,1771941897.6416965,298.33984375,-831.0546875,-812.5,-887.6953125,0.0,0,0
1771941897.682112,1771941897.6455905,208.984375,656.73828125,181.640625,19.04296875,0.0,0,0
1771941897.6821709,1771941897.6494844,123.53515625,-779.78515625,-1000.0,-1000.0,0.0,0,0
1771941897.72561,1771941897.6535187,163.0859375,-1000.0,-870.1171875,-743.65234375,0.0,0,0
1771941897.72574,1771941897.6574128,268.06640625,329.58984375,525.390625,599.12109375,0.0,0,0
1771941897.725802,1771941897.6613066,278.80859375,-854.4921875,-815.91796875,-865.234375,0.0,0,0
1771941897.725863,1771941897.6652007,166.50390625,801.7578125,530.2734375,286.1328125,0.0,0,0
1771941897.726007,1771941897.6690946,68.84765625,-568.84765625,-905.76171875,-975.5859375,0.0,0,0
1771941897.726075,1771941897.6729887,117.1875,-1000.0,-983.88671875,-893.06640625,0.0,0,0
1771941897.726133,1771941897.6768825,218.75,63.4765625,460.9375,506.8359375,0.0,0,0
1771941897.7261949,1771941897.6807766,250.9765625,-882.32421875,-833.984375,-864.74609375,0.0,0,0
1771941897.7262552,1771941897.6846704,200.68359375,815.91796875,683.10546875,416.9921875,0.0,0,0
1771941897.7263129,1771941897.6885645,110.83984375,-547.8515625,-750.9765625,-866.2109375,0.0,0,0
1771941897.7263901,1771941897.6924584,131.34765625,-1000.0,-1000.0,-1000.0,0.0,0,0
1771941897.726462,1771941897.6963525,539.55078125,-266.6015625,316.89453125,363.28125,0.0,0,0
1771941897.771944,1771941897.7003813,935.546875,-974.12109375,-849.609375,-864.74609375,0.0,0,0
1771941897.772112,1771941897.7042754,917.48046875,847.16796875,781.73828125,547.8515625,0.0,0,0
1771941897.77218,1771941897.7081695,769.04296875,-556.640625,-594.7265625,-746.58203125,0.0,0,0
1771941897.7722409,1771941897.7120633,727.05078125,-1000.0,-1000.0,-1000.0,0.0,0,0
1771941897.772298,1771941897.7159574,788.0859375,-623.53515625,47.36328125,155.76171875,0.0,0,0
1771941897.772513,1771941897.7198513,813.4765625,845.21484375,-889.6484375,-888.18359375,0.0,0,0
1771941897.772578,1771941897.7237453,714.35546875,959.47265625,817.3828125,670.8984375,0.0,0,0
1771941897.77264,1771941897.7276394,561.03515625,-512.20703125,-547.36328125,-663.57421875,0.0,0,0
1771941897.7726989,1771941897.7315333,515.625,-1000.0,-1000.0,-1000.0,0.0,0,0
1771941897.772754,1771941897.7354274,553.7109375,-752.9296875,-297.8515625,-110.83984375,0.0,0,0
1771941897.772813,1771941897.7393212,597.16796875,682.6171875,-987.3046875,-957.51953125,0.0,0,0
1771941897.772871,1771941897.7432153,529.78515625,-921.38671875,854.00390625,787.109375,0.0,0,0
1771941897.8312378,1771941897.747233,380.37109375,-357.421875,-560.546875,-602.05078125,0.0,0,0
1771941897.8313751,1771941897.751127,315.91796875,-1000.0,-1000.0,-1000.0,0.0,0,0
1771941897.831434,1771941897.755021,371.09375,-824.70703125,-583.49609375,-369.140625,0.0,0,0
1771941897.8314922,1771941897.758915,455.078125,524.90234375,856.93359375,917.96875,0.0,0,0
1771941897.831551,1771941897.762809,399.4140625,-820.3125,972.65625,883.30078125,0.0,0,0
1771941897.831608,1771941897.7667031,272.4609375,47.8515625,-470.703125,-534.1796875,0.0,0,0
1771941897.831667,1771941897.770597,239.2578125,-1000.0,-1000.0,-1000.0,0.0,0,0
1771941897.831719,1771941897.774491,288.0859375,-861.81640625,-732.421875,-476.07421875,0.0,0,0
1771941897.831777,1771941897.7783852,367.67578125,527.34375,696.77734375,807.12890625,0.0,0,0
1771941897.8318348,1771941897.782279,321.77734375,-810.546875,-914.55078125,-983.3984375,0.0,0,0
1771941897.831894,1771941897.786173,141.6015625,263.671875,-322.265625,-351.07421875,0.0,0,0
1771941897.8319511,1771941897.7900672,51.26953125,-1000.0,-1000.0,-1000.0,0.0,0,0
1771941897.9057431,1771941897.7940874,104.4921875,-884.27734375,-823.2421875,-607.91015625,0.0,0,0
1771941897.905918,1771941897.7979815,202.1484375,522.94921875,546.875,689.453125,0.0,0,0
1771941897.905965,1771941897.8018756,205.56640625,-820.3125,-833.0078125,-907.71484375,0.0,0,0
1771941897.9060109,1771941897.8057697,71.2890625,594.7265625,-43.9453125,-133.7890625,0.0,0,0
1771941897.906055,1771941897.8096635,-26.85546875,-857.421875,-1000.0,-1000.0,0.0,0,0
1771941897.906097,1771941897.8135576,44.921875,-1000.0,-846.6796875,-671.38671875,0.0,0,0
1771941897.9061399,1771941897.8174517,179.6875,419.43359375,517.08984375,629.39453125,0.0,0,0
1771941897.906183,1771941897.8213458,209.47265625,-839.84375,-808.59375,-867.1875,0.0,0,0
1771941897.906225,1771941897.8252397,82.51953125,728.02734375,331.0546875,185.05859375,0.0,0,0
1771941897.906268,1771941897.8291337,-31.73828125,-693.84765625,-1000.0,-1000.0,0.0,0,0
1771941897.9063091,1771941897.8330278,33.69140625,-1000.0,-898.92578125,-797.36328125,0.0,0,0
1771941897.906351,1771941897.836922,145.01953125,265.13671875,524.90234375,585.44921875,0.0,0,0
1771941897.921389,1771941897.841004,133.30078125,-854.4921875,-824.70703125,-862.3046875,0.0,0,0
1771941897.921509,1771941897.844898,33.69140625,802.24609375,596.6796875,358.88671875,0.0,0,0
1771941897.9215748,1771941897.8487918,-61.5234375,-544.43359375,-859.375,-943.359375,0.0,0,0
1771941897.921636,1771941897.852686,-37.109375,-1000.0,-1000.0,-917.96875,0.0,0,0
1771941897.9216928,1771941897.85658,87.890625,-130.859375,454.58984375,491.2109375,0.0,0,0
1771941897.921759,1771941897.860474,145.99609375,-930.6640625,-841.796875,-853.02734375,0.0,0,0
1771941897.921819,1771941897.8643682,71.77734375,831.0546875,721.19140625,572.265625,0.0,0,0
1771941897.921889,1771941897.8682623,-43.45703125,-548.828125,-705.56640625,-793.9453125,0.0,0,0
1771941897.921956,1771941897.8721564,-29.78515625,-1000.0,-1000.0,-1000.0,0.0,0,0
1771941897.922009,1771941897.8760505,92.28515625,-498.046875,295.41015625,356.4453125,0.0,0,0
1771941897.922087,1771941897.8799443,158.203125,933.59375,-853.515625,-856.93359375,0.0,0,0
1771941897.922154,1771941897.8838384,95.703125,891.6015625,797.8515625,683.59375,0.0,0,0
1771941897.966336,1771941897.8879044,-20.99609375,-565.91796875,-568.84765625,-672.36328125,0.0,0,0
1771941897.9664571,1771941897.8917985,-13.671875,-1000.0,-1000.0,-1000.0,0.0,0,0
1771941897.966519,1771941897.8956926,95.703125,-666.50390625,0.48828125,86.9140625,0.0,0,0
1771941897.966582,1771941897.8995867,166.9921875,785.15625,-899.90234375,-895.01953125,0.0,0,0
1771941897.966642,1771941897.9034808,77.63671875,-978.515625,824.70703125,756.8359375,0.0,0,0
1771941897.966701,1771941897.9073749,-87.890625,-426.26953125,-552.24609375,-616.2109375,0.0,0,0
1771941897.9667609,1771941897.911269,-78.61328125,-1000.0,-1000.0,-1000.0,0.0,0,0
1771941897.966814,1771941897.915163,60.546875,-792.96875,-265.625,-192.3828125,0.0,0,0
1771941897.9668732,1771941897.9190571,150.87890625,619.140625,-981.4453125,-983.3984375,0.0,0,0
1771941897.9669309,1771941897.9229512,99.609375,-879.8828125,867.1875,840.33203125,0.0,0,0
1771941897.966992,1771941897.9268453,-5.859375,-275.390625,-529.296875,-562.01171875,0.0,0,0
1771941897.967049,1771941897.9307394,-42.96875,-1000.0,-1000.0,-1000.0,0.0,0,0
1771941898.010632,1771941897.9347951,12.6953125,-830.56640625,-572.265625,-451.66015625,0.0,0,0
1771941898.010714,1771941897.9386892,136.71875,515.13671875,852.05078125,888.671875,0.0,0,0
1771941898.010756,1771941897.9425833,86.9140625,-812.5,999.51171875,924.31640625,0.0,0,0
1771941898.0107992,1771941897.9464774,-95.703125,121.58203125,-414.55078125,-500.0,0.0,0,0
1771941898.0108411,1771941897.9503715,-172.8515625,-1000.0,-1000.0,-1000.0,0.0,0,0
1771941898.010884,1771941897.9542656,-123.046875,-864.2578125,-724.609375,-611.81640625,0.0,0,0
1771941898.0109272,1771941897.9581597,-18.5546875,523.4375,694.3359375,752.44140625,0.0,0,0
1771941898.0109692,1771941897.9620538,-73.2421875,-810.546875,-897.4609375,-967.28515625,0.0,0,0
1771941898.011012,1771941897.9659479,-243.65234375,431.640625,-262.20703125,-337.40234375,0.0,0,0
1771941898.011054,1771941897.969842,-326.66015625,-979.00390625,-1000.0,-1000.0,0.0,0,0
1771941898.011096,1771941897.9737363,-270.01953125,-911.62109375,-823.2421875,-739.2578125,0.0,0,0
1771941898.01114,1771941897.9776304,-150.390625,538.0859375,542.48046875,633.7890625,0.0,0,0
1771941898.056809,1771941897.9816778,-161.1328125,-837.890625,-825.1953125,-895.01953125,0.0,0,0
1771941898.057012,1771941897.9855719,-287.109375,666.9921875,34.66796875,-121.58203125,0.0,0,0
1771941898.057179,1771941897.989466,-409.1796875,-790.52734375,-1000.0,-1000.0,0.0,0,0
1771941898.057348,1771941897.9933603,-458.49609375,-1000.0,-854.4921875,-811.5234375,0.0,0,0
1771941898.0574121,1771941897.9972544,-347.16796875,409.66796875,520.01953125,571.2890625,0.0,0,0
1771941898.057473,1771941898.0011485,-290.52734375,-845.21484375,-809.5703125,-855.95703125,0.0,0,0
1771941898.057647,1771941898.0050426,-381.34765625,753.41796875,387.20703125,153.3203125,0.0,0,0
1771941898.057716,1771941898.0089366,-466.30859375,-655.2734375,-992.67578125,-1000.0,0.0,0,0
1771941898.057778,1771941898.0128307,-397.4609375,-1000.0,-912.109375,-913.57421875,0.0,0,0
1771941898.057837,1771941898.016725,-228.515625,226.07421875,522.4609375,493.1640625,0.0,0,0
1771941898.0579,1771941898.0206192,-163.57421875,-854.4921875,-827.1484375,-841.796875,0.0,0,0
1771941898.0579588,1771941898.0245132,-250.48828125,804.19921875,620.1171875,380.859375,0.0,0,0
1771941898.101351,1771941898.0285532,-374.51171875,-545.41015625,-830.078125,-905.76171875,0.0,0,0
1771941898.10145,1771941898.0324476,-349.609375,-1000.0,-1000.0,-1000.0,0.0,0,0
1771941898.101495,1771941898.0363417,-219.7265625,-139.6484375,402.83203125,394.04296875,0.0,0,0
1771941898.1015391,1771941898.0402358,-148.92578125,-933.10546875,-843.26171875,-855.95703125,0.0,0,0
1771941898.101584,1771941898.04413,-217.7734375,831.0546875,744.140625,467.28515625,0.0,0,0
1771941898.1016269,1771941898.0480242,-336.42578125,-548.33984375,-668.9453125,-793.9453125,0.0,0,0
1771941898.1016698,1771941898.0519183,-307.6171875,-1000.0,-1000.0,-1000.0,0.0,0,0
1771941898.10171,1771941898.0558124,-174.8046875,-519.53125,234.86328125,192.3828125,0.0,0,0
1771941898.101762,1771941898.0597067,-83.49609375,916.50390625,-857.421875,-869.140625,0.0,0,0
1771941898.102012,1771941898.0636008,-157.2265625,915.52734375,804.19921875,631.34765625,0.0,0,0
1771941898.102058,1771941898.0674949,-339.84375,-536.62109375,-558.59375,-681.15234375,0.0,0,0
1771941898.102101,1771941898.071389,-322.265625,-1000.0,-1000.0,-1000.0,0.0,0,0
