timestamp,lsl_timestamp,TP9,AF7,AF8,TP10,Right AUX,keypress_A,keypress_B
1771949664.980381,1771949664.897905,-1000.0,-1000.0,-1000.0,-1000.0,0.0,0,0
1771949664.980552,1771949664.9017944,-244.140625,-249.0234375,-444.3359375,-208.984375,0.0,0,0
1771949664.980607,1771949664.905684,-864.2578125,-862.79296875,194.3359375,-861.328125,0.0,0,0
1771949664.98065,1771949664.9095736,563.96484375,70.80078125,-132.32421875,-57.6171875,0.0,0,0
1771949664.980696,1771949664.9134629,-822.265625,-1000.0,-785.64453125,-1000.0,0.0,0,0
1771949664.980732,1771949664.9173524,-1000.0,-1000.0,-1000.0,-1000.0,0.0,0,0
1771949664.980767,1771949664.921242,-212.40234375,-139.16015625,-585.44921875,-254.8828125,0.0,0,0
1771949664.9808042,1771949664.9251313,-937.5,-908.69140625,68.359375,-849.12109375,0.0,0,0
1771949664.980839,1771949664.929021,852.05078125,10.7421875,-110.83984375,34.66796875,0.0,0,0
1771949664.980875,1771949664.9329104,-473.6328125,-1000.0,-720.21484375,-1000.0,0.0,0,0
1771949664.980909,1771949664.9367998,-1000.0,-1000.0,-1000.0,-1000.0,0.0,0,0
1771949664.980941,1771949664.9406893,-200.68359375,-410.15625,-686.03515625,-268.06640625,0.0,0,0
1771949665.026846,1771949664.944714,-997.55859375,-952.1484375,17.578125,-828.125,0.0,0,0
1771949665.0269618,1771949664.9486036,-983.3984375,624.0234375,-2.9296875,228.515625,0.0,0,0
1771949665.0270138,1771949664.952493,-155.2734375,-686.5234375,-614.74609375,-1000.0,0.0,0,0
1771949665.027057,1771949664.9563825,-1000.0,-1000.0,-1000.0,-1000.0,0.0,0,0
1771949665.027123,1771949664.960272,-376.46484375,-599.609375,-769.04296875,-403.3203125,0.0,0,0
1771949665.027169,1771949664.9641616,909.1796875,826.66015625,-17.08984375,-894.53125,0.0,0,0
1771949665.027216,1771949664.968051,-905.2734375,874.51171875,87.40234375,358.88671875,0.0,0,0
1771949665.0272582,1771949664.9719405,64.453125,-428.22265625,-559.5703125,-948.73046875,0.0,0,0
1771949665.027313,1771949664.97583,-1000.0,-1000.0,-1000.0,-1000.0,0.0,0,0
1771949665.027366,1771949664.9797196,-554.19921875,-777.83203125,-825.68359375,-556.15234375,0.0,0,0
1771949665.027411,1771949664.983609,816.89453125,641.6015625,-94.23828125,961.9140625,0.0,0,0
1771949665.027453,1771949664.9874985,-859.86328125,883.30078125,163.0859375,701.66015625,0.0,0,0
1771949665.071583,1771949664.9916084,168.9453125,-454.1015625,-444.3359375,-688.96484375,0.0,0,0
1771949665.071693,1771949664.995498,-1000.0,-1000.0,-1000.0,-1000.0,0.0,0,0
1771949665.071729,1771949664.9993875,-824.21875,-917.48046875,-844.23828125,-728.02734375,0.0,0,0
1771949665.071765,1771949665.003277,530.2734375,300.78125,-82.51953125,649.90234375,0.0,0,0
1771949665.071799,1771949665.0071666,-804.6875,-789.55078125,307.12890625,-934.5703125,0.0,0,0
1771949665.0718322,1771949665.0110562,152.34375,120.1171875,-271.484375,-190.4296875,0.0,0,0
1771949665.071865,1771949665.0149457,-1000.0,-1000.0,-930.17578125,-1000.0,0.0,0,0
1771949665.071896,1771949665.0188353,-1000.0,-1000.0,-837.40234375,-897.4609375,0.0,0,0
1771949665.0719318,1771949665.0227249,211.9140625,80.078125,-54.6875,366.69921875,0.0,0,0
1771949665.071967,1771949665.0266144,-770.01953125,-781.73828125,435.05859375,-789.0625,0.0,0,0
1771949665.072002,1771949665.030504,170.41015625,197.265625,-61.03515625,124.0234375,0.0,0,0
1771949665.072035,1771949665.0343935,-1000.0,-1000.0,-690.4296875,-1000.0,0.0,0,0
1771949665.150846,1771949665.0387013,-1000.0,-1000.0,-691.89453125,-902.83203125,0.0,0,0
1771949665.150938,1771949665.0425909,31.25,25.390625,24.90234375,324.70703125,0.0,0,0
1771949665.150968,1771949665.0464807,-782.2265625,-821.2890625,602.05078125,-798.828125,0.0,0,0
1771949665.150998,1771949665.0503702,415.52734375,558.10546875,212.890625,336.9140625,0.0,0,0
1771949665.15103,1771949665.0542598,-936.03515625,-973.14453125,-493.65234375,-1000.0,0.0,0,0
1771949665.151057,1771949665.0581493,-1000.0,-617.1875,-566.89453125,-694.3359375,0.0,0,0
1771949665.151084,1771949665.0620391,54.19921875,744.62890625,124.0234375,630.37109375,0.0,0,0
1771949665.151111,1771949665.0659287,-807.12890625,-884.27734375,694.82421875,-850.5859375,0.0,0,0
1771949665.151139,1771949665.0698183,546.38671875,469.7265625,404.296875,446.77734375,0.0,0,0
1771949665.151166,1771949665.0737078,-795.8984375,-822.265625,-349.609375,-927.24609375,0.0,0,0
1771949665.1511931,1771949665.0775976,-1000.0,-1000.0,-572.75390625,-1000.0,0.0,0,0
1771949665.151218,1771949665.0814872,-206.0546875,-89.84375,88.8671875,191.40625,0.0,0,0
1771949665.1618109,1771949665.0855777,-950.68359375,-964.84375,707.51953125,-883.7890625,0.0,0,0
1771949665.16199,1771949665.0894675,894.53125,988.76953125,583.0078125,767.578125,0.0,0,0
1771949665.1620412,1771949665.093357,-412.59765625,-251.953125,-144.04296875,-600.5859375,0.0,0,0
1771949665.16208,1771949665.0972466,-1000.0,-1000.0,-523.4375,-1000.0,0.0,0,0
1771949665.162115,1771949665.1011364,-176.7578125,115.234375,65.4296875,127.44140625,0.0,0,0
1771949665.1621509,1771949665.105026,-993.65234375,-965.33203125,713.37890625,-941.40625,0.0,0,0
1771949665.162188,1771949665.1089158,-968.26171875,986.81640625,692.3828125,948.2421875,0.0,0,0
1771949665.162224,1771949665.1128054,-132.32421875,-116.2109375,-35.64453125,-266.6015625,0.0,0,0
1771949665.162261,1771949665.116695,-1000.0,-1000.0,-525.87890625,-1000.0,0.0,0,0
1771949665.162299,1771949665.1205847,-217.7734375,-222.16796875,-15.625,-88.8671875,0.0,0,0
1771949665.162336,1771949665.1244743,973.6328125,966.30859375,675.29296875,-988.76953125,0.0,0,0
1771949665.162373,1771949665.128364,-926.7578125,-912.109375,771.97265625,-947.75390625,0.0,0,0
1771949665.206746,1771949665.1324353,89.35546875,154.78515625,78.61328125,-15.13671875,0.0,0,0
1771949665.206843,1771949665.136325,-1000.0,-1000.0,-483.88671875,-1000.0,0.0,0,0
1771949665.206877,1771949665.1402147,-393.06640625,-272.94921875,-74.21875,-153.80859375,0.0,0,0
1771949665.206913,1771949665.1441042,909.1796875,957.51953125,614.2578125,990.72265625,0.0,0,0
1771949665.20695,1771949665.147994,-893.5546875,-901.85546875,824.21875,-918.9453125,0.0,0,0
1771949665.2069829,1771949665.1518836,212.40234375,248.53515625,206.0546875,195.3125,0.0,0,0
1771949665.207016,1771949665.1557734,-1000.0,-1000.0,-387.20703125,-1000.0,0.0,0,0
1771949665.207047,1771949665.159663,-668.45703125,-375.9765625,-147.4609375,-267.08984375,0.0,0,0
1771949665.20708,1771949665.1635528,726.5625,845.703125,539.55078125,966.796875,0.0,0,0
1771949665.207113,1771949665.1674426,-841.30859375,-886.71875,871.58203125,-911.62109375,0.0,0,0
1771949665.2071521,1771949665.1713321,176.26953125,235.3515625,282.71484375,223.14453125,0.0,0,0
1771949665.207186,1771949665.175222,-1000.0,-1000.0,-352.05078125,-1000.0,0.0,0,0
1771949665.251884,1771949665.1792808,-872.55859375,-693.84765625,-225.5859375,-416.015625,0.0,0,0
1771949665.251986,1771949665.1831706,455.56640625,615.234375,476.07421875,892.578125,0.0,0,0
1771949665.252018,1771949665.18706,-802.734375,-829.58984375,912.109375,-881.8359375,0.0,0,0
1771949665.252073,1771949665.19095,236.81640625,356.93359375,386.71875,210.44921875,0.0,0,0
1771949665.252116,1771949665.1948397,-1000.0,-1000.0,-269.04296875,-1000.0,0.0,0,0
1771949665.252144,1771949665.1987293,-683.59375,-237.79296875,-216.30859375,-273.4375,0.0,0,0
1771949665.252172,1771949665.202619,689.94140625,991.2109375,451.66015625,962.40234375,0.0,0,0
1771949665.2522,1771949665.2065089,-833.49609375,-938.96484375,946.77734375,-914.0625,0.0,0,0
1771949665.252227,1771949665.2103984,370.60546875,500.0,522.94921875,367.1875,0.0,0,0
1771949665.252256,1771949665.2142882,-923.33984375,-911.1328125,-172.36328125,-1000.0,0.0,0,0
1771949665.2522838,1771949665.218178,-1000.0,-1000.0,-270.01953125,-749.51171875,0.0,0,0
1771949665.2523189,1771949665.2220676,-14.6484375,239.74609375,368.1640625,574.70703125,0.0,0,0
1771949665.297215,1771949665.226117,-820.3125,-884.27734375,946.77734375,-848.6328125,0.0,0,0
1771949665.297377,1771949665.2300067,584.47265625,768.5546875,661.62109375,527.34375,0.0,0,0
1771949665.297442,1771949665.2338965,-801.26953125,-677.734375,-72.75390625,-979.00390625,0.0,0,0
1771949665.297503,1771949665.2377863,-1000.0,-882.32421875,-267.578125,-765.625,0.0,0,0
1771949665.2979982,1771949665.2416759,2.44140625,556.640625,334.9609375,639.16015625,0.0,0,0
1771949665.298048,1771949665.2455657,-896.484375,-968.26171875,944.82421875,-909.66796875,0.0,0,0
1771949665.298093,1771949665.2494555,839.35546875,952.1484375,862.79296875,756.8359375,0.0,0,0
1771949665.298136,1771949665.2533453,-440.91796875,-163.0859375,73.2421875,-642.08984375,0.0,0,0
1771949665.298178,1771949665.257235,-1000.0,-1000.0,-316.40625,-1000.0,0.0,0,0
1771949665.29822,1771949665.2611246,-176.7578125,-109.86328125,292.96875,327.63671875,0.0,0,0
1771949665.2982621,1771949665.2650144,-994.62890625,-990.72265625,917.48046875,-956.0546875,0.0,0,0
1771949665.2983081,1771949665.2689042,-965.8203125,-925.78125,921.875,983.88671875,0.0,0,0
1771949665.3557,1771949665.2729406,-136.71875,-27.34375,204.58984375,-298.33984375,0.0,0,0
1771949665.3558452,1771949665.2768302,-1000.0,-1000.0,-272.94921875,-1000.0,0.0,0,0
1771949665.3558788,1771949665.28072,-170.8984375,145.99609375,257.32421875,324.21875,0.0,0,0
1771949665.355907,1771949665.2846098,991.69921875,-983.3984375,865.234375,-971.6796875,0.0,0,0
1771949665.355936,1771949665.2884996,-925.78125,-924.8046875,969.7265625,-943.84765625,0.0,0,0
1771949665.355964,1771949665.2923894,63.4765625,82.51953125,336.9140625,-61.5234375,0.0,0,0
1771949665.3559911,1771949665.2962792,-1000.0,-1000.0,-197.265625,-1000.0,0.0,0,0
1771949665.3560162,1771949665.300169,-168.9453125,273.92578125,213.37890625,312.5,0.0,0,0
1771949665.356043,1771949665.3040588,994.62890625,-971.19140625,802.24609375,-970.703125,0.0,0,0
1771949665.356073,1771949665.3079484,-930.6640625,-961.42578125,-995.60546875,-956.0546875,0.0,0,0
1771949665.356101,1771949665.3118382,235.83984375,240.234375,412.59765625,203.61328125,0.0,0,0
1771949665.356128,1771949665.315728,-1000.0,-1000.0,-232.91015625,-1000.0,0.0,0,0
1771949665.401736,1771949665.3197527,-556.15234375,-425.78125,34.1796875,-239.2578125,0.0,0,0
1771949665.401836,1771949665.3236425,838.37890625,876.953125,687.01171875,980.95703125,0.0,0,0
1771949665.401952,1771949665.3275323,-866.69921875,-874.0234375,996.58203125,-911.1328125,0.0,0,0
1771949665.4020019,1771949665.331422,206.0546875,253.41796875,418.9453125,222.65625,0.0,0,0
1771949665.4020312,1771949665.335312,-1000.0,-1000.0,-259.27734375,-1000.0,0.0,0,0
1771949665.402058,1771949665.3392017,-520.5078125,-215.8203125,-87.890625,-260.25390625,0.0,0,0
1771949665.402087,1771949665.3430915,859.86328125,-959.47265625,603.02734375,980.95703125,0.0,0,0
1771949665.402115,1771949665.3469813,-865.72265625,947.265625,946.77734375,-916.9921875,0.0,0,0
1771949665.402142,1771949665.350871,160.15625,-53.7109375,375.0,212.890625,0.0,0,0
1771949665.402199,1771949665.354761,-1000.0,-1000.0,-252.44140625,-1000.0,0.0,0,0
1771949665.402242,1771949665.3586507,-1000.0,-511.71875,-217.28515625,-661.62109375,0.0,0,0
1771949665.4022741,1771949665.3625405,119.62890625,530.2734375,425.78125,635.7421875,0.0,0,0
1771949665.446629,1771949665.3666477,-767.08984375,-862.3046875,910.15625,-838.37890625,0.0,0,0
1771949665.446759,1771949665.3705378,320.3125,472.65625,462.40234375,270.01953125,0.0,0,0
1771949665.446798,1771949665.3744276,-959.47265625,-921.875,-226.5625,-1000.0,0.0,0,0
1771949665.446831,1771949665.3783174,-1000.0,-979.98046875,-334.9609375,-873.046875,0.0,0,0
1771949665.446866,1771949665.3822072,-49.31640625,221.6796875,333.49609375,383.7890625,0.0,0,0
1771949665.4469,1771949665.386097,-805.6640625,-853.515625,903.80859375,-810.546875,0.0,0,0
1771949665.446945,1771949665.3899868,496.58203125,595.703125,541.9921875,383.7890625,0.0,0,0
1771949665.446982,1771949665.3938766,-855.95703125,-734.375,-216.30859375,-918.9453125,0.0,0,0
1771949665.447027,1771949665.3977666,-1000.0,-1000.0,-452.1484375,-1000.0,0.0,0,0
1771949665.447077,1771949665.4016564,-224.609375,-136.71875,165.0390625,-81.0546875,0.0,0,0
1771949665.4471319,1771949665.4055462,-908.203125,-908.203125,750.9765625,-838.37890625,0.0,0,0
1771949665.447188,1771949665.409436,750.48828125,796.875,524.4140625,532.71484375,0.0,0,0
1771949665.4916449,1771949665.4135303,-621.09375,-544.43359375,-197.265625,-816.40625,0.0,0,0
1771949665.491759,1771949665.4174201,-1000.0,-1000.0,-507.8125,-1000.0,0.0,0,0
1771949665.491804,1771949665.42131,-196.2890625,-17.578125,60.546875,-165.52734375,0.0,0,0
1771949665.491849,1771949665.4252,-956.0546875,-983.88671875,678.7109375,-890.13671875,0.0,0,0
1771949665.4919062,1771949665.4290898,916.50390625,948.73046875,571.2890625,711.9140625,0.0,0,0
1771949665.491953,1771949665.4329796,-362.79296875,-306.15234375,-179.6875,-641.11328125,0.0,0,0
1771949665.4919958,1771949665.4368696,-1000.0,-1000.0,-577.63671875,-1000.0,0.0,0,0
1771949665.4920378,1771949665.4407594,-188.96484375,111.81640625,-63.4765625,-162.59765625,0.0,0,0
1771949665.492099,1771949665.4446492,998.046875,-967.28515625,547.36328125,-931.640625,0.0,0,0
1771949665.492161,1771949665.448539,-963.37890625,768.06640625,600.09765625,834.9609375,0.0,0,0
1771949665.4922051,1771949665.452429,-82.51953125,-313.96484375,-126.46484375,-422.36328125,0.0,0,0
1771949665.492266,1771949665.4563189,-1000.0,-1000.0,-684.5703125,-1000.0,0.0,0,0
1771949665.5503051,1771949665.4604013,-404.296875,-445.3125,-245.1171875,-328.125,0.0,0,0
1771949665.5504482,1771949665.464291,894.53125,866.69921875,444.82421875,983.88671875,0.0,0,0
1771949665.5505128,1771949665.468181,-894.53125,-905.76171875,586.9140625,946.77734375,0.0,0,0
1771949665.550574,1771949665.472071,104.98046875,43.9453125,-84.47265625,-250.48828125,0.0,0,0
1771949665.550633,1771949665.4759607,-1000.0,-1000.0,-687.01171875,-1000.0,0.0,0,0
1771949665.55069,1771949665.4798508,-623.53515625,-595.21484375,-398.4375,-538.57421875,0.0,0,0
1771949665.55075,1771949665.4837406,755.37109375,831.54296875,287.109375,914.0625,0.0,0,0
1771949665.5508192,1771949665.4876306,-845.703125,916.50390625,500.0,907.2265625,0.0,0,0
1771949665.550889,1771949665.4915204,142.578125,-355.95703125,-147.4609375,-420.8984375,0.0,0,0
1771949665.5509498,1771949665.4954104,-1000.0,-1000.0,-764.6484375,-1000.0,0.0,0,0
1771949665.551004,1771949665.4993002,-927.24609375,-991.69921875,-605.46875,-813.4765625,0.0,0,0
1771949665.5510771,1771949665.50319,371.58203125,176.26953125,58.10546875,514.6484375,0.0,0,0
1771949665.581803,1771949665.5072615,-783.69140625,-798.828125,446.77734375,-858.3984375,0.0,0,0
1771949665.5819662,1771949665.5111513,143.5546875,48.828125,-110.83984375,-96.6796875,0.0,0,0
1771949665.582029,1771949665.5150414,-1000.0,-1000.0,-760.25390625,-1000.0,0.0,0,0
1771949665.582073,1771949665.5189312,-1000.0,-988.28125,-694.3359375,-1000.0,0.0,0,0
1771949665.5821152,1771949665.5228212,95.21484375,125.48828125,0.9765625,201.66015625,0.0,0,0
1771949665.582177,1771949665.5267112,-766.6015625,-788.0859375,491.69921875,-778.3203125,0.0,0,0
1771949665.582239,1771949665.530601,210.44921875,255.859375,9.27734375,55.17578125,0.0,0,0
1771949665.582287,1771949665.534491,-1000.0,-970.21484375,-666.50390625,-1000.0,0.0,0,0
1771949665.582328,1771949665.5383809,-1000.0,-1000.0,-749.0234375,-1000.0,0.0,0,0
1771949665.582382,1771949665.542271,-108.88671875,-190.91796875,-69.3359375,-5.37109375,0.0,0,0
1771949665.5824242,1771949665.5461607,-802.24609375,-831.54296875,501.953125,-776.85546875,0.0,0,0
1771949665.582471,1771949665.5500507,418.9453125,321.77734375,137.20703125,240.72265625,0.0,0,0
1771949665.626733,1771949665.5541096,-910.64453125,-953.125,-554.19921875,-993.1640625,0.0,0,0
1771949665.626873,1771949665.5579994,-1000.0,-1000.0,-713.37890625,-1000.0,0.0,0,0
1771949665.6269178,1771949665.5618894,-237.79296875,-225.5859375,-70.3125,-143.06640625,0.0,0,0
1771949665.62697,1771949665.5657794,-886.23046875,-891.11328125,525.87890625,-829.1015625,0.0,0,0
1771949665.6270132,1771949665.5696692,675.78125,688.96484375,310.05859375,471.6796875,0.0,0,0
1771949665.6270561,1771949665.5735593,-716.30859375,-657.2265625,-391.6015625,-874.51171875,0.0,0,0
1771949665.6271,1771949665.5774493,-1000.0,-1000.0,-695.80078125,-1000.0,0.0,0,0
1771949665.6271381,1771949665.5813391,-192.87109375,-190.4296875,-113.76953125,-167.96875,0.0,0,0
1771949665.627199,1771949665.5852292,-972.65625,998.046875,499.0234375,-915.0390625,0.0,0,0
1771949665.627451,1771949665.5891192,962.890625,-977.5390625,455.56640625,808.10546875,0.0,0,0
1771949665.6275089,1771949665.5930092,-294.43359375,-90.8203125,-238.76953125,-519.04296875,0.0,0,0
1771949665.627552,1771949665.596899,-1000.0,-1000.0,-684.08203125,-1000.0,0.0,0,0
1771949665.672402,1771949665.6009476,-173.828125,-280.2734375,-142.08984375,-170.41015625,0.0,0,0
1771949665.672535,1771949665.6048377,-999.51171875,966.30859375,497.0703125,-966.796875,0.0,0,0
1771949665.672579,1771949665.6087277,-955.078125,-926.26953125,543.45703125,957.51953125,0.0,0,0
1771949665.672622,1771949665.6126175,-59.5703125,2.9296875,-135.25390625,-263.18359375,0.0,0,0
1771949665.672665,1771949665.6165075,-1000.0,-1000.0,-642.08984375,-1000.0,0.0,0,0
1771949665.6727061,1771949665.6203976,-300.78125,-222.16796875,-169.43359375,-197.75390625,0.0,0,0
1771949665.672749,1771949665.6242876,948.73046875,-946.2890625,487.3046875,-974.12109375,0.0,0,0
1771949665.672809,1771949665.6281776,-917.48046875,836.42578125,569.3359375,956.54296875,0.0,0,0
1771949665.672864,1771949665.6320674,91.796875,-278.3203125,-72.265625,-196.77734375,0.0,0,0
1771949665.6729128,1771949665.6359575,-1000.0,-1000.0,-620.60546875,-1000.0,0.0,0,0
1771949665.67297,1771949665.6398475,-532.71484375,-537.59765625,-290.0390625,-336.42578125,0.0,0,0
1771949665.673024,1771949665.6437376,831.0546875,765.625,384.27734375,913.0859375,0.0,0,0
1771949665.74863,1771949665.6479683,-864.74609375,-855.46875,650.87890625,-897.4609375,0.0,0,0
1771949665.748773,1771949665.6518583,190.4296875,203.61328125,70.3125,174.8046875,0.0,0,0
1771949665.748822,1771949665.6557484,-1000.0,-1000.0,-552.24609375,-1000.0,0.0,0,0
1771949665.748866,1771949665.6596384,-796.875,-754.39453125,-344.23828125,-513.18359375,0.0,0,0
1771949665.748909,1771949665.6635284,570.3125,567.3828125,323.2421875,826.171875,0.0,0,0
1771949665.7489522,1771949665.6674185,-809.08203125,-815.91796875,674.31640625,-870.60546875,0.0,0,0
1771949665.748995,1771949665.6713085,145.99609375,185.05859375,98.6328125,132.8125,0.0,0,0
1771949665.749037,1771949665.6751986,-1000.0,-1000.0,-576.171875,-1000.0,0.0,0,0
1771949665.749076,1771949665.6790886,-1000.0,-1000.0,-540.0390625,-1000.0,0.0,0,0
1771949665.749116,1771949665.6829786,119.140625,-20.01953125,80.078125,276.3671875,0.0,0,0
1771949665.749158,1771949665.6868687,-766.6015625,-844.7265625,477.5390625,-827.1484375,0.0,0,0
1771949665.7491999,1771949665.6907587,136.71875,-9.765625,-42.48046875,-91.796875,0.0,0,0
1771949665.7779799,1771949665.6947887,-1000.0,-1000.0,-741.69921875,-1000.0,0.0,0,0
1771949665.778223,1771949665.6986787,-1000.0,-1000.0,-836.9140625,-1000.0,0.0,0,0
1771949665.778333,1771949665.7025688,-91.796875,-151.3671875,-252.44140625,16.11328125,0.0,0,0
1771949665.778423,1771949665.7064588,-790.0390625,-809.5703125,206.54296875,-862.79296875,0.0,0,0
1771949665.778513,1771949665.7103488,180.6640625,112.79296875,-197.75390625,-181.640625,0.0,0,0
1771949665.7786949,1771949665.714239,-1000.0,-1000.0,-845.703125,-1000.0,0.0,0,0
1771949665.778784,1771949665.7181292,-1000.0,-1000.0,-1000.0,-1000.0,0.0,0,0
1771949665.778832,1771949665.7220192,-257.32421875,-201.171875,-489.2578125,-191.89453125,0.0,0,0
1771949665.7789319,1771949665.7259092,-831.0546875,893.06640625,57.6171875,-907.2265625,0.0,0,0
1771949665.779124,1771949665.7297993,241.69921875,-381.8359375,-195.3125,-161.62109375,0.0,0,0
1771949665.7792351,1771949665.7336893,-1000.0,-1000.0,-781.25,-1000.0,0.0,0,0
1771949665.7794461,1771949665.7375793,-1000.0,-1000.0,-1000.0,-1000.0,0.0,0,0
1771949665.8219452,1771949665.7416806,-257.32421875,-357.91015625,-563.4765625,-273.4375,0.0,0,0
1771949665.8223,1771949665.7455707,-866.2109375,-874.51171875,23.92578125,-827.63671875,0.0,0,0
1771949665.8223438,1771949665.749461,599.609375,261.71875,-96.6796875,166.9921875,0.0,0,0
1771949665.8223732,1771949665.753351,-788.0859375,-994.140625,-694.82421875,-1000.0,0.0,0,0
1771949665.822492,1771949665.757241,-1000.0,-1000.0,-1000.0,-1000.0,0.0,0,0
1771949665.8226602,1771949665.7611313,-192.87109375,-220.703125,-537.59765625,-256.8359375,0.0,0,0
1771949665.8226979,1771949665.7650213,-981.93359375,-875.48828125,88.37890625,-865.234375,0.0,0,0
1771949665.8227258,1771949665.7689114,983.88671875,545.8984375,99.609375,518.06640625,0.0,0,0
1771949665.822755,1771949665.7728014,-235.83984375,-732.421875,-541.50390625,-801.26953125,0.0,0,0
1771949665.822782,1771949665.7766917,-1000.0,-1000.0,-940.4296875,-1000.0,0.0,0,0
1771949665.822808,1771949665.7805817,-293.9453125,-395.01953125,-426.7578125,-196.77734375,0.0,0,0
1771949665.822855,1771949665.7844718,935.05859375,877.9296875,259.765625,977.5390625,0.0,0,0
1771949665.867615,1771949665.7885635,-906.73828125,-901.3671875,441.40625,-927.24609375,0.0,0,0
1771949665.867742,1771949665.7924538,103.02734375,74.21875,-169.43359375,2.9296875,0.0,0,0
1771949665.86779,1771949665.7963438,-1000.0,-1000.0,-676.7578125,-1000.0,0.0,0,0
1771949665.867832,1771949665.800234,-343.26171875,-268.06640625,-275.87890625,-106.93359375,0.0,0,0
1771949665.867882,1771949665.804124,935.05859375,959.47265625,410.64453125,-998.046875,0.0,0,0
1771949665.8679261,1771949665.8080144,-903.3203125,-911.1328125,677.734375,-928.22265625,0.0,0,0
1771949665.8679721,1771949665.8119044,212.890625,226.5625,88.37890625,216.30859375,0.0,0,0
1771949665.868014,1771949665.8157945,-1000.0,-1000.0,-527.83203125,-1000.0,0.0,0,0
1771949665.868053,1771949665.8196847,-714.84375,-767.08984375,-312.5,-344.23828125,0.0,0,0
1771949665.868095,1771949665.8235748,673.828125,541.015625,398.4375,936.03515625,0.0,0,0
1771949665.868137,1771949665.827465,-827.63671875,-814.453125,763.671875,-883.30078125,0.0,0,0
1771949665.8681788,1771949665.831355,194.3359375,252.9296875,230.46875,198.73046875,0.0,0,0
1771949665.9120388,1771949665.835436,-1000.0,-1000.0,-322.75390625,-1000.0,0.0,0,0
1771949665.9121878,1771949665.8393264,-355.95703125,-224.12109375,-159.1796875,-83.0078125,0.0,0,0
1771949665.912241,1771949665.8432167,932.6171875,981.4453125,522.4609375,-981.4453125,0.0,0,0
1771949665.912286,1771949665.8471067,-893.06640625,-899.90234375,-989.2578125,-917.96875,0.0,0,0
1771949665.91233,1771949665.850997,336.42578125,430.17578125,603.515625,254.39453125,0.0,0,0
1771949665.912373,1771949665.854887,-1000.0,-877.44140625,27.83203125,-1000.0,0.0,0,0
1771949665.9124181,1771949665.8587773,-288.57421875,191.89453125,104.98046875,-21.484375,0.0,0,0
1771949665.9124658,1771949665.8626676,974.609375,-957.51953125,642.578125,-966.796875,0.0,0,0
1771949665.912513,1771949665.8665576,-911.62109375,-978.515625,979.4921875,-942.3828125,0.0,0,0
1771949665.912566,1771949665.8704479,367.67578125,362.79296875,556.640625,287.109375,0.0,0,0
1771949665.912608,1771949665.874338,-923.33984375,-950.68359375,-198.73046875,-997.0703125,0.0,0,0
1771949665.9126499,1771949665.8782282,-1000.0,-982.421875,-386.71875,-1000.0,0.0,0,0
1771949665.956637,1771949665.8822942,-176.7578125,58.10546875,211.42578125,-9.27734375,0.0,0,0
1771949665.956705,1771949665.8861845,-842.7734375,-871.58203125,739.74609375,-804.19921875,0.0,0,0
1771949665.9567401,1771949665.8900747,566.40625,546.875,427.734375,412.59765625,0.0,0,0
1771949665.956769,1771949665.893965,-818.359375,-788.0859375,-289.0625,-927.734375,0.0,0,0
1771949665.956797,1771949665.897855,-1000.0,-1000.0,-522.94921875,-1000.0,0.0,0,0
1771949665.956823,1771949665.9017453,-217.7734375,-112.79296875,96.19140625,-53.22265625,0.0,0,0
1771949665.956852,1771949665.9056356,-918.9453125,-877.44140625,668.9453125,-838.37890625,0.0,0,0
1771949665.9568808,1771949665.9095256,788.57421875,659.1796875,477.5390625,494.62890625,0.0,0,0
1771949665.956909,1771949665.913416,-570.80078125,-652.83203125,-273.92578125,-831.0546875,0.0,0,0
1771949665.956937,1771949665.9173062,-1000.0,-1000.0,-617.67578125,-1000.0,0.0,0,0
1771949665.956962,1771949665.9211965,-177.24609375,-194.3359375,-28.3203125,-150.390625,0.0,0,0
1771949665.956991,1771949665.9250865,-998.53515625,986.328125,597.65625,-968.26171875,0.0,0,0
1771949666.001272,1771949665.9291406,-964.35546875,-937.5,614.2578125,987.79296875,0.0,0,0
1771949666.001327,1771949665.9330308,-130.859375,-89.84375,-49.8046875,-306.640625,0.0,0,0
1771949666.0014238,1771949665.936921,-1000.0,-1000.0,-477.5390625,-1000.0,0.0,0,0
1771949666.001441,1771949665.9408112,-173.33984375,72.75390625,56.15234375,115.234375,0.0,0,0
1771949666.001457,1771949665.9447014,995.60546875,-994.140625,637.20703125,-960.44921875,0.0,0,0
1771949666.001473,1771949665.9485917,-943.359375,-979.98046875,708.984375,-999.51171875,0.0,0,0
1771949666.001489,1771949665.952482,43.9453125,127.44140625,25.87890625,-82.03125,0.0,0,0
1771949666.001504,1771949665.9563723,-1000.0,-1000.0,-563.96484375,-1000.0,0.0,0,0
1771949666.001518,1771949665.9602623,-449.21875,-523.92578125,-172.8515625,-267.08984375,0.0,0,0
1771949666.001533,1771949665.9641526,874.0234375,800.78125,509.765625,951.66015625,0.0,0,0
1771949666.001549,1771949665.9680429,-880.37109375,-863.76953125,741.2109375,-910.64453125,0.0,0,0
1771949666.0015638,1771949665.9719331,208.0078125,194.3359375,97.16796875,142.578125,0.0,0,0
1771949666.0459032,1771949665.9759748,-1000.0,-1000.0,-537.109375,-1000.0,0.0,0,0
1771949666.045953,1771949665.979865,-650.87890625,-559.08203125,-250.0,-354.4921875,0.0,0,0
1771949666.045974,1771949665.9837554,746.09375,768.5546875,477.05078125,925.78125,0.0,0,0
1771949666.045992,1771949665.9876456,-845.21484375,-835.44921875,793.45703125,-895.5078125,0.0,0,0
1771949666.04601,1771949665.991536,177.24609375,201.171875,203.61328125,213.37890625,0.0,0,0
1771949666.0460281,1771949665.9954262,-1000.0,-1000.0,-409.1796875,-1000.0,0.0,0,0
1771949666.0460439,1771949665.9993165,-875.48828125,-123.53515625,-268.06640625,-484.86328125,0.0,0,0
1771949666.0460632,1771949666.0032067,460.44921875,971.6796875,395.99609375,833.49609375,0.0,0,0
1771949666.046081,1771949666.007097,-793.45703125,777.83203125,762.6953125,-874.51171875,0.0,0,0
1771949666.046098,1771949666.0109873,142.08984375,-260.25390625,212.40234375,171.875,0.0,0,0
1771949666.0461152,1771949666.0148776,-1000.0,-1000.0,-433.10546875,-1000.0,0.0,0,0
1771949666.046131,1771949666.0187678,-1000.0,-1000.0,-434.5703125,-907.71484375,0.0,0,0
1771949666.0913742,1771949666.0227973,72.265625,93.75,238.28125,356.93359375,0.0,0,0
1771949666.091402,1771949666.0266876,-770.01953125,-790.0390625,750.9765625,-791.50390625,0.0,0,0
1771949666.091423,1771949666.030578,308.59375,309.08203125,277.34375,210.44921875,0.0,0,0
1771949666.091443,1771949666.0344682,-964.84375,-990.234375,-460.9375,-1000.0,0.0,0,0
1771949666.091462,1771949666.0383584,-1000.0,-1000.0,-563.4765625,-994.140625,0.0,0,0
1771949666.091481,1771949666.042249,-80.56640625,76.66015625,161.1328125,190.91796875,0.0,0,0
1771949666.0915,1771949666.0461392,-809.08203125,-825.68359375,728.515625,-793.45703125,0.0,0,0
1771949666.09152,1771949666.0500295,489.74609375,531.25,332.03125,324.70703125,0.0,0,0
1771949666.0915399,1771949666.0539198,-864.74609375,-866.69921875,-443.359375,-979.00390625,0.0,0,0
1771949666.09156,1771949666.05781,-1000.0,-982.91015625,-625.48828125,-1000.0,0.0,0,0
1771949666.091578,1771949666.0617003,-225.09765625,198.73046875,34.1796875,40.52734375,0.0,0,0
1771949666.091599,1771949666.0655906,-908.69140625,-897.94921875,608.88671875,-837.40234375,0.0,0,0
1771949666.151548,1771949666.0696094,752.9296875,698.73046875,414.55078125,497.0703125,0.0,0,0
1771949666.1516109,1771949666.0734997,-617.67578125,-593.75,-390.625,-825.1953125,0.0,0,0
1771949666.151645,1771949666.07739,-1000.0,-1000.0,-757.8125,-1000.0,0.0,0,0
1771949666.151674,1771949666.0812802,-187.01171875,-239.2578125,-125.48828125,-216.796875,0.0,0,0
1771949666.151704,1771949666.0851705,-979.00390625,986.81640625,524.4140625,-903.80859375,0.0,0,0
1771949666.151734,1771949666.089061,981.93359375,-990.72265625,479.00390625,701.66015625,0.0,0,0
1771949666.151762,1771949666.0929513,-244.62890625,-125.9765625,-313.4765625,-622.55859375,0.0,0,0
1771949666.151792,1771949666.0968416,-1000.0,-1000.0,-865.234375,-1000.0,0.0,0,0
1771949666.151818,1771949666.1007318,-267.578125,-498.046875,-316.40625,-243.65234375,0.0,0,0
1771949666.151846,1771949666.1046221,972.16796875,889.6484375,402.34375,-911.62109375,0.0,0,0
1771949666.1518772,1771949666.1085124,-948.73046875,937.98828125,460.44921875,682.12890625,0.0,0,0
1771949666.151905,1771949666.112403,-70.3125,-339.84375,-339.35546875,-615.234375,0.0,0,0
1771949666.1961741,1771949666.1165006,-1000.0,-1000.0,-932.6171875,-1000.0,0.0,0,0
1771949666.1962292,1771949666.120391,-469.7265625,-560.546875,-488.28125,-450.68359375,0.0,0,0
1771949666.1962502,1771949666.1242812,878.90625,786.62109375,221.19140625,-968.75,0.0,0,0
1771949666.196269,1771949666.1281717,-900.390625,914.0625,356.93359375,608.88671875,0.0,0,0
1771949666.196287,1771949666.132062,-14.6484375,-427.734375,-384.765625,-756.34765625,0.0,0,0
1771949666.1963048,1771949666.1359522,-1000.0,-1000.0,-1000.0,-1000.0,0.0,0,0
1771949666.196321,1771949666.1398425,-715.33203125,-947.75390625,-773.92578125,-654.296875,0.0,0,0
1771949666.196339,1771949666.143733,641.6015625,393.5546875,-5.37109375,858.88671875,0.0,0,0
1771949666.196356,1771949666.1476233,-831.0546875,884.765625,294.43359375,759.27734375,0.0,0,0
1771949666.196401,1771949666.1515136,68.84765625,-564.453125,-377.9296875,-681.15234375,0.0,0,0
1771949666.196438,1771949666.155404,-1000.0,-1000.0,-999.51171875,-1000.0,0.0,0,0
1771949666.196476,1771949666.1592944,-935.546875,-1000.0,-889.6484375,-856.93359375,0.0,0,0
1771949666.2415411,1771949666.1633804,340.33203125,102.5390625,-94.7265625,480.95703125,0.0,0,0
1771949666.2415712,1771949666.1672707,-778.3203125,-820.3125,356.93359375,-910.15625,0.0,0,0
1771949666.241581,1771949666.1711612,141.11328125,-37.109375,-290.0390625,-249.51171875,0.0,0,0
1771949666.2415922,1771949666.1750515,-1000.0,-1000.0,-950.68359375,-1000.0,0.0,0,0
1771949666.241601,1771949666.178942,-1000.0,-1000.0,-968.75,-1000.0,0.0,0,0
1771949666.241611,1771949666.1828322,64.453125,-44.43359375,-214.84375,163.57421875,0.0,0,0
1771949666.24162,1771949666.1867225,-770.01953125,-798.33984375,369.62890625,-834.47265625,0.0,0,0
1771949666.241631,1771949666.190613,138.18359375,51.7578125,-231.4453125,-143.06640625,0.0,0,0
1771949666.2416399,1771949666.1945033,-1000.0,-1000.0,-921.875,-1000.0,0.0,0,0
1771949666.241649,1771949666.1983938,-1000.0,-1000.0,-1000.0,-1000.0,0.0,0,0
1771949666.2416582,1771949666.202284,-146.484375,-202.63671875,-356.4453125,-55.6640625,0.0,0,0
1771949666.241668,1771949666.2061746,-800.29296875,-866.69921875,273.4375,-829.1015625,0.0,0,0
1771949666.28602,1771949666.2102485,255.859375,-2.9296875,-190.91796875,-71.77734375,0.0,0,0
1771949666.286058,1771949666.214139,-989.74609375,-1000.0,-848.14453125,-1000.0,0.0,0,0
1771949666.28607,1771949666.2180293,-1000.0,-1000.0,-1000.0,-1000.0,0.0,0,0
1771949666.286079,1771949666.2219198,-252.9296875,-298.828125,-548.828125,-249.0234375,0.0,0,0
1771949666.28609,1771949666.22581,-876.953125,-884.27734375,170.41015625,-832.51953125,0.0,0,0
1771949666.2861,1771949666.2297006,652.83203125,428.7109375,-124.0234375,101.07421875,0.0,0,0
1771949666.28611,1771949666.2335908,-740.72265625,-840.8203125,-782.71484375,-1000.0,0.0,0,0
1771949666.286121,1771949666.2374814,-1000.0,-1000.0,-1000.0,-1000.0,0.0,0,0
1771949666.28613,1771949666.2413719,-223.6328125,-354.98046875,-692.3828125,-232.91015625,0.0,0,0
1771949666.286174,1771949666.2452621,-838.37890625,969.23828125,-10.25390625,-875.0,0.0,0,0
1771949666.2861938,1771949666.2491527,214.84375,-108.88671875,-239.74609375,-65.91796875,0.0,0,0
1771949666.28624,1771949666.253043,-1000.0,-1000.0,-824.70703125,-1000.0,0.0,0,0
1771949666.346148,1771949666.257194,-1000.0,-1000.0,-1000.0,-1000.0,0.0,0,0
1771949666.346188,1771949666.2610846,-348.14453125,-556.640625,-830.078125,-301.26953125,0.0,0,0
1771949666.3462012,1771949666.264975,-936.03515625,998.53515625,-227.5390625,-841.30859375,0.0,0,0
1771949666.346213,1771949666.2688656,731.93359375,193.84765625,-196.77734375,134.765625,0.0,0,0
1771949666.3462248,1771949666.2727559,-610.83984375,-1000.0,-712.40234375,-1000.0,0.0,0,0
1771949666.346236,1771949666.2766464,-1000.0,-1000.0,-1000.0,-1000.0,0.0,0,0
1771949666.346246,1771949666.280537,-386.71875,-484.86328125,-777.83203125,-382.32421875,0.0,0,0
1771949666.3463109,1771949666.2844274,886.71875,923.828125,17.08984375,979.98046875,0.0,0,0
1771949666.346324,1771949666.2883177,-897.4609375,813.4765625,211.9140625,945.80078125,0.0,0,0
1771949666.346336,1771949666.2922082,93.26171875,-385.7421875,-457.03125,-270.99609375,0.0,0,0
1771949666.346348,1771949666.2960987,-1000.0,-1000.0,-993.1640625,-1000.0,0.0,0,0
1771949666.346358,1771949666.2999892,-525.87890625,-532.2265625,-614.74609375,-273.92578125,0.0,0,0
1771949666.376181,1771949666.3040395,836.9140625,763.18359375,238.76953125,930.6640625,0.0,0,0
1771949666.376199,1771949666.30793,-866.2109375,-851.5625,605.46875,-892.578125,0.0,0,0
1771949666.376213,1771949666.3118205,206.54296875,214.84375,-67.3828125,208.984375,0.0,0,0
1771949666.3762271,1771949666.315711,-1000.0,-1000.0,-733.3984375,-1000.0,0.0,0,0
1771949666.376239,1771949666.3196015,-526.3671875,-373.53515625,-455.078125,-205.078125,0.0,0,0
1771949666.376253,1771949666.323492,854.4921875,919.43359375,456.54296875,998.046875,0.0,0,0
1771949666.376266,1771949666.3273826,-873.53515625,-896.97265625,917.96875,-916.50390625,0.0,0,0
1771949666.37628,1771949666.331273,201.171875,227.5390625,212.40234375,222.16796875,0.0,0,0
1771949666.3762949,1771949666.3351634,-1000.0,-1000.0,-508.30078125,-1000.0,0.0,0,0
1771949666.376308,1771949666.3390539,-662.109375,-472.65625,-328.61328125,-208.49609375,0.0,0,0
1771949666.376321,1771949666.3429444,705.078125,833.0078125,474.12109375,992.67578125,0.0,0,0
1771949666.3763351,1771949666.346835,-843.75,-909.1796875,-985.3515625,-917.48046875,0.0,0,0
1771949666.421067,1771949666.350872,352.05078125,595.21484375,554.6875,291.50390625,0.0,0,0
1771949666.421109,1771949666.3547626,-1000.0,-933.59375,-243.1640625,-1000.0,0.0,0,0
1771949666.42113,1771949666.358653,-756.34765625,-522.4609375,-240.72265625,-271.97265625,0.0,0,0
1771949666.421149,1771949666.3625436,629.8828125,880.37109375,490.234375,969.7265625,0.0,0,0
1771949666.421168,1771949666.366434,-833.984375,-941.89453125,-958.0078125,-919.921875,0.0,0,0
1771949666.421185,1771949666.3703246,462.40234375,727.05078125,782.71484375,477.5390625,0.0,0,0
1771949666.421203,1771949666.3742151,-843.75,-714.84375,-41.015625,-1000.0,0.0,0,0
1771949666.421219,1771949666.3781056,-1000.0,-682.6171875,-209.9609375,-411.1328125,0.0,0,0
1771949666.421236,1771949666.3819962,-184.5703125,615.72265625,461.9140625,923.828125,0.0,0,0
1771949666.4212532,1771949666.3858867,-903.3203125,-990.234375,-998.53515625,-940.4296875,0.0,0,0
1771949666.421271,1771949666.3897772,772.94921875,933.10546875,918.45703125,676.7578125,0.0,0,0
1771949666.4212961,1771949666.3936677,-644.04296875,-472.16796875,123.53515625,-904.296875,0.0,0,0
1771949666.481153,1771949666.3977852,-1000.0,-845.21484375,-204.58984375,-572.75390625,0.0,0,0
1771949666.481205,1771949666.4016757,128.41796875,648.92578125,506.8359375,884.765625,0.0,0,0
1771949666.4812238,1771949666.4055662,-928.22265625,999.0234375,972.16796875,-989.2578125,0.0,0,0
1771949666.4812422,1771949666.409457,966.796875,-934.08203125,-987.79296875,915.0390625,0.0,0,0
1771949666.481259,1771949666.4133475,-270.5078125,-187.01171875,297.8515625,-562.01171875,0.0,0,0
1771949666.481277,1771949666.417238,-1000.0,-635.7421875,-196.2890625,-695.3125,0.0,0,0
1771949666.481292,1771949666.4211285,136.23046875,873.046875,500.9765625,851.07421875,0.0,0,0
1771949666.481308,1771949666.425019,-948.73046875,962.40234375,951.171875,979.00390625,0.0,0,0
1771949666.481324,1771949666.4289095,-977.5390625,-938.96484375,-961.42578125,-971.6796875,0.0,0,0
1771949666.48134,1771949666.4328,-10.7421875,96.19140625,457.51953125,-139.16015625,0.0,0,0
1771949666.4813561,1771949666.4366908,-1000.0,-1000.0,-158.203125,-1000.0,0.0,0,0
1771949666.481371,1771949666.4405813,-177.734375,85.9375,363.28125,205.078125,0.0,0,0
1771949666.525235,1771949666.4445987,994.140625,-979.4921875,901.85546875,-967.28515625,0.0,0,0
1771949666.525286,1771949666.4484892,-934.08203125,-944.3359375,-981.93359375,-971.19140625,0.0,0,0
1771949666.5253088,1771949666.4523797,121.58203125,195.3125,307.12890625,7.32421875,0.0,0,0
1771949666.5253298,1771949666.4562702,-1000.0,-1000.0,-428.22265625,-1000.0,0.0,0,0
1771949666.5253482,1771949666.4601607,-458.49609375,-300.29296875,34.1796875,-157.2265625,0.0,0,0
1771949666.5253701,1771949666.4640515,879.39453125,948.2421875,753.90625,988.28125,0.0,0,0
1771949666.5253901,1771949666.467942,-881.8359375,-905.76171875,-982.91015625,-917.48046875,0.0,0,0
1771949666.5254111,1771949666.4718325,208.49609375,251.953125,344.7265625,199.70703125,0.0,0,0
1771949666.525433,1771949666.475723,-1000.0,-1000.0,-445.80078125,-1000.0,0.0,0,0
1771949666.525451,1771949666.4796138,-630.37109375,-496.58203125,-102.5390625,-235.3515625,0.0,0,0
1771949666.525471,1771949666.4835043,762.6953125,827.63671875,664.55078125,985.83984375,0.0,0,0
1771949666.525491,1771949666.4873948,-852.05078125,-871.58203125,-928.22265625,-911.62109375,0.0,0,0
1771949666.571285,1771949666.49149,194.3359375,307.12890625,558.10546875,221.6796875,0.0,0,0
1771949666.5713332,1771949666.4953804,-1000.0,-1000.0,-264.16015625,-1000.0,0.0,0,0
1771949666.571365,1771949666.499271,-677.734375,-391.6015625,-93.75,-233.3984375,0.0,0,0
1771949666.571399,1771949666.5031617,693.359375,914.55078125,609.375,987.79296875,0.0,0,0
1771949666.57143,1771949666.5070522,-833.49609375,-934.5703125,-939.453125,-917.48046875,0.0,0,0
1771949666.5714629,1771949666.510943,274.90234375,591.30859375,694.3359375,263.18359375,0.0,0,0
1771949666.5714948,1771949666.5148335,-1000.0,-873.046875,-169.43359375,-1000.0,0.0,0,0
1771949666.5715258,1771949666.518724,-997.0703125,-756.8359375,-178.7109375,-348.14453125,0.0,0,0
1771949666.571557,1771949666.5226147,256.8359375,629.39453125,550.78125,932.12890625,0.0,0,0
1771949666.571588,1771949666.5265052,-786.1328125,-882.32421875,-958.49609375,-904.296875,0.0,0,0
1771949666.571619,1771949666.5303957,423.828125,630.37109375,789.0625,422.8515625,0.0,0,0
1771949666.57165,1771949666.5342865,-899.4140625,-809.08203125,-67.87109375,-1000.0,0.0,0,0
1771949666.646414,1771949666.538548,-1000.0,-872.55859375,-233.88671875,-612.3046875,0.0,0,0
1771949666.646472,1771949666.5424385,-42.48046875,466.30859375,486.81640625,731.4453125,0.0,0,0
1771949666.646498,1771949666.5463293,-831.54296875,-904.296875,-976.07421875,-865.72265625,0.0,0,0
1771949666.646523,1771949666.5502198,597.65625,766.11328125,800.29296875,450.1953125,0.0,0,0
1771949666.646546,1771949666.5541105,-758.30078125,-615.234375,-158.69140625,-875.48828125,0.0,0,0
1771949666.64657,1771949666.5580013,-1000.0,-923.828125,-537.109375,-1000.0,0.0,0,0
1771949666.646591,1771949666.5618918,-214.35546875,286.1328125,239.2578125,-94.7265625,0.0,0,0
1771949666.646691,1771949666.5657825,-922.8515625,-936.03515625,936.5234375,-846.6796875,0.0,0,0
1771949666.646733,1771949666.5696733,803.22265625,778.3203125,730.95703125,490.72265625,0.0,0,0
1771949666.6467578,1771949666.5735638,-551.26953125,-494.62890625,-275.390625,-827.1484375,0.0,0,0
1771949666.646782,1771949666.5774546,-1000.0,-1000.0,-792.48046875,-1000.0,0.0,0,0
1771949666.6468039,1771949666.581345,-184.5703125,-276.3671875,-23.92578125,-229.4921875,0.0,0,0
1771949666.6612852,1771949666.5854223,-980.95703125,-982.91015625,780.76171875,-869.140625,0.0,0,0
1771949666.661331,1771949666.589313,986.81640625,895.5078125,697.265625,514.16015625,0.0,0,0
1771949666.661352,1771949666.5932035,-225.5859375,-341.796875,-301.7578125,-800.29296875,0.0,0,0
1771949666.66137,1771949666.5970943,-1000.0,-1000.0,-954.58984375,-1000.0,0.0,0,0
1771949666.661386,1771949666.600985,-333.984375,-494.62890625,-315.91796875,-304.6875,0.0,0,0
1771949666.661404,1771949666.6048758,937.98828125,908.69140625,572.265625,-904.78515625,0.0,0,0
1771949666.661421,1771949666.6087666,-928.7109375,914.55078125,650.390625,576.66015625,0.0,0,0
1771949666.66144,1771949666.612657,-33.203125,-358.88671875,-287.109375,-742.1875,0.0,0,0
1771949666.66149,1771949666.6165478,-1000.0,-1000.0,-984.86328125,-1000.0,0.0,0,0
1771949666.661518,1771949666.6204386,-488.76953125,-640.13671875,-485.3515625,-420.8984375,0.0,0,0
1771949666.661537,1771949666.6243293,843.75,683.10546875,460.44921875,928.7109375,0.0,0,0
1771949666.661623,1771949666.6282198,-871.09375,-854.98046875,714.84375,976.5625,0.0,0,0
1771949666.7062678,1771949666.6322794,184.5703125,84.47265625,-148.92578125,-197.265625,0.0,0,0
1771949666.706309,1771949666.6361701,-1000.0,-1000.0,-906.25,-1000.0,0.0,0,0
1771949666.706326,1771949666.640061,-728.515625,-821.2890625,-566.89453125,-568.359375,0.0,0,0
1771949666.706346,1771949666.6439517,655.76171875,490.234375,404.78515625,778.80859375,0.0,0,0
1771949666.706363,1771949666.6478424,-826.171875,-802.24609375,821.77734375,-873.53515625,0.0,0,0
1771949666.706381,1771949666.6517332,164.0625,203.61328125,20.01953125,76.66015625,0.0,0,0
1771949666.706398,1771949666.655624,-1000.0,-1000.0,-784.1796875,-1000.0,0.0,0,0
1771949666.706414,1771949666.6595147,-958.49609375,-1000.0,-636.71875,-778.3203125,0.0,0,0
1771949666.706431,1771949666.6634052,331.54296875,124.51171875,290.0390625,550.29296875,0.0,0,0
1771949666.7064478,1771949666.667296,-778.80859375,-781.73828125,867.1875,-814.94140625,0.0,0,0
1771949666.706466,1771949666.6711867,140.625,235.83984375,165.52734375,132.32421875,0.0,0,0
1771949666.706482,1771949666.6750774,-1000.0,-995.60546875,-685.546875,-1000.0,0.0,0,0
1771949666.7512152,1771949666.6791253,-1000.0,-1000.0,-691.40625,-955.078125,0.0,0,0
1771949666.751252,1771949666.683016,47.8515625,-68.84765625,214.35546875,274.4140625,0.0,0,0
1771949666.751277,1771949666.6869068,-770.99609375,-810.546875,891.11328125,-785.64453125,0.0,0,0
1771949666.7513,1771949666.6907976,319.82421875,433.59375,294.921875,173.33984375,0.0,0,0
1771949666.751324,1771949666.6946883,-955.56640625,-941.40625,-663.0859375,-1000.0,0.0,0,0
1771949666.7513459,1771949666.698579,-1000.0,-1000.0,-804.6875,-1000.0,0.0,0,0
1771949666.7513971,1771949666.7024698,-131.34765625,103.515625,97.16796875,82.03125,0.0,0,0
1771949666.751435,1771949666.7063606,-817.3828125,-823.73046875,783.203125,-789.0625,0.0,0,0
1771949666.7514591,1771949666.7102513,478.02734375,377.44140625,310.546875,176.7578125,0.0,0,0
1771949666.751483,1771949666.714142,-879.8828125,-905.2734375,-642.08984375,-1000.0,0.0,0,0
1771949666.751505,1771949666.7180328,-1000.0,-1000.0,-946.77734375,-1000.0,0.0,0,0
1771949666.7515268,1771949666.7219236,-227.5390625,-234.86328125,-122.55859375,-219.23828125,0.0,0,0
1771949666.796705,1771949666.7259624,-906.25,-891.6015625,666.015625,-829.1015625,0.0,0,0
1771949666.796772,1771949666.7298534,745.1171875,648.4375,398.4375,323.73046875,0.0,0,0
1771949666.796802,1771949666.7337441,-627.9296875,-684.08203125,-542.96875,-959.9609375,0.0,0,0
1771949666.796831,1771949666.737635,-1000.0,-1000.0,-1000.0,-1000.0,0.0,0,0
1771949666.7968562,1771949666.7415257,-188.4765625,-250.48828125,-297.36328125,-245.1171875,0.0,0,0
1771949666.796884,1771949666.7454164,-976.5625,-994.140625,553.7109375,-865.72265625,0.0,0,0
1771949666.7969122,1771949666.7493072,973.6328125,960.44921875,488.76953125,501.46484375,0.0,0,0
1771949666.79694,1771949666.753198,-259.765625,-241.69921875,-435.05859375,-817.87109375,0.0,0,0
1771949666.796969,1771949666.7570887,-1000.0,-1000.0,-1000.0,-1000.0,0.0,0,0
1771949666.796994,1771949666.7609794,-264.16015625,-362.79296875,-454.1015625,-256.34765625,0.0,0,0
1771949666.797021,1771949666.7648702,970.21484375,977.05078125,443.359375,-898.92578125,0.0,0,0
1771949666.79705,1771949666.7687612,-946.2890625,942.3828125,495.1171875,622.55859375,0.0,0,0
1771949666.855519,1771949666.7727888,-56.15234375,-278.3203125,-371.58203125,-686.03515625,0.0,0,0
1771949666.855617,1771949666.7766795,-1000.0,-1000.0,-1000.0,-1000.0,0.0,0,0
1771949666.855646,1771949666.7805705,-459.9609375,-622.0703125,-581.0546875,-417.48046875,0.0,0,0
1771949666.855696,1771949666.7844613,862.3046875,719.23828125,349.609375,976.5625,0.0,0,0
1771949666.855742,1771949666.788352,-878.90625,-887.20703125,569.3359375,844.7265625,0.0,0,0
1771949666.855826,1771949666.7922428,159.1796875,8.30078125,-264.6484375,-423.33984375,0.0,0,0
1771949666.8558779,1771949666.7961335,-1000.0,-1000.0,-1000.0,-1000.0,0.0,0,0
1771949666.855906,1771949666.8000245,-699.21875,-867.1875,-720.703125,-572.265625,0.0,0,0
1771949666.856014,1771949666.8039153,683.10546875,437.5,252.9296875,825.68359375,0.0,0,0
1771949666.856064,1771949666.807806,-832.03125,-822.75390625,626.46484375,-972.16796875,0.0,0,0
1771949666.856095,1771949666.8116968,171.875,58.59375,-177.734375,-180.6640625,0.0,0,0
1771949666.856123,1771949666.8155875,-1000.0,-1000.0,-952.63671875,-1000.0,0.0,0,0
1771949666.9021592,1771949666.8196058,-898.4375,-805.6640625,-767.578125,-686.03515625,0.0,0,0
1771949666.902303,1771949666.8234966,425.29296875,476.5625,172.36328125,651.3671875,0.0,0,0
1771949666.9023511,1771949666.8273873,-790.0390625,-809.5703125,670.41015625,-857.421875,0.0,0,0
1771949666.902396,1771949666.831278,144.53125,154.296875,-63.4765625,23.92578125,0.0,0,0
1771949666.902445,1771949666.835169,-1000.0,-1000.0,-891.6015625,-1000.0,0.0,0,0
1771949666.902488,1771949666.8390598,-1000.0,-946.2890625,-844.23828125,-824.70703125,0.0,0,0
1771949666.90253,1771949666.8429506,105.46875,254.8828125,90.33203125,445.3125,0.0,0,0
1771949666.902572,1771949666.8468416,-765.625,-792.48046875,701.171875,-809.08203125,0.0,0,0
1771949666.902614,1771949666.8507323,239.2578125,186.5234375,78.61328125,93.26171875,0.0,0,0
1771949666.902661,1771949666.854623,-985.83984375,-988.76953125,-782.71484375,-1000.0,0.0,0,0
1771949666.9027321,1771949666.8585138,-1000.0,-1000.0,-928.22265625,-1000.0,0.0,0,0
1771949666.902775,1771949666.8624048,-125.48828125,-208.984375,-65.91796875,65.91796875,0.0,0,0
1771949666.9475389,1771949666.866499,-812.98828125,-853.515625,685.05859375,-784.1796875,0.0,0,0
1771949666.94771,1771949666.87039,478.515625,573.2421875,254.39453125,288.57421875,0.0,0,0
1771949666.9478679,1771949666.8742807,-877.9296875,-786.1328125,-666.50390625,-969.7265625,0.0,0,0
1771949666.947981,1771949666.8781717,-1000.0,-1000.0,-945.3125,-1000.0,0.0,0,0
1771949666.948046,1771949666.8820624,-230.95703125,-222.65625,-106.93359375,-130.859375,0.0,0,0
1771949666.9481091,1771949666.8859534,-895.5078125,-886.71875,705.56640625,-824.21875,0.0,0,0
1771949666.94817,1771949666.8898442,705.56640625,628.90625,405.76171875,372.0703125,0.0,0,0
1771949666.948229,1771949666.893735,-679.19921875,-709.47265625,-556.15234375,-930.6640625,0.0,0,0
1771949666.9483001,1771949666.897626,-1000.0,-1000.0,-979.4921875,-1000.0,0.0,0,0
1771949666.948364,1771949666.9015167,-192.3828125,-268.5546875,-216.30859375,-186.03515625,0.0,0,0
1771949666.948441,1771949666.9054077,-970.21484375,-999.51171875,635.7421875,-887.6953125,0.0,0,0
1771949666.9485178,1771949666.9092984,956.54296875,961.42578125,541.9921875,671.875,0.0,0,0
1771949666.992634,1771949666.9133809,-304.19921875,-266.6015625,-408.203125,-657.2265625,0.0,0,0
1771949666.992841,1771949666.9172719,-1000.0,-1000.0,-980.46875,-1000.0,0.0,0,0
1771949666.9929228,1771949666.9211626,-188.4765625,-276.3671875,-273.92578125,-168.45703125,0.0,0,0
1771949666.9929888,1771949666.9250536,989.74609375,941.89453125,597.65625,-954.1015625,0.0,0,0
1771949666.9930549,1771949666.9289446,-948.73046875,-915.0390625,647.4609375,907.2265625,0.0,0,0
1771949666.993115,1771949666.9328353,-20.5078125,114.2578125,-260.25390625,-310.05859375,0.0,0,0
1771949666.993195,1771949666.9367263,-1000.0,-1000.0,-975.09765625,-1000.0,0.0,0,0
1771949666.993249,1771949666.940617,-390.625,-478.02734375,-425.29296875,-282.2265625,0.0,0,0
1771949666.9933069,1771949666.944508,906.73828125,907.71484375,488.76953125,998.53515625,0.0,0,0
1771949666.993365,1771949666.9483988,-897.4609375,-992.67578125,677.734375,955.56640625,0.0,0,0
1771949666.993423,1771949666.9522898,124.0234375,-101.5625,-202.63671875,-208.49609375,0.0,0,0
1771949666.993481,1771949666.9561806,-1000.0,-1000.0,-962.890625,-1000.0,0.0,0,0
1771949667.0367,1771949666.960252,-606.4453125,-781.73828125,-558.10546875,-420.41015625,0.0,0,0
1771949667.036837,1771949666.964143,773.4375,520.5078125,418.45703125,891.6015625,0.0,0,0
1771949667.036875,1771949666.9680338,-851.07421875,-812.98828125,778.3203125,-916.50390625,0.0,0,0
1771949667.036911,1771949666.9719248,184.5703125,179.6875,-78.61328125,45.41015625,0.0,0,0
1771949667.037109,1771949666.9758158,-1000.0,-1000.0,-921.875,-1000.0,0.0,0,0
1771949667.037146,1771949666.9797065,-817.3828125,-653.80859375,-671.875,-512.20703125,0.0,0,0
1771949667.03718,1771949666.9835975,543.45703125,679.19921875,325.68359375,820.3125,0.0,0,0
1771949667.0372128,1771949666.9874885,-805.6640625,-837.890625,804.6875,-886.23046875,0.0,0,0
1771949667.037246,1771949666.9913793,146.97265625,145.01953125,17.578125,84.47265625,0.0,0,0
1771949667.037278,1771949666.9952703,-1000.0,-1000.0,-847.65625,-1000.0,0.0,0,0
1771949667.037308,1771949666.9991612,-1000.0,-1000.0,-786.62109375,-852.05078125,0.0,0,0
1771949667.037339,1771949667.003052,130.859375,0.48828125,191.89453125,428.7109375,0.0,0,0
1771949667.082029,1771949667.0071118,-764.16015625,-787.59765625,839.84375,-801.26953125,0.0,0,0
1771949667.0821419,1771949667.0110028,228.02734375,310.05859375,152.83203125,136.71875,0.0,0,0
1771949667.0821729,1771949667.0148935,-996.58203125,-959.47265625,-762.6953125,-1000.0,0.0,0,0
1771949667.0822022,1771949667.0187845,-1000.0,-1000.0,-858.88671875,-1000.0,0.0,0,0
1771949667.082229,1771949667.0226755,-64.94140625,-143.06640625,69.82421875,148.92578125,0.0,0,0
1771949667.0822568,1771949667.0265665,-797.8515625,-857.421875,842.28515625,-785.15625,0.0,0,0
1771949667.0822852,1771949667.0304575,445.80078125,626.953125,352.05078125,262.20703125,0.0,0,0
1771949667.082313,1771949667.0343482,-890.625,-718.75,-649.4140625,-984.375,0.0,0,0
1771949667.08234,1771949667.0382392,-1000.0,-1000.0,-960.44921875,-1000.0,0.0,0,0
1771949667.082366,1771949667.0421302,-227.05078125,-206.0546875,-51.26953125,-74.70703125,0.0,0,0
1771949667.0823932,1771949667.0460212,-883.7890625,-917.96875,794.43359375,-813.96484375,0.0,0,0
1771949667.082421,1771949667.0499122,668.45703125,779.78515625,453.61328125,396.97265625,0.0,0,0
1771949667.127485,1771949667.0539618,-721.6796875,-540.0390625,-535.15625,-920.8984375,0.0,0,0
1771949667.127603,1771949667.0578527,-1000.0,-1000.0,-979.4921875,-1000.0,0.0,0,0
1771949667.1276312,1771949667.0617437,-202.63671875,-214.35546875,-152.34375,-145.5078125,0.0,0,0
1771949667.127661,1771949667.0656345,-948.2421875,-945.80078125,718.26171875,-858.88671875,0.0,0,0
1771949667.12769,1771949667.0695255,888.18359375,867.67578125,549.31640625,544.43359375,0.0,0,0
1771949667.127721,1771949667.0734165,-422.36328125,-406.73828125,-428.22265625,-780.76171875,0.0,0,0
1771949667.1277492,1771949667.0773075,-1000.0,-1000.0,-980.95703125,-1000.0,0.0,0,0
1771949667.127775,1771949667.0811985,-174.8046875,-288.0859375,-274.4140625,-202.63671875,0.0,0,0
1771949667.1278021,1771949667.0850894,-998.046875,955.56640625,605.95703125,-924.8046875,0.0,0,0
1771949667.12783,1771949667.0889804,-966.30859375,-950.1953125,634.27734375,783.69140625,0.0,0,0
1771949667.12786,1771949667.0928714,-97.16796875,-47.8515625,-307.12890625,-499.0234375,0.0,0,0
1771949667.127887,1771949667.0967624,-1000.0,-1000.0,-995.1171875,-1000.0,0.0,0,0
1771949667.1716962,1771949667.1008003,-343.75,-410.15625,-395.99609375,-231.93359375,0.0,0,0
1771949667.171801,1771949667.1046913,924.31640625,880.859375,540.52734375,-989.2578125,0.0,0,0
1771949667.171872,1771949667.1085823,-906.25,-884.27734375,698.2421875,958.984375,0.0,0,0
1771949667.171906,1771949667.1124732,103.02734375,169.43359375,-227.5390625,-208.0078125,0.0,0,0
1771949667.171946,1771949667.1163642,-1000.0,-1000.0,-986.81640625,-1000.0,0.0,0,0
1771949667.171979,1771949667.1202552,-517.08984375,-457.03125,-506.8359375,-311.5234375,0.0,0,0
1771949667.1720068,1771949667.1241462,843.75,888.18359375,489.2578125,967.7734375,0.0,0,0
1771949667.17204,1771949667.1280372,-868.1640625,-901.85546875,767.08984375,-990.72265625,0.0,0,0
1771949667.172068,1771949667.1319282,190.4296875,76.66015625,-119.62890625,-89.84375,0.0,0,0
1771949667.172104,1771949667.1358192,-1000.0,-1000.0,-909.66796875,-1000.0,0.0,0,0
1771949667.172134,1771949667.1397102,-811.03515625,-895.5078125,-631.34765625,-575.1953125,0.0,0,0
1771949667.172162,1771949667.1436012,551.7578125,380.859375,350.5859375,761.23046875,0.0,0,0
1771949667.246976,1771949667.1478007,-808.10546875,-787.59765625,816.40625,-867.67578125,0.0,0,0
1771949667.247078,1771949667.151692,152.34375,168.9453125,7.8125,85.44921875,0.0,0,0
1771949667.2471092,1771949667.155583,-1000.0,-1000.0,-853.515625,-1000.0,0.0,0,0
1771949667.247136,1771949667.159474,-1000.0,-1000.0,-744.140625,-802.24609375,0.0,0,0
1771949667.247162,1771949667.163365,203.61328125,55.17578125,213.37890625,513.18359375,0.0,0,0
1771949667.24719,1771949667.1672559,-768.06640625,-788.0859375,848.14453125,-813.96484375,0.0,0,0
1771949667.247218,1771949667.171147,204.1015625,345.21484375,170.41015625,110.3515625,0.0,0,0
1771949667.247246,1771949667.175038,-1000.0,-939.94140625,-767.578125,-1000.0,0.0,0,0
1771949667.2472708,1771949667.178929,-1000.0,-1000.0,-829.1015625,-964.84375,0.0,0,0
1771949667.247297,1771949667.18282,-12.6953125,-103.02734375,115.72265625,239.74609375,0.0,0,0
1771949667.247324,1771949667.1867113,-785.64453125,-824.70703125,817.3828125,-784.66796875,0.0,0,0
1771949667.2473521,1771949667.1906023,393.06640625,473.6328125,282.71484375,222.65625,0.0,0,0
1771949667.277608,1771949667.1946235,-917.96875,-856.4453125,-651.3671875,-1000.0,0.0,0,0
1771949667.277781,1771949667.1985147,-1000.0,-1000.0,-864.2578125,-1000.0,0.0,0,0
1771949667.2778418,1771949667.2024057,-190.4296875,-185.05859375,8.30078125,42.96875,0.0,0,0
1771949667.277906,1771949667.2062967,-859.375,-884.765625,770.01953125,-803.7109375,0.0,0,0
1771949667.277966,1771949667.210188,613.28125,687.5,408.69140625,372.55859375,0.0,0,0
1771949667.278024,1771949667.214079,-771.97265625,-659.1796875,-520.5078125,-921.875,0.0,0,0
1771949667.2780821,1771949667.21797,-1000.0,-1000.0,-864.2578125,-1000.0,0.0,0,0
1771949667.278144,1771949667.221861,-207.51953125,-234.375,-97.65625,-179.6875,0.0,0,0
1771949667.2782028,1771949667.225752,-941.40625,-965.33203125,687.98828125,-869.140625,0.0,0,0
1771949667.2782998,1771949667.229643,866.69921875,901.85546875,520.99609375,599.609375,0.0,0,0
1771949667.278363,1771949667.233534,-456.54296875,-370.60546875,-435.05859375,-747.0703125,0.0,0,0
1771949667.278425,1771949667.2374253,-1000.0,-1000.0,-930.17578125,-1000.0,0.0,0,0
1771949667.321913,1771949667.2415173,-178.22265625,-270.5078125,-188.96484375,-182.12890625,0.0,0,0
1771949667.3220532,1771949667.2454085,-993.1640625,971.19140625,644.53125,-915.0390625,0.0,0,0
1771949667.3221009,1771949667.2492995,-975.09765625,-962.890625,643.06640625,761.23046875,0.0,0,0
1771949667.322146,1771949667.2531908,-140.13671875,-95.21484375,-300.78125,-532.2265625,0.0,0,0
1771949667.32219,1771949667.2570817,-1000.0,-1000.0,-921.875,-1000.0,0.0,0,0
1771949667.322231,1771949667.260973,-299.8046875,-338.37890625,-274.4140625,-211.42578125,0.0,0,0
1771949667.3222752,1771949667.264864,948.2421875,943.84765625,573.2421875,-959.9609375,0.0,0,0
1771949667.322336,1771949667.2687552,-922.8515625,-939.94140625,688.96484375,889.16015625,0.0,0,0
1771949667.322399,1771949667.2726462,38.57421875,1.46484375,-201.171875,-324.21875,0.0,0,0
1771949667.3224561,1771949667.2765372,-1000.0,-1000.0,-913.0859375,-1000.0,0.0,0,0
1771949667.322496,1771949667.2804284,-499.0234375,-600.5859375,-431.640625,-363.76953125,0.0,0,0
1771949667.322558,1771949667.2843194,844.7265625,749.0234375,467.7734375,946.2890625,0.0,0,0
1771949667.367476,1771949667.2884007,-869.62890625,-859.375,744.140625,-993.65234375,0.0,0,0
1771949667.367588,1771949667.2922919,195.80078125,98.6328125,-83.49609375,-121.09375,0.0,0,0
1771949667.367618,1771949667.2961829,-1000.0,-1000.0,-844.7265625,-1000.0,0.0,0,0
1771949667.367645,1771949667.300074,-764.16015625,-869.140625,-557.12890625,-552.734375,0.0,0,0
1771949667.3676748,1771949667.3039653,612.79296875,417.96875,355.46875,790.52734375,0.0,0,0
1771949667.367712,1771949667.3078563,-818.84765625,-793.9453125,779.296875,-879.39453125,0.0,0,0
1771949667.367742,1771949667.3117476,159.1796875,203.125,12.20703125,71.2890625,0.0,0,0
1771949667.3677828,1771949667.3156385,-1000.0,-1000.0,-818.84765625,-1000.0,0.0,0,0
1771949667.36781,1771949667.3195298,-987.79296875,-1000.0,-727.05078125,-775.390625,0.0,0,0
1771949667.368006,1771949667.3234208,273.92578125,65.91796875,214.84375,543.45703125,0.0,0,0
1771949667.3680372,1771949667.327312,-773.92578125,-783.69140625,799.31640625,-816.89453125,0.0,0,0
1771949667.368065,1771949667.3312032,158.69140625,258.30078125,119.140625,114.2578125,0.0,0,0
1771949667.412029,1771949667.3352737,-1000.0,-985.83984375,-729.98046875,-1000.0,0.0,0,0
1771949667.412183,1771949667.339165,-1000.0,-1000.0,-780.2734375,-996.09375,0.0,0,0
1771949667.412229,1771949667.3430562,17.578125,-98.6328125,110.83984375,205.078125,0.0,0,0
1771949667.4122748,1771949667.3469472,-775.87890625,-811.5234375,794.921875,-777.34375,0.0,0,0
1771949667.412319,1771949667.3508384,331.0546875,413.0859375,221.6796875,183.59375,0.0,0,0
1771949667.412362,1771949667.3547297,-948.73046875,-901.85546875,-666.50390625,-1000.0,0.0,0,0
1771949667.412409,1771949667.3586206,-1000.0,-1000.0,-844.7265625,-1000.0,0.0,0,0
1771949667.412471,1771949667.3625119,-168.9453125,-202.63671875,-17.578125,-14.6484375,0.0,0,0
1771949667.412533,1771949667.366403,-837.890625,-888.671875,713.8671875,-796.875,0.0,0,0
1771949667.412575,1771949667.370294,557.12890625,697.75390625,336.9140625,357.421875,0.0,0,0
1771949667.412626,1771949667.3741853,-826.171875,-655.76171875,-572.75390625,-947.75390625,0.0,0,0
1771949667.41268,1771949667.3780766,-1000.0,-1000.0,-869.140625,-1000.0,0.0,0,0
1771949667.456769,1771949667.3821344,-217.7734375,-190.91796875,-69.82421875,-103.515625,0.0,0,0
1771949667.456914,1771949667.3860254,-919.921875,-933.59375,702.63671875,-842.28515625,0.0,0,0
1771949667.456964,1771949667.3899167,792.48046875,844.7265625,503.90625,484.86328125,0.0,0,0
1771949667.4570088,1771949667.393808,-565.4296875,-454.1015625,-455.56640625,-846.6796875,0.0,0,0
1771949667.457054,1771949667.397699,-1000.0,-1000.0,-922.36328125,-1000.0,0.0,0,0
1771949667.457094,1771949667.4015903,-183.59375,-170.41015625,-154.296875,-162.109375,0.0,0,0
1771949667.457141,1771949667.4054813,-984.86328125,-978.515625,661.62109375,-900.87890625,0.0,0,0
1771949667.457184,1771949667.4093726,-999.51171875,987.3046875,593.26171875,737.3046875,0.0,0,0
1771949667.457227,1771949667.4132638,-209.47265625,-169.921875,-364.2578125,-576.66015625,0.0,0,0
1771949667.4572768,1771949667.417155,-1000.0,-1000.0,-966.30859375,-1000.0,0.0,0,0
1771949667.4573178,1771949667.4210463,-258.7890625,-375.48828125,-296.875,-196.2890625,0.0,0,0
1771949667.457361,1771949667.4249375,966.796875,932.12890625,573.2421875,-935.05859375,0.0,0,0
1771949667.501756,1771949667.4289846,-936.5234375,-962.890625,661.1328125,812.01171875,0.0,0,0
1771949667.501888,1771949667.4328759,-6.34765625,-78.61328125,-250.0,-432.12890625,0.0,0,0
1771949667.50192,1771949667.436767,-1000.0,-1000.0,-951.171875,-1000.0,0.0,0,0
1771949667.50195,1771949667.4406583,-454.58984375,-598.14453125,-458.984375,-347.65625,0.0,0,0
1771949667.5019789,1771949667.4445496,868.65234375,731.93359375,456.0546875,949.70703125,0.0,0,0
1771949667.502008,1771949667.4484408,-879.8828125,-847.16796875,744.140625,-983.88671875,0.0,0,0
1771949667.5020428,1771949667.452332,179.19921875,159.66796875,-134.765625,-115.234375,0.0,0,0
1771949667.5020711,1771949667.4562232,-1000.0,-1000.0,-932.12890625,-1000.0,0.0,0,0
1771949667.502096,1771949667.4601142,-697.265625,-846.6796875,-576.171875,-503.90625,0.0,0,0
1771949667.502124,1771949667.4640055,689.94140625,478.515625,377.9296875,840.8203125,0.0,0,0
1771949667.502151,1771949667.4678967,-833.0078125,-804.6875,761.23046875,-900.390625,0.0,0,0
1771949667.502178,1771949667.471788,168.9453125,143.06640625,-44.921875,37.109375,0.0,0,0
1771949667.547141,1771949667.475833,-1000.0,-1000.0,-841.796875,-1000.0,0.0,0,0
1771949667.5472572,1771949667.4797242,-928.7109375,-963.37890625,-674.8046875,-675.78125,0.0,0,0
1771949667.5472908,1771949667.4836154,377.9296875,269.53125,277.83203125,656.73828125,0.0,0,0
1771949667.547322,1771949667.4875066,-785.15625,-785.15625,816.40625,-842.7734375,0.0,0,0
1771949667.54735,1771949667.4913979,144.04296875,220.703125,66.89453125,109.86328125,0.0,0,0
1771949667.547379,1771949667.495289,-1000.0,-1000.0,-770.5078125,-1000.0,0.0,0,0
1771949667.547404,1771949667.4991803,-1000.0,-875.9765625,-713.37890625,-792.96875,0.0,0,0
1771949667.547431,1771949667.5030715,96.19140625,328.125,162.109375,479.4921875,0.0,0,0
1771949667.5474591,1771949667.5069628,-767.578125,-810.05859375,771.97265625,-810.546875,0.0,0,0
1771949667.547486,1771949667.510854,302.24609375,338.8671875,189.94140625,192.3828125,0.0,0,0
1771949667.547513,1771949667.5147452,-962.40234375,-937.98828125,-700.1953125,-1000.0,0.0,0,0
1771949667.54754,1771949667.5186365,-1000.0,-1000.0,-818.84765625,-1000.0,0.0,0,0
1771949667.605518,1771949667.5226624,-102.05078125,-104.00390625,66.40625,142.08984375,0.0,0,0
1771949667.605679,1771949667.5265536,-812.5,-841.30859375,767.578125,-789.55078125,0.0,0,0
1771949667.605723,1771949667.530445,488.76953125,571.77734375,346.6796875,302.734375,0.0,0,0
1771949667.605779,1771949667.5343363,-868.65234375,-778.80859375,-577.63671875,-971.19140625,0.0,0,0
1771949667.60583,1771949667.5382276,-1000.0,-1000.0,-879.8828125,-1000.0,0.0,0,0
1771949667.605987,1771949667.5421188,-225.5859375,-157.71484375,-21.484375,-51.7578125,0.0,0,0
1771949667.606121,1771949667.54601,-908.69140625,-902.34375,733.3984375,-827.1484375,0.0,0,0
1771949667.606187,1771949667.5499012,752.44140625,740.72265625,454.1015625,452.63671875,0.0,0,0
1771949667.6062238,1771949667.5537925,-618.1640625,-570.3125,-477.05078125,-875.0,0.0,0,0
1771949667.606252,1771949667.5576837,-1000.0,-1000.0,-900.390625,-1000.0,0.0,0,0
1771949667.6065211,1771949667.561575,-190.91796875,-206.0546875,-113.76953125,-106.93359375,0.0,0,0
1771949667.606636,1771949667.5654664,-969.7265625,-958.0078125,690.91796875,-876.46484375,0.0,0,0
1771949667.651516,1771949667.5694795,958.0078125,909.1796875,584.9609375,643.06640625,0.0,0,0
1771949667.651624,1771949667.5733707,-299.8046875,-342.7734375,-352.05078125,-680.6640625,0.0,0,0
1771949667.6516569,1771949667.577262,-1000.0,-1000.0,-889.16015625,-1000.0,0.0,0,0
1771949667.651687,1771949667.5811532,-196.77734375,-198.2421875,-211.42578125,-146.97265625,0.0,0,0
1771949667.651715,1771949667.5850444,985.83984375,969.23828125,587.890625,-951.66015625,0.0,0,0
1771949667.651743,1771949667.5889356,-947.75390625,-931.640625,690.91796875,913.57421875,0.0,0,0
1771949667.6517708,1771949667.592827,-14.6484375,97.16796875,-183.10546875,-298.828125,0.0,0,0
1771949667.651799,1771949667.5967183,-1000.0,-1000.0,-893.06640625,-1000.0,0.0,0,0
1771949667.6518242,1771949667.6006095,-425.78125,-619.62890625,-398.4375,-301.7578125,0.0,0,0
1771949667.651851,1771949667.6045008,885.7421875,727.05078125,472.65625,977.05078125,0.0,0,0
1771949667.6518779,1771949667.608392,-887.6953125,-858.3984375,701.66015625,991.69921875,0.0,0,0
1771949667.651905,1771949667.6122835,155.2734375,110.83984375,-133.30078125,-138.671875,0.0,0,0
1771949667.6974552,1771949667.6163719,-1000.0,-1000.0,-865.72265625,-1000.0,0.0,0,0
1771949667.697568,1771949667.620263,-626.953125,-738.28125,-488.28125,-424.8046875,0.0,0,0
1771949667.697603,1771949667.6241543,759.27734375,601.5625,424.31640625,897.94921875,0.0,0,0
1771949667.697633,1771949667.6280458,-846.6796875,-822.265625,770.5078125,-928.22265625,0.0,0,0
1771949667.697663,1771949667.631937,175.78125,162.109375,-20.5078125,16.6015625,0.0,0,0
1771949667.697697,1771949667.6358283,-1000.0,-1000.0,-776.3671875,-1000.0,0.0,0,0
1771949667.697726,1771949667.6397197,-893.06640625,-874.0234375,-589.35546875,-638.671875,0.0,0,0
1771949667.6977549,1771949667.643611,433.10546875,378.90625,275.390625,692.87109375,0.0,0,0
1771949667.697783,1771949667.6475022,-791.50390625,-799.8046875,767.08984375,-844.23828125,0.0,0,0
1771949667.69781,1771949667.6513937,145.99609375,211.42578125,89.35546875,130.859375,0.0,0,0
1771949667.697838,1771949667.655285,-1000.0,-1000.0,-719.7265625,-1000.0,0.0,0,0
1771949667.6978629,1771949667.659176,-1000.0,-1000.0,-691.40625,-843.75,0.0,0,0
1771949667.770439,1771949667.663341,125.9765625,66.40625,214.35546875,440.91796875,0.0,0,0
1771949667.770664,1771949667.6672325,-764.6484375,-785.15625,817.3828125,-803.7109375,0.0,0,0
1771949667.7709599,1771949667.6711237,249.51171875,319.3359375,199.21875,153.3203125,0.0,0,0
1771949667.771032,1771949667.6750152,-989.74609375,-959.9609375,-667.48046875,-1000.0,0.0,0,0
1771949667.771093,1771949667.6789064,-1000.0,-1000.0,-775.87890625,-996.09375,0.0,0,0
1771949667.771151,1771949667.682798,-55.6640625,-74.21875,110.3515625,178.22265625,0.0,0,0
1771949667.77121,1771949667.6866891,-793.9453125,-807.6171875,788.57421875,-785.15625,0.0,0,0
1771949667.771269,1771949667.6905806,416.50390625,359.86328125,274.90234375,205.56640625,0.0,0,0
1771949667.771344,1771949667.694472,-905.2734375,-926.26953125,-595.21484375,-996.09375,0.0,0,0
1771949667.771402,1771949667.6983633,-1000.0,-1000.0,-814.453125,-1000.0,0.0,0,0
1771949667.771466,1771949667.7022548,-236.328125,-231.4453125,-25.87890625,-141.11328125,0.0,0,0
1771949667.7715242,1771949667.706146,-891.11328125,-909.1796875,744.140625,-823.73046875,0.0,0,0
1771949667.787099,1771949667.7102177,693.84765625,749.0234375,462.890625,418.9453125,0.0,0,0
1771949667.787203,1771949667.7141092,-694.82421875,-587.40234375,-478.515625,-906.73828125,0.0,0,0
1771949667.787269,1771949667.7180004,-1000.0,-1000.0,-867.67578125,-1000.0,0.0,0,0
1771949667.787325,1771949667.7218919,-196.77734375,-208.0078125,-103.515625,-162.109375,0.0,0,0
1771949667.787384,1771949667.725783,-961.42578125,-988.76953125,681.640625,-884.27734375,0.0,0,0
1771949667.787443,1771949667.7296746,931.640625,986.81640625,600.09765625,684.5703125,0.0,0,0
1771949667.787502,1771949667.733566,-353.515625,-196.77734375,-347.16796875,-656.25,0.0,0,0
1771949667.78756,1771949667.7374573,-1000.0,-1000.0,-913.57421875,-1000.0,0.0,0,0
1771949667.787613,1771949667.7413487,-174.31640625,-293.9453125,-196.77734375,-175.29296875,0.0,0,0
1771949667.787671,1771949667.7452402,-997.55859375,956.54296875,628.41796875,-936.5234375,0.0,0,0
1771949667.787713,1771949667.7491314,-964.35546875,-940.4296875,668.45703125,845.703125,0.0,0,0
1771949667.787755,1771949667.753023,-85.9375,-18.5546875,-215.8203125,-413.57421875,0.0,0,0
1771949667.84814,1771949667.7571719,-1000.0,-1000.0,-882.32421875,-1000.0,0.0,0,0
1771949667.8482711,1771949667.761063,-360.3515625,-506.8359375,-342.7734375,-263.18359375,0.0,0,0
1771949667.84832,1771949667.7649546,916.9921875,814.453125,529.78515625,988.28125,0.0,0,0
1771949667.848366,1771949667.768846,-902.83203125,-869.140625,721.19140625,995.1171875,0.0,0,0
1771949667.8484101,1771949667.7727375,109.86328125,148.4375,-133.7890625,-143.06640625,0.0,0,0
1771949667.848455,1771949667.776629,-1000.0,-1000.0,-841.30859375,-1000.0,0.0,0,0
1771949667.848493,1771949667.7805202,-541.50390625,-513.18359375,-414.55078125,-354.98046875,0.0,0,0
1771949667.848543,1771949667.7844117,829.1015625,835.9375,449.70703125,934.5703125,0.0,0,0
1771949667.848585,1771949667.7883031,-863.28125,-881.34765625,749.51171875,-945.3125,0.0,0,0
1771949667.8486469,1771949667.7921946,187.5,115.72265625,-46.875,20.99609375,0.0,0,0
1771949667.8486989,1771949667.796086,-1000.0,-1000.0,-827.63671875,-1000.0,0.0,0,0
1771949667.848751,1771949667.7999773,-835.44921875,-936.5234375,-599.609375,-617.1875,0.0,0,0
1771949667.876808,1771949667.804022,547.36328125,347.16796875,342.28515625,755.859375,0.0,0,0
1771949667.87694,1771949667.8079135,-860.3515625,-840.8203125,768.06640625,-914.55078125,0.0,0,0
1771949667.877006,1771949667.8118048,61.03515625,112.3046875,27.34375,15.13671875,0.0,0,0
1771949667.877066,1771949667.8156962,-1000.0,-999.0234375,-721.19140625,-1000.0,0.0,0,0
1771949667.877123,1771949667.8195877,-1000.0,-1000.0,-697.75390625,-849.609375,0.0,0,0
1771949667.877179,1771949667.8234792,162.59765625,8.7890625,227.5390625,447.265625,0.0,0,0
1771949667.877237,1771949667.8273706,-764.6484375,-787.109375,833.49609375,-803.7109375,0.0,0,0
1771949667.877297,1771949667.831262,211.42578125,291.9921875,159.66796875,122.0703125,0.0,0,0
1771949667.877356,1771949667.8351536,-1000.0,-969.23828125,-688.96484375,-1000.0,0.0,0,0
1771949667.8774111,1771949667.839045,-1000.0,-1000.0,-760.7421875,-973.6328125,0.0,0,0
1771949667.8774662,1771949667.8429365,-42.48046875,-132.8125,100.09765625,210.44921875,0.0,0,0
1771949667.877524,1771949667.846828,-790.52734375,-833.0078125,800.29296875,-785.15625,0.0,0,0
1771949667.923014,1771949667.8508685,410.64453125,518.5546875,317.87109375,247.55859375,0.0,0,0
1771949667.923152,1771949667.85476,-907.71484375,-826.66015625,-598.14453125,-997.0703125,0.0,0,0
1771949667.923199,1771949667.8586514,-1000.0,-1000.0,-816.89453125,-1000.0,0.0,0,0
1771949667.92324,1771949667.8625429,-218.26171875,-190.4296875,6.8359375,-1.953125,0.0,0,0
1771949667.9232829,1771949667.8664343,-888.671875,-946.2890625,729.4921875,-866.2109375,0.0,0,0
1771949667.923327,1771949667.8703258,645.01953125,852.5390625,422.36328125,319.3359375,0.0,0,0
1771949667.923371,1771949667.8742173,-727.05078125,-404.296875,-457.51953125,-892.578125,0.0,0,0
1771949667.923415,1771949667.8781087,-1000.0,-1000.0,-838.8671875,-1000.0,0.0,0,0
1771949667.923454,1771949667.8820002,-203.61328125,-259.765625,-113.28125,-222.16796875,0.0,0,0
1771949667.923496,1771949667.8858917,-947.75390625,-974.12109375,667.48046875,-878.41796875,0.0,0,0
1771949667.9235399,1771949667.8897831,887.20703125,916.50390625,538.57421875,603.515625,0.0,0,0
1771949667.9235818,1771949667.8936746,-423.828125,-347.16796875,-392.578125,-744.140625,0.0,0,0
1771949667.967604,1771949667.8977036,-1000.0,-1000.0,-897.4609375,-1000.0,0.0,0,0
1771949667.9677749,1771949667.901595,-176.7578125,-267.08984375,-200.1953125,-186.5234375,0.0,0,0
1771949667.967841,1771949667.9054866,-994.62890625,979.00390625,608.88671875,-918.9453125,0.0,0,0
1771949667.967903,1771949667.909378,-971.6796875,-979.4921875,623.53515625,774.90234375,0.0,0,0
1771949667.967963,1771949667.9132695,-120.1171875,-114.2578125,-291.015625,-513.18359375,0.0,0,0
1771949667.968022,1771949667.917161,-1000.0,-1000.0,-891.11328125,-1000.0,0.0,0,0
1771949667.968076,1771949667.9210525,-331.0546875,-403.3203125,-290.0390625,-224.609375,0.0,0,0
1771949667.9681349,1771949667.924944,928.22265625,874.0234375,515.13671875,-995.60546875,0.0,0,0
1771949667.968195,1771949667.9288354,-908.69140625,-886.71875,686.03515625,979.4921875,0.0,0,0
1771949667.96826,1771949667.9327269,98.6328125,166.50390625,-158.69140625,-164.0625,0.0,0,0
1771949667.9683251,1771949667.9366186,-1000.0,-1000.0,-901.85546875,-1000.0,0.0,0,0
1771949667.9683971,1771949667.94051,-521.97265625,-661.1328125,-439.453125,-377.44140625,0.0,0,0
1771949668.026995,1771949667.9445229,839.35546875,710.44921875,469.7265625,939.94140625,0.0,0,0
1771949668.0271401,1771949667.9484143,-867.1875,-846.19140625,741.2109375,-974.609375,0.0,0,0
1771949668.027178,1771949667.9523058,192.3828125,121.09375,-61.5234375,-73.73046875,0.0,0,0
1771949668.027213,1771949667.9561973,-1000.0,-1000.0,-825.68359375,-1000.0,0.0,0,0
1771949668.027245,1771949667.9600887,-787.59765625,-897.94921875,-582.51953125,-566.89453125,0.0,0,0
1771949668.0272799,1771949667.9639804,582.03125,388.671875,379.8828125,780.2734375,0.0,0,0
1771949668.027318,1771949667.967872,-813.96484375,-790.52734375,829.1015625,-875.9765625,0.0,0,0
1771949668.027355,1771949667.9717634,157.2265625,159.66796875,28.3203125,72.75390625,0.0,0,0
1771949668.027387,1771949667.9756548,-1000.0,-1000.0,-790.0390625,-1000.0,0.0,0,0
1771949668.0274181,1771949667.9795463,-995.60546875,-1000.0,-682.6171875,-754.39453125,0.0,0,0
1771949668.027458,1771949667.983438,255.37109375,141.11328125,248.046875,559.5703125,0.0,0,0
1771949668.027495,1771949667.9873295,-771.97265625,-779.78515625,822.265625,-818.359375,0.0,0,0
1771949668.072549,1771949667.9914172,181.15234375,269.53125,143.06640625,143.06640625,0.0,0,0
1771949668.0727308,1771949667.9953086,-1000.0,-975.09765625,-706.54296875,-1000.0,0.0,0,0
1771949668.072793,1771949667.9992,-1000.0,-1000.0,-752.9296875,-957.03125,0.0,0,0
1771949668.0728488,1771949668.0030918,-0.9765625,-94.7265625,110.3515625,254.39453125,0.0,0,0
1771949668.07291,1771949668.0069833,-783.203125,-844.7265625,779.296875,-785.15625,0.0,0,0
1771949668.0729768,1771949668.0108747,390.625,597.65625,311.03515625,259.765625,0.0,0,0
1771949668.0732422,1771949668.0147665,-916.9921875,-733.3984375,-589.84375,-997.55859375,0.0,0,0
1771949668.0733151,1771949668.018658,-1000.0,-1000.0,-812.5,-1000.0,0.0,0,0
1771949668.073371,1771949668.0225494,-194.82421875,-203.61328125,14.16015625,21.484375,0.0,0,0
1771949668.073429,1771949668.0264409,-851.5625,-881.34765625,766.11328125,-802.24609375,0.0,0,0
1771949668.073487,1771949668.0303326,578.125,656.73828125,425.29296875,350.5859375,0.0,0,0
1771949668.0735428,1771949668.034224,-810.546875,-700.68359375,-533.203125,-941.40625,0.0,0,0
1771949668.147069,1771949668.0384672,-1000.0,-1000.0,-854.98046875,-1000.0,0.0,0,0
1771949668.14726,1771949668.0423586,-213.8671875,-221.19140625,-69.3359375,-146.97265625,0.0,0,0
1771949668.147348,1771949668.0462503,-929.6875,-941.89453125,734.375,-850.5859375,0.0,0,0
1771949668.147412,1771949668.0501418,826.66015625,845.21484375,563.96484375,504.39453125,0.0,0,0
1771949668.147537,1771949668.0540335,-517.578125,-469.23828125,-426.7578125,-829.1015625,0.0,0,0
1771949668.1476119,1771949668.057925,-1000.0,-1000.0,-860.83984375,-1000.0,0.0,0,0
1771949668.147655,1771949668.0618167,-180.17578125,-115.234375,-95.703125,-135.7421875,0.0,0,0
1771949668.1476989,1771949668.0657082,-990.234375,-951.171875,661.1328125,-901.85546875,0.0,0,0
1771949668.147743,1771949668.0695999,-982.421875,916.9921875,608.3984375,745.60546875,0.0,0,0
1771949668.147786,1771949668.0734913,-170.41015625,-255.859375,-295.8984375,-547.36328125,0.0,0,0
1771949668.1478279,1771949668.077383,-1000.0,-1000.0,-883.7890625,-1000.0,0.0,0,0
1771949668.1478689,1771949668.0812745,-286.1328125,-417.48046875,-245.60546875,-196.2890625,0.0,0,0
1771949668.161993,1771949668.0853457,951.171875,871.09375,580.56640625,-972.16796875,0.0,0,0
1771949668.162111,1771949668.0892375,-923.828125,-894.53125,706.0546875,936.5234375,0.0,0,0
1771949668.162148,1771949668.0931292,39.0625,80.56640625,-148.4375,-250.9765625,0.0,0,0
1771949668.1621828,1771949668.0970206,-1000.0,-1000.0,-855.95703125,-1000.0,0.0,0,0
1771949668.162215,1771949668.1009123,-460.44921875,-558.10546875,-388.671875,-324.70703125,0.0,0,0
1771949668.162248,1771949668.104804,868.65234375,784.1796875,523.92578125,958.984375,0.0,0,0
1771949668.162282,1771949668.1086955,-878.41796875,-859.86328125,797.36328125,-980.46875,0.0,0,0
1771949668.162316,1771949668.1125872,202.1484375,161.62109375,-71.2890625,-78.125,0.0,0,0
1771949668.162348,1771949668.116479,-1000.0,-1000.0,-857.91015625,-1000.0,0.0,0,0
1771949668.162378,1771949668.1203704,-708.49609375,-816.89453125,-524.4140625,-463.37890625,0.0,0,0
1771949668.162412,1771949668.124262,683.10546875,509.27734375,398.4375,855.46875,0.0,0,0
1771949668.162444,1771949668.1281536,-831.54296875,-807.6171875,793.45703125,-895.01953125,0.0,0,0
1771949668.206799,1771949668.1322072,166.9921875,182.6171875,30.2734375,93.26171875,0.0,0,0
1771949668.206901,1771949668.1360989,-1000.0,-1000.0,-756.34765625,-1000.0,0.0,0,0
1771949668.20693,1771949668.1399906,-941.40625,-967.7734375,-604.00390625,-680.6640625,0.0,0,0
1771949668.2069602,1771949668.1438823,355.95703125,259.765625,294.921875,645.01953125,0.0,0,0
1771949668.206988,1771949668.1477737,-780.76171875,-792.48046875,806.640625,-834.47265625,0.0,0,0
1771949668.207016,1771949668.1516654,161.62109375,355.95703125,144.53125,142.08984375,0.0,0,0
1771949668.2070441,1771949668.1555572,-1000.0,-917.96875,-663.57421875,-1000.0,0.0,0,0
1771949668.2070699,1771949668.1594489,-1000.0,-1000.0,-700.68359375,-921.875,0.0,0,0
1771949668.207096,1771949668.1633403,49.31640625,-63.4765625,171.875,325.1953125,0.0,0,0
1771949668.207123,1771949668.167232,-771.484375,-802.734375,815.91796875,-790.0390625,0.0,0,0
1771949668.20715,1771949668.1711237,308.59375,331.0546875,235.3515625,175.78125,0.0,0,0
1771949668.20718,1771949668.1750154,-958.984375,-951.171875,-626.953125,-1000.0,0.0,0,0
1771949668.2516558,1771949668.1790588,-1000.0,-1000.0,-783.203125,-1000.0,0.0,0,0
1771949668.251799,1771949668.1829505,-143.5546875,-193.84765625,35.64453125,62.01171875,0.0,0,0
1771949668.2518458,1771949668.1868422,-823.2421875,-870.60546875,766.6015625,-795.41015625,0.0,0,0
1771949668.25189,1771949668.190734,514.6484375,635.7421875,381.34765625,323.2421875,0.0,0,0
1771949668.251934,1771949668.1946256,-858.3984375,-756.8359375,-544.43359375,-987.79296875,0.0,0,0
1771949668.251976,1771949668.198517,-1000.0,-1000.0,-804.19921875,-1000.0,0.0,0,0
1771949668.252015,1771949668.2024088,-224.12109375,-32.2265625,5.37109375,44.43359375,0.0,0,0
1771949668.252078,1771949668.2063005,-909.1796875,-874.0234375,704.1015625,-828.125,0.0,0,0
1771949668.252138,1771949668.2101922,752.9296875,630.37109375,455.56640625,441.40625,0.0,0,0
1771949668.252182,1771949668.214084,-617.67578125,-687.98828125,-434.5703125,-871.09375,0.0,0,0
1771949668.2522318,1771949668.2179756,-1000.0,-1000.0,-846.6796875,-1000.0,0.0,0,0
1771949668.252274,1771949668.2218673,-185.05859375,-200.1953125,-89.35546875,-142.578125,0.0,0,0
1771949668.296627,1771949668.2258987,-983.88671875,-995.60546875,680.6640625,-892.08984375,0.0,0,0
1771949668.296745,1771949668.2297904,996.58203125,-997.0703125,595.703125,698.2421875,0.0,0,0
1771949668.296777,1771949668.2336822,-219.7265625,-138.671875,-292.96875,-610.83984375,0.0,0,0
1771949668.2968051,1771949668.2375739,-1000.0,-1000.0,-869.62890625,-1000.0,0.0,0,0
1771949668.296831,1771949668.2414653,-245.1171875,-350.09765625,-246.58203125,-187.5,0.0,0,0
1771949668.2968588,1771949668.245357,973.14453125,934.08203125,590.33203125,-935.05859375,0.0,0,0
1771949668.296886,1771949668.2492487,-939.94140625,-934.08203125,690.4296875,829.1015625,0.0,0,0
1771949668.2969139,1771949668.2531404,-18.06640625,-16.6015625,-229.00390625,-416.9921875,0.0,0,0
1771949668.296941,1771949668.2570322,-1000.0,-1000.0,-890.625,-1000.0,0.0,0,0
1771949668.2969651,1771949668.2609239,-427.24609375,-519.04296875,-356.4453125,-287.109375,0.0,0,0
1771949668.296993,1771949668.2648156,881.8359375,808.59375,500.48828125,974.609375,0.0,0,0
1771949668.297021,1771949668.2687073,-885.7421875,-870.60546875,706.54296875,-995.1171875,0.0,0,0
1771949668.341998,1771949668.2727275,178.7109375,138.18359375,-80.078125,-104.4921875,0.0,0,0
1771949668.342119,1771949668.2766192,-1000.0,-1000.0,-806.15234375,-1000.0,0.0,0,0
1771949668.342148,1771949668.280511,-647.4609375,-661.62109375,-468.75,-425.29296875,0.0,0,0
1771949668.342176,1771949668.2844026,742.67578125,682.6171875,417.96875,890.625,0.0,0,0
1771949668.3422039,1771949668.2882943,-843.26171875,-835.44921875,733.3984375,-910.64453125,0.0,0,0
1771949668.342232,1771949668.292186,172.36328125,232.421875,12.20703125,71.77734375,0.0,0,0
1771949668.342259,1771949668.2960777,-1000.0,-1000.0,-738.28125,-1000.0,0.0,0,0
1771949668.342284,1771949668.2999694,-918.9453125,-1000.0,-601.07421875,-657.2265625,0.0,0,0
1771949668.342311,1771949668.3038611,393.06640625,221.19140625,292.48046875,677.734375,0.0,0,0
1771949668.342338,1771949668.3077528,-786.1328125,-781.73828125,795.41015625,-842.28515625,0.0,0,0
1771949668.342365,1771949668.3116446,143.06640625,228.02734375,113.28125,123.046875,0.0,0,0
1771949668.342398,1771949668.3155363,-1000.0,-997.55859375,-696.2890625,-1000.0,0.0,0,0
1771949668.401987,1771949668.3195467,-1000.0,-1000.0,-670.8984375,-873.53515625,0.0,0,0
1771949668.402098,1771949668.3234384,83.0078125,-33.69140625,189.94140625,389.16015625,0.0,0,0
1771949668.402129,1771949668.32733,-769.04296875,-809.08203125,798.33984375,-799.8046875,0.0,0,0
1771949668.402158,1771949668.3312218,302.24609375,437.98828125,234.86328125,197.265625,0.0,0,0
1771949668.402209,1771949668.3351138,-972.16796875,-993.65234375,-618.1640625,-1000.0,0.0,0,0
1771949668.4022799,1771949668.3390055,-1000.0,-870.60546875,-696.2890625,-857.91015625,0.0,0,0
1771949668.4023418,1771949668.3428972,-41.50390625,406.73828125,142.578125,391.11328125,0.0,0,0
1771949668.402376,1771949668.346789,-796.875,-826.171875,752.9296875,-809.5703125,0.0,0,0
1771949668.402425,1771949668.3506806,441.89453125,244.62890625,312.5,210.9375,0.0,0,0
1771949668.4025128,1771949668.3545723,-889.16015625,-950.1953125,-542.96875,-999.0234375,0.0,0,0
1771949668.402644,1771949668.358464,-1000.0,-1000.0,-803.7109375,-1000.0,0.0,0,0
1771949668.402672,1771949668.3623557,-229.4921875,-226.5625,-20.5078125,-65.91796875,0.0,0,0
1771949668.446568,1771949668.3664389,-905.2734375,-927.24609375,715.8203125,-830.078125,0.0,0,0
1771949668.446672,1771949668.3703306,744.140625,829.1015625,448.2421875,477.05078125,0.0,0,0
1771949668.4467041,1771949668.3742223,-628.90625,-476.5625,-440.91796875,-851.5625,0.0,0,0
1771949668.4467342,1771949668.378114,-1000.0,-1000.0,-817.87109375,-1000.0,0.0,0,0
1771949668.446761,1771949668.382006,-193.84765625,-245.1171875,-102.05078125,-176.26953125,0.0,0,0
1771949668.446789,1771949668.3858976,-963.37890625,-948.2421875,662.109375,-870.60546875,0.0,0,0
1771949668.446818,1771949668.3897893,939.453125,816.40625,555.17578125,561.03515625,0.0,0,0
1771949668.4468448,1771949668.393681,-332.51953125,-454.1015625,-358.88671875,-752.44140625,0.0,0,0
1771949668.4468732,1771949668.397573,-1000.0,-1000.0,-840.33203125,-1000.0,0.0,0,0
1771949668.446901,1771949668.4014647,-210.44921875,-327.1484375,-194.3359375,-201.66015625,0.0,0,0
1771949668.446965,1771949668.4053564,984.86328125,936.03515625,572.265625,-932.6171875,0.0,0,0
1771949668.446997,1771949668.409248,-951.171875,-942.87109375,651.3671875,812.01171875,0.0,0,0
1771949668.492513,1771949668.4133227,-50.78125,-31.25,-209.9609375,-446.77734375,0.0,0,0
1771949668.4926982,1771949668.4172144,-1000.0,-1000.0,-837.890625,-1000.0,0.0,0,0
1771949668.492759,1771949668.421106,-392.578125,-491.69921875,-316.40625,-273.92578125,0.0,0,0
1771949668.492822,1771949668.424998,899.90234375,827.63671875,501.46484375,994.62890625,0.0,0,0
1771949668.492884,1771949668.4288898,-894.04296875,-873.53515625,674.8046875,956.0546875,0.0,0,0
1771949668.492945,1771949668.4327817,145.99609375,131.34765625,-109.86328125,-185.05859375,0.0,0,0
1771949668.493005,1771949668.4366734,-1000.0,-1000.0,-763.671875,-1000.0,0.0,0,0
1771949668.4930592,1771949668.440565,-631.34765625,-817.87109375,-420.8984375,-465.8203125,0.0,0,0
1771949668.4931378,1771949668.444457,751.953125,504.8828125,395.01953125,880.37109375,0.0,0,0
1771949668.493207,1771949668.4483488,-845.21484375,-811.5234375,692.87109375,-930.6640625,0.0,0,0
1771949668.4932659,1771949668.4522405,175.78125,117.67578125,-26.85546875,-7.32421875,0.0,0,0
1771949668.493342,1771949668.4561324,-1000.0,-1000.0,-688.4765625,-1000.0,0.0,0,0
1771949668.536735,1771949668.4601953,-891.6015625,-992.67578125,-517.578125,-696.77734375,0.0,0,0
1771949668.5368829,1771949668.4640872,435.546875,202.63671875,285.64453125,647.94921875,0.0,0,0
1771949668.5369332,1771949668.467979,-793.45703125,-783.69140625,738.28125,-841.30859375,0.0,0,0
1771949668.536978,1771949668.471871,152.34375,237.3046875,76.171875,102.5390625,0.0,0,0
1771949668.5370219,1771949668.4757626,-1000.0,-1000.0,-652.83203125,-1000.0,0.0,0,0
1771949668.537063,1771949668.4796546,-1000.0,-640.625,-558.59375,-646.484375,0.0,0,0
1771949668.5371032,1771949668.4835463,207.03125,648.92578125,215.8203125,664.0625,0.0,0,0
1771949668.537148,1771949668.4874382,-767.08984375,-840.8203125,699.70703125,-843.26171875,0.0,0,0
1771949668.537191,1771949668.49133,220.21484375,262.6953125,175.29296875,116.2109375,0.0,0,0
1771949668.5372522,1771949668.4952219,-997.55859375,-969.7265625,-568.84765625,-1000.0,0.0,0,0
1771949668.5372941,1771949668.4991136,-1000.0,-1000.0,-653.80859375,-977.5390625,0.0,0,0
1771949668.537343,1771949668.5030055,-48.828125,-95.703125,94.7265625,193.359375,0.0,0,0
1771949668.581563,1771949668.5070572,-792.96875,-827.1484375,676.7578125,-789.55078125,0.0,0,0
1771949668.581677,1771949668.510949,424.8046875,498.046875,270.99609375,230.95703125,0.0,0,0
1771949668.581724,1771949668.5148408,-900.390625,-831.54296875,-465.8203125,-1000.0,0.0,0,0
1771949668.5817778,1771949668.5187328,-1000.0,-1000.0,-661.1328125,-1000.0,0.0,0,0
1771949668.5818188,1771949668.5226245,-228.02734375,-177.734375,3.90625,-3.90625,0.0,0,0
1771949668.581861,1771949668.5265164,-887.20703125,-926.26953125,643.5546875,-817.3828125,0.0,0,0
1771949668.5819032,1771949668.5304081,683.10546875,830.078125,416.50390625,399.4140625,0.0,0,0
1771949668.581959,1771949668.5343,-704.1015625,-458.0078125,-389.16015625,-909.66796875,0.0,0,0
1771949668.582022,1771949668.538192,-1000.0,-1000.0,-736.328125,-1000.0,0.0,0,0
1771949668.58206,1771949668.5420837,-199.70703125,-227.05078125,-111.81640625,-142.08984375,0.0,0,0
1771949668.582122,1771949668.5459757,-955.078125,-969.23828125,541.50390625,-875.48828125,0.0,0,0
1771949668.582165,1771949668.5498674,911.62109375,931.640625,466.30859375,645.01953125,0.0,0,0
1771949668.627136,1771949668.5539086,-386.71875,-314.453125,-280.2734375,-688.96484375,0.0,0,0
1771949668.627289,1771949668.5578005,-1000.0,-1000.0,-694.82421875,-1000.0,0.0,0,0
1771949668.6273348,1771949668.5616925,-174.31640625,-235.3515625,-136.71875,-155.2734375,0.0,0,0
1771949668.627381,1771949668.5655842,-998.53515625,985.3515625,489.74609375,-931.15234375,0.0,0,0
1771949668.627424,1771949668.5694761,-964.35546875,-975.09765625,496.58203125,830.56640625,0.0,0,0
1771949668.627468,1771949668.573368,-85.9375,-60.546875,-170.8984375,-420.8984375,0.0,0,0
1771949668.627511,1771949668.57726,-1000.0,-1000.0,-673.828125,-1000.0,0.0,0,0
1771949668.627549,1771949668.5811517,-366.69921875,-570.80078125,-275.87890625,-267.578125,0.0,0,0
1771949668.6275918,1771949668.5850437,915.0390625,761.71875,388.18359375,989.2578125,0.0,0,0
1771949668.6276338,1771949668.5889356,-902.83203125,-868.65234375,538.0859375,994.62890625,0.0,0,0
1771949668.627677,1771949668.5928273,99.12109375,79.1015625,-114.2578125,-155.2734375,0.0,0,0
1771949668.6277199,1771949668.5967193,-1000.0,-1000.0,-679.6875,-1000.0,0.0,0,0
1771949668.672631,1771949668.6007516,-536.62109375,-623.046875,-350.5859375,-336.9140625,0.0,0,0
1771949668.6727848,1771949668.6046436,831.0546875,719.23828125,348.6328125,939.94140625,0.0,0,0
1771949668.672832,1771949668.6085355,-864.74609375,-846.19140625,588.8671875,-940.4296875,0.0,0,0
1771949668.672881,1771949668.6124272,192.87109375,166.50390625,-24.4140625,22.94921875,0.0,0,0
1771949668.672926,1771949668.6163192,-1000.0,-1000.0,-626.46484375,-1000.0,0.0,0,0
1771949668.672967,1771949668.6202111,-770.5078125,-586.42578125,-422.36328125,-436.5234375,0.0,0,0
1771949668.673024,1771949668.624103,604.98046875,748.046875,285.15625,875.9765625,0.0,0,0
1771949668.673087,1771949668.6279948,-815.91796875,-859.375,586.42578125,-911.1328125,0.0,0,0
1771949668.67313,1771949668.6318867,152.83203125,94.23828125,18.06640625,55.6640625,0.0,0,0
1771949668.6731899,1771949668.6357787,-1000.0,-1000.0,-586.9140625,-1000.0,0.0,0,0
1771949668.673228,1771949668.6396706,-1000.0,-1000.0,-551.7578125,-746.58203125,0.0,0,0
1771949668.673286,1771949668.6435626,195.3125,31.73828125,134.765625,553.22265625,0.0,0,0
1771949668.74685,1771949668.6477458,-767.578125,-788.57421875,574.70703125,-820.3125,0.0,0,0
1771949668.747018,1771949668.6516378,214.35546875,307.12890625,97.16796875,145.01953125,0.0,0,0
1771949668.747065,1771949668.6555297,-1000.0,-1000.0,-515.13671875,-1000.0,0.0,0,0
1771949668.7471092,1771949668.6594217,-1000.0,-1000.0,-554.19921875,-862.79296875,0.0,0,0
1771949668.7471519,1771949668.6633136,-5.859375,119.140625,75.68359375,371.58203125,0.0,0,0
1771949668.7471948,1771949668.6672056,-784.1796875,-808.10546875,606.4453125,-803.22265625,0.0,0,0
1771949668.7472389,1771949668.6710975,385.7421875,396.97265625,233.3984375,219.23828125,0.0,0,0
1771949668.747282,1771949668.6749895,-918.9453125,-893.5546875,-454.58984375,-1000.0,0.0,0,0
1771949668.747324,1771949668.6788814,-1000.0,-1000.0,-609.86328125,-1000.0,0.0,0,0
1771949668.747363,1771949668.6827734,-203.125,-183.59375,-23.4375,39.55078125,0.0,0,0
1771949668.747404,1771949668.6866653,-873.53515625,-925.29296875,517.578125,-811.03515625,0.0,0,0
1771949668.747447,1771949668.6905572,659.1796875,835.9375,306.640625,424.31640625,0.0,0,0
1771949668.777052,1771949668.6945717,-725.5859375,-466.796875,-393.06640625,-914.0625,0.0,0,0
1771949668.7771919,1771949668.6984637,-1000.0,-1000.0,-664.0625,-1000.0,0.0,0,0
1771949668.777329,1771949668.7023556,-206.54296875,-189.453125,-91.30859375,-45.41015625,0.0,0,0
1771949668.777378,1771949668.7062476,-938.96484375,-934.5703125,464.84375,-858.3984375,0.0,0,0
1771949668.7774222,1771949668.7101395,858.3984375,854.00390625,353.02734375,569.82421875,0.0,0,0
1771949668.777466,1771949668.7140315,-468.75,-427.24609375,-297.8515625,-761.23046875,0.0,0,0
1771949668.777508,1771949668.7179234,-1000.0,-1000.0,-625.48828125,-1000.0,0.0,0,0
1771949668.7775471,1771949668.7218153,-178.22265625,-274.90234375,-149.4140625,-160.15625,0.0,0,0
1771949668.777589,1771949668.7257073,-992.67578125,996.58203125,416.50390625,-906.25,0.0,0,0
1771949668.777631,1771949668.7295992,-976.07421875,964.84375,424.31640625,734.375,0.0,0,0
1771949668.777686,1771949668.7334912,-145.01953125,-243.1640625,-215.8203125,-566.40625,0.0,0,0
1771949668.777728,1771949668.7373831,-1000.0,-1000.0,-609.375,-1000.0,0.0,0,0
1771949668.821562,1771949668.7414632,-290.52734375,-277.83203125,-198.2421875,-151.3671875,0.0,0,0
1771949668.821684,1771949668.7453551,948.2421875,942.87109375,308.10546875,-968.26171875,0.0,0,0
1771949668.8217149,1771949668.749247,-919.43359375,-912.59765625,426.26953125,951.171875,0.0,0,0
1771949668.8217442,1771949668.753139,66.89453125,99.12109375,-100.09765625,-219.23828125,0.0,0,0
1771949668.821772,1771949668.757031,-1000.0,-1000.0,-560.05859375,-1000.0,0.0,0,0
1771949668.8217978,1771949668.760923,-473.6328125,-360.83984375,-257.8125,-276.3671875,0.0,0,0
1771949668.821826,1771949668.764815,865.72265625,966.796875,241.69921875,991.69921875,0.0,0,0
1771949668.8218539,1771949668.768707,-876.953125,963.37890625,382.8125,972.65625,0.0,0,0
1771949668.821881,1771949668.772599,188.4765625,-121.09375,-73.2421875,-154.78515625,0.0,0,0
1771949668.8219461,1771949668.776491,-1000.0,-1000.0,-524.90234375,-1000.0,0.0,0,0
1771949668.8219872,1771949668.7803829,-771.97265625,-838.8671875,-344.23828125,-508.30078125,0.0,0,0
1771949668.822038,1771949668.7842748,600.5859375,452.1484375,175.78125,826.66015625,0.0,0,0
1771949668.8668292,1771949668.788344,-818.359375,-818.84765625,407.71484375,-916.50390625,0.0,0,0
1771949668.866961,1771949668.792236,163.0859375,93.26171875,4.39453125,-1.46484375,0.0,0,0
1771949668.866997,1771949668.796128,-1000.0,-1000.0,-439.94140625,-1000.0,0.0,0,0
1771949668.867029,1771949668.80002,-955.078125,-871.09375,-369.62890625,-681.15234375,0.0,0,0
1771949668.867058,1771949668.803912,332.03125,376.46484375,122.55859375,630.37109375,0.0,0,0
1771949668.8670862,1771949668.807804,-777.34375,-795.41015625,428.7109375,-835.9375,0.0,0,0
1771949668.867114,1771949668.811696,163.57421875,264.6484375,72.75390625,105.46875,0.0,0,0
1771949668.867141,1771949668.815588,-1000.0,-958.49609375,-375.0,-1000.0,0.0,0,0
1771949668.867166,1771949668.81948,-1000.0,-1000.0,-416.9921875,-928.7109375,0.0,0,0
1771949668.867192,1771949668.8233721,-17.578125,-146.484375,-5.859375,270.01953125,0.0,0,0
1771949668.867219,1771949668.827264,-782.2265625,-820.3125,384.27734375,-792.96875,0.0,0,0
1771949668.867248,1771949668.831156,358.3984375,397.4609375,137.6953125,216.30859375,0.0,0,0
1771949668.911859,1771949668.8352156,-942.3828125,-931.640625,-372.55859375,-1000.0,0.0,0,0
1771949668.911985,1771949668.8391075,-1000.0,-1000.0,-466.30859375,-986.81640625,0.0,0,0
1771949668.9120152,1771949668.8429995,-143.5546875,-122.55859375,-30.2734375,164.0625,0.0,0,0
1771949668.912045,1771949668.8468916,-826.66015625,-840.33203125,354.00390625,-802.24609375,0.0,0,0
1771949668.912075,1771949668.8507836,522.4609375,507.32421875,181.640625,320.80078125,0.0,0,0
1771949668.912106,1771949668.8546758,-853.515625,-824.70703125,-277.83203125,-956.0546875,0.0,0,0
1771949668.912134,1771949668.8585677,-1000.0,-1000.0,-433.10546875,-1000.0,0.0,0,0
1771949668.912161,1771949668.8624597,-220.21484375,-208.984375,-84.9609375,-101.5625,0.0,0,0
1771949668.9121878,1771949668.8663518,-917.48046875,-890.625,323.2421875,-834.47265625,0.0,0,0
1771949668.912215,1771949668.8702438,783.69140625,638.671875,247.55859375,408.69140625,0.0,0,0
1771949668.912243,1771949668.8741357,-577.63671875,-680.6640625,-238.28125,-909.66796875,0.0,0,0
1771949668.91227,1771949668.878028,-1000.0,-1000.0,-443.84765625,-1000.0,0.0,0,0
1771949668.9568582,1771949668.8820767,-183.10546875,-200.1953125,-81.54296875,-94.7265625,0.0,0,0
1771949668.9569569,1771949668.8859687,-986.328125,-960.9375,269.53125,-888.18359375,0.0,0,0
1771949668.9569879,1771949668.8898609,-993.1640625,908.69140625,255.37109375,677.734375,0.0,0,0
1771949668.9570172,1771949668.8937528,-207.03125,-321.2890625,-142.578125,-622.55859375,0.0,0,0
1771949668.957045,1771949668.897645,-1000.0,-1000.0,-410.64453125,-1000.0,0.0,0,0
1771949668.957071,1771949668.901537,-202.63671875,-156.25,-105.46875,-128.41796875,0.0,0,0
1771949668.957099,1771949668.9054291,988.28125,-944.3359375,254.8828125,-913.57421875,0.0,0,0
1771949668.9571269,1771949668.909321,-948.2421875,883.30078125,281.73828125,785.64453125,0.0,0,0
1771949668.957154,1771949668.9132133,-14.6484375,-288.57421875,-122.55859375,-460.9375,0.0,0,0
1771949668.957182,1771949668.9171052,-1000.0,-1000.0,-419.43359375,-1000.0,0.0,0,0
1771949668.957207,1771949668.9209974,-449.21875,-488.76953125,-182.12890625,-295.8984375,0.0,0,0
1771949668.957234,1771949668.9248893,870.1171875,855.95703125,207.51953125,989.74609375,0.0,0,0
1771949669.001774,1771949668.9289284,-880.859375,-980.46875,301.7578125,946.2890625,0.0,0,0
1771949669.001889,1771949668.9328203,176.26953125,-108.88671875,-61.03515625,-220.703125,0.0,0,0
1771949669.00192,1771949668.9367125,-1000.0,-1000.0,-377.44140625,-1000.0,0.0,0,0
1771949669.001947,1771949668.9406047,-690.91796875,-641.6015625,-221.19140625,-428.7109375,0.0,0,0
1771949669.001975,1771949668.9444966,695.80078125,656.25,158.203125,873.046875,0.0,0,0
1771949669.002003,1771949668.9483888,-833.984375,-834.9609375,359.375,-914.0625,0.0,0,0
1771949669.002031,1771949668.9522808,167.96875,178.7109375,38.0859375,47.8515625,0.0,0,0
1771949669.002059,1771949668.956173,-1000.0,-1000.0,-361.328125,-1000.0,0.0,0,0
1771949669.0020852,1771949668.960065,-936.5234375,-899.4140625,-303.7109375,-630.859375,0.0,0,0
1771949669.002112,1771949668.963957,366.2109375,345.703125,136.23046875,686.5234375,0.0,0,0
1771949669.0021398,1771949668.9678493,-783.203125,-800.29296875,407.2265625,-856.93359375,0.0,0,0
1771949669.002167,1771949668.9717412,142.08984375,191.40625,65.4296875,92.7734375,0.0,0,0
1771949669.07744,1771949668.9759321,-1000.0,-1000.0,-352.5390625,-1000.0,0.0,0,0
1771949669.077613,1771949668.9798243,-1000.0,-1000.0,-355.95703125,-841.796875,0.0,0,0
1771949669.077677,1771949668.9837162,73.2421875,174.8046875,75.1953125,422.8515625,0.0,0,0
1771949669.077736,1771949668.9876084,-769.53125,-812.01171875,389.16015625,-808.10546875,0.0,0,0
1771949669.0777972,1771949668.9915006,307.6171875,195.3125,97.16796875,151.85546875,0.0,0,0
1771949669.077856,1771949668.9953928,-960.9375,-1000.0,-312.5,-1000.0,0.0,0,0
1771949669.0779111,1771949668.999285,-1000.0,-837.890625,-370.60546875,-950.1953125,0.0,0,0
1771949669.077974,1771949669.003177,-113.28125,255.37109375,5.859375,243.1640625,0.0,0,0
1771949669.078049,1771949669.007069,-814.453125,-910.15625,317.87109375,-804.19921875,0.0,0,0
1771949669.0781062,1771949669.0109613,484.86328125,136.23046875,118.65234375,194.82421875,0.0,0,0
1771949669.078173,1771949669.0148535,-872.55859375,-983.88671875,-277.34375,-1000.0,0.0,0,0
1771949669.0782442,1771949669.0187454,-1000.0,-1000.0,-390.625,-1000.0,0.0,0,0
1771949669.092365,1771949669.0227687,-224.609375,-67.3828125,-47.8515625,48.33984375,0.0,0,0
1771949669.092482,1771949669.026661,-911.62109375,-882.8125,267.08984375,-826.171875,0.0,0,0
1771949669.0925388,1771949669.030553,765.13671875,692.87109375,175.78125,444.3359375,0.0,0,0
1771949669.092596,1771949669.034445,-601.5625,-606.4453125,-209.9609375,-862.79296875,0.0,0,0
1771949669.09264,1771949669.0383372,-1000.0,-1000.0,-421.875,-1000.0,0.0,0,0
1771949669.092681,1771949669.0422294,-190.91796875,-203.125,-78.61328125,-151.85546875,0.0,0,0
1771949669.092725,1771949669.0461216,-969.23828125,-920.41015625,355.46875,-867.67578125,0.0,0,0
1771949669.092921,1771949669.0500138,955.078125,758.7890625,297.8515625,568.84765625,0.0,0,0
1771949669.0929668,1771949669.053906,-297.8515625,-512.6953125,-187.5,-741.69921875,0.0,0,0
1771949669.09301,1771949669.057798,-1000.0,-1000.0,-459.9609375,-1000.0,0.0,0,0
1771949669.093049,1771949669.06169,-238.76953125,-302.24609375,-140.625,-177.734375,0.0,0,0
1771949669.093091,1771949669.0655823,972.16796875,963.8671875,270.99609375,-937.98828125,0.0,0,0
1771949669.151896,1771949669.0695894,-941.89453125,-992.67578125,327.1484375,846.6796875,0.0,0,0
1771949669.1520221,1771949669.0734816,-21.484375,-112.3046875,-116.69921875,-392.578125,0.0,0,0
1771949669.152071,1771949669.0773735,-1000.0,-1000.0,-458.49609375,-1000.0,0.0,0,0
1771949669.152116,1771949669.0812657,-436.5234375,-551.26953125,-215.33203125,-302.24609375,0.0,0,0
1771949669.1521611,1771949669.0851579,875.48828125,761.71875,219.7265625,949.21875,0.0,0,0
1771949669.152204,1771949669.08905,-882.8125,-853.515625,401.85546875,-941.89453125,0.0,0,0
1771949669.152247,1771949669.0929422,189.453125,192.87109375,-7.32421875,-15.13671875,0.0,0,0
1771949669.152289,1771949669.0968344,-1000.0,-1000.0,-459.47265625,-1000.0,0.0,0,0
1771949669.152328,1771949669.1007266,-633.30078125,-588.8671875,-270.01953125,-370.1171875,0.0,0,0
1771949669.15237,1771949669.1046188,760.7421875,773.4375,176.26953125,929.6875,0.0,0,0
1771949669.1524212,1771949669.108511,-847.65625,-913.0859375,347.16796875,-934.08203125,0.0,0,0
1771949669.152482,1771949669.1124032,177.24609375,43.9453125,-18.06640625,29.296875,0.0,0,0
1771949669.197365,1771949669.116481,-1000.0,-1000.0,-438.96484375,-1000.0,0.0,0,0
1771949669.1974971,1771949669.1203732,-879.8828125,-792.96875,-333.984375,-566.89453125,0.0,0,0
1771949669.197557,1771949669.1242654,454.1015625,506.8359375,144.04296875,766.6015625,0.0,0,0
1771949669.197601,1771949669.1281576,-792.48046875,-818.84765625,387.6953125,-887.20703125,0.0,0,0
1771949669.197645,1771949669.1320498,141.6015625,53.22265625,30.76171875,23.4375,0.0,0,0
1771949669.197688,1771949669.135942,-1000.0,-989.74609375,-360.83984375,-1000.0,0.0,0,0
1771949669.197729,1771949669.1398342,-1000.0,-999.51171875,-393.06640625,-950.1953125,0.0,0,0
1771949669.197771,1771949669.1437263,67.87109375,-81.54296875,19.53125,273.92578125,0.0,0,0
1771949669.197815,1771949669.1476185,-770.5078125,-813.4765625,396.97265625,-784.1796875,0.0,0,0
1771949669.197858,1771949669.1515107,301.26953125,435.05859375,125.48828125,193.84765625,0.0,0,0
1771949669.197902,1771949669.155403,-973.14453125,-988.28125,-362.3046875,-1000.0,0.0,0,0
1771949669.1979551,1771949669.159295,-1000.0,-899.90234375,-419.43359375,-858.3984375,0.0,0,0
1771949669.241567,1771949669.1633625,-49.8046875,326.171875,27.34375,376.46484375,0.0,0,0
1771949669.2416918,1771949669.1672547,-799.31640625,-836.9140625,404.78515625,-811.03515625,0.0,0,0
1771949669.24174,1771949669.1711469,450.68359375,433.10546875,188.4765625,273.92578125,0.0,0,0
1771949669.241785,1771949669.175039,-886.71875,-885.25390625,-329.58984375,-998.53515625,0.0,0,0
1771949669.2418308,1771949669.1789315,-1000.0,-1000.0,-467.28515625,-1000.0,0.0,0,0
1771949669.241871,1771949669.1828237,-220.703125,-55.6640625,-7.8125,62.98828125,0.0,0,0
1771949669.241914,1771949669.1867158,-878.90625,-836.9140625,416.015625,-807.6171875,0.0,0,0
1771949669.241965,1771949669.190608,654.296875,463.37890625,232.421875,315.91796875,0.0,0,0
1771949669.242015,1771949669.1945002,-735.83984375,-832.51953125,-301.7578125,-955.078125,0.0,0,0
1771949669.242063,1771949669.1983924,-1000.0,-1000.0,-521.97265625,-1000.0,0.0,0,0
1771949669.24211,1771949669.2022846,-197.265625,-244.140625,-119.140625,-140.13671875,0.0,0,0
1771949669.242152,1771949669.206177,-964.35546875,-953.125,339.84375,-873.046875,0.0,0,0
1771949669.287905,1771949669.2102425,937.01171875,851.5625,312.01171875,621.58203125,0.0,0,0
1771949669.288013,1771949669.2141347,-336.9140625,-427.734375,-209.9609375,-698.73046875,0.0,0,0
1771949669.288063,1771949669.218027,-1000.0,-1000.0,-509.765625,-1000.0,0.0,0,0
1771949669.288105,1771949669.2219193,-207.51953125,-238.28125,-142.08984375,-171.875,0.0,0,0
1771949669.2881489,1771949669.2258115,985.3515625,943.84765625,307.12890625,-933.10546875,0.0,0,0
1771949669.288193,1771949669.2297037,-949.21875,-942.87109375,374.51171875,831.0546875,0.0,0,0
1771949669.2882361,1771949669.233596,-47.36328125,-12.6953125,-142.08984375,-426.26953125,0.0,0,0
1771949669.288279,1771949669.2374883,-1000.0,-1000.0,-545.41015625,-1000.0,0.0,0,0
1771949669.288318,1771949669.2413805,-355.46875,-381.34765625,-213.37890625,-191.89453125,0.0,0,0
1771949669.288378,1771949669.2452726,917.48046875,895.01953125,272.94921875,998.046875,0.0,0,0
1771949669.28843,1771949669.249165,-900.390625,-892.08984375,408.203125,-991.2109375,0.0,0,0
1771949669.2884722,1771949669.2530572,161.62109375,177.24609375,-64.94140625,-69.82421875,0.0,0,0
1771949669.347633,1771949669.2571847,-1000.0,-1000.0,-520.5078125,-1000.0,0.0,0,0
1771949669.3478022,1771949669.2610772,-574.21875,-665.52734375,-285.15625,-396.97265625,0.0,0,0
1771949669.347852,1771949669.2649693,813.4765625,695.3125,244.62890625,918.9453125,0.0,0,0
1771949669.347897,1771949669.2688615,-859.86328125,-845.21484375,431.15234375,-938.96484375,0.0,0,0
1771949669.3479419,1771949669.272754,188.96484375,142.578125,-28.80859375,11.23046875,0.0,0,0
1771949669.3479848,1771949669.2766461,-1000.0,-1000.0,-478.02734375,-1000.0,0.0,0,0
1771949669.348025,1771949669.2805386,-790.0390625,-568.359375,-339.35546875,-484.375,0.0,0,0
1771949669.348075,1771949669.2844307,579.1015625,812.01171875,187.5,848.6328125,0.0,0,0
1771949669.3481169,1771949669.2883232,-811.5234375,973.14453125,425.78125,-907.71484375,0.0,0,0
1771949669.348175,1771949669.2922153,150.390625,-139.6484375,13.671875,42.96875,0.0,0,0
1771949669.348217,1771949669.2961075,-1000.0,-1000.0,-447.75390625,-1000.0,0.0,0,0
1771949669.348257,1771949669.3,-1000.0,-980.95703125,-434.08203125,-755.37109375,0.0,0,0
1771949669.391068,1771949669.3040383,165.52734375,160.64453125,83.0078125,524.4140625,0.0,0,0
1771949669.39119,1771949669.3079307,-764.16015625,-787.109375,458.984375,-817.87109375,0.0,0,0
1771949669.391221,1771949669.311823,231.93359375,312.01171875,116.2109375,148.4375,0.0,0,0
1771949669.39125,1771949669.3157153,-994.62890625,-949.70703125,-399.90234375,-1000.0,0.0,0,0
1771949669.391277,1771949669.3196075,-1000.0,-1000.0,-473.14453125,-996.58203125,0.0,0,0
1771949669.391304,1771949669.3235,-48.828125,-121.09375,58.59375,177.24609375,0.0,0,0
1771949669.391331,1771949669.327392,-791.50390625,-813.4765625,475.5859375,-787.59765625,0.0,0,0
1771949669.391359,1771949669.3312845,399.90234375,356.4453125,157.71484375,221.19140625,0.0,0,0
1771949669.391392,1771949669.3351767,-915.0390625,-948.2421875,-351.5625,-1000.0,0.0,0,0
1771949669.391419,1771949669.3390691,-1000.0,-1000.0,-469.23828125,-1000.0,0.0,0,0
1771949669.391444,1771949669.3429613,-223.6328125,-160.64453125,-12.6953125,75.1953125,0.0,0,0
1771949669.3914711,1771949669.3468537,-872.0703125,-856.93359375,417.48046875,-811.5234375,0.0,0,0
1771949669.4215848,1771949669.3508794,633.30078125,556.15234375,229.4921875,358.3984375,0.0,0,0
1771949669.4216928,1771949669.3547719,-758.30078125,-805.6640625,-343.26171875,-954.1015625,0.0,0,0
1771949669.421725,1771949669.358664,-1000.0,-1000.0,-537.59765625,-1000.0,0.0,0,0
1771949669.421752,1771949669.3625565,-201.171875,-56.640625,-63.96484375,-26.85546875,0.0,0,0
1771949669.4217799,1771949669.3664486,-957.03125,-972.65625,361.81640625,-874.0234375,0.0,0,0
1771949669.4218082,1771949669.370341,915.52734375,981.93359375,313.96484375,671.875,0.0,0,0
1771949669.421835,1771949669.3742332,-380.37109375,-141.11328125,-185.546875,-642.08984375,0.0,0,0
1771949669.4218628,1771949669.3781257,-1000.0,-1000.0,-539.55078125,-1000.0,0.0,0,0
1771949669.421925,1771949669.382018,-174.8046875,-361.81640625,-171.38671875,-182.12890625,0.0,0,0
1771949669.421957,1771949669.3859103,-997.0703125,935.546875,311.5234375,-929.6875,0.0,0,0
1771949669.421985,1771949669.3898027,-965.33203125,-964.84375,350.09765625,817.3828125,0.0,0,0
1771949669.4221199,1771949669.3936949,-94.23828125,-101.07421875,-145.99609375,-456.0546875,0.0,0,0
1771949669.4810398,1771949669.3977134,-1000.0,-1000.0,-559.5703125,-1000.0,0.0,0,0
1771949669.481214,1771949669.4016058,-341.796875,-416.9921875,-233.88671875,-222.65625,0.0,0,0
1771949669.48128,1771949669.4054983,925.78125,882.8125,289.55078125,-986.81640625,0.0,0,0
1771949669.481354,1771949669.4093904,-908.203125,-894.53125,401.3671875,956.0546875,0.0,0,0
1771949669.481426,1771949669.4132829,97.65625,66.40625,-92.7734375,-198.2421875,0.0,0,0
1771949669.481484,1771949669.4171753,-1000.0,-1000.0,-500.48828125,-1000.0,0.0,0,0
1771949669.481552,1771949669.4210675,-550.78125,-569.3359375,-267.578125,-395.01953125,0.0,0,0
1771949669.481628,1771949669.42496,821.2890625,686.5234375,220.703125,924.31640625,0.0,0,0
1771949669.481704,1771949669.4288523,-861.328125,-865.234375,429.19921875,-966.30859375,0.0,0,0
1771949669.481782,1771949669.4327445,190.4296875,94.7265625,-34.1796875,-62.98828125,0.0,0,0
1771949669.481858,1771949669.436637,-1000.0,-1000.0,-496.58203125,-1000.0,0.0,0,0
1771949669.48193,1771949669.4405293,-786.62109375,-762.6953125,-341.30859375,-501.46484375,0.0,0,0
1771949669.527013,1771949669.4445355,583.984375,542.96875,177.24609375,818.359375,0.0,0,0
1771949669.527133,1771949669.448428,-813.4765625,-815.91796875,453.125,-881.8359375,0.0,0,0
1771949669.527192,1771949669.45232,155.2734375,252.9296875,38.57421875,103.02734375,0.0,0,0
1771949669.5272589,1771949669.4562125,-1000.0,-1000.0,-463.8671875,-1000.0,0.0,0,0
1771949669.527318,1771949669.460105,-1000.0,-1000.0,-417.48046875,-761.71875,0.0,0,0
1771949669.527381,1771949669.4639974,231.4453125,218.26171875,135.7421875,563.4765625,0.0,0,0
1771949669.527457,1771949669.4678895,-770.5078125,-784.66796875,484.86328125,-830.078125,0.0,0,0
1771949669.527523,1771949669.471782,176.7578125,191.89453125,78.125,83.49609375,0.0,0,0
1771949669.527585,1771949669.4756744,-1000.0,-1000.0,-453.61328125,-1000.0,0.0,0,0
1771949669.527644,1771949669.4795668,-1000.0,-1000.0,-479.4921875,-891.6015625,0.0,0,0
1771949669.527703,1771949669.483459,-10.7421875,-51.26953125,43.45703125,324.21875,0.0,0,0
1771949669.527776,1771949669.4873514,-783.69140625,-809.08203125,451.171875,-798.828125,0.0,0,0
1771949669.571975,1771949669.4914289,383.30078125,416.015625,163.0859375,234.86328125,0.0,0,0
1771949669.572115,1771949669.4953213,-925.29296875,-921.38671875,-387.20703125,-1000.0,0.0,0,0
1771949669.572164,1771949669.4992137,-1000.0,-1000.0,-477.05078125,-956.0546875,0.0,0,0
1771949669.5722072,1771949669.5031059,-163.57421875,-33.69140625,6.8359375,211.42578125,0.0,0,0
1771949669.5722518,1771949669.5069983,-860.83984375,-910.64453125,433.10546875,-814.453125,0.0,0,0
1771949669.572296,1771949669.5108907,645.5078125,824.70703125,286.62109375,419.43359375,0.0,0,0
1771949669.5723572,1771949669.5147831,-730.95703125,-445.3125,-258.7890625,-902.83203125,0.0,0,0
1771949669.5724,1771949669.5186756,-1000.0,-1000.0,-522.4609375,-1000.0,0.0,0,0
1771949669.572456,1771949669.522568,-206.54296875,-203.61328125,-90.33203125,-80.078125,0.0,0,0
1771949669.5725062,1771949669.5264602,-939.453125,-920.41015625,380.859375,-859.375,0.0,0,0
1771949669.572566,1771949669.5303526,859.86328125,778.3203125,297.8515625,559.08203125,0.0,0,0
1771949669.5726268,1771949669.534245,-466.796875,-512.6953125,-249.51171875,-768.06640625,0.0,0,0
1771949669.647394,1771949669.5384686,-1000.0,-1000.0,-559.5703125,-1000.0,0.0,0,0
1771949669.647609,1771949669.542361,-177.24609375,-256.34765625,-138.671875,-163.0859375,0.0,0,0
1771949669.6476579,1771949669.5462534,-994.62890625,976.5625,363.28125,-912.59765625,0.0,0,0
1771949669.647703,1771949669.5501459,-971.19140625,-959.47265625,375.48828125,756.34765625,0.0,0,0
1771949669.6477492,1771949669.5540383,-132.8125,-136.71875,-176.7578125,-535.15625,0.0,0,0
1771949669.647792,1771949669.5579307,-1000.0,-1000.0,-548.828125,-1000.0,0.0,0,0
1771949669.647831,1771949669.5618231,-265.625,-47.8515625,-177.734375,-152.34375,0.0,0,0
1771949669.647873,1771949669.5657156,965.33203125,-970.703125,314.94140625,-947.75390625,0.0,0,0
1771949669.647934,1771949669.569608,-931.640625,966.30859375,412.59765625,886.71875,0.0,0,0
1771949669.6479769,1771949669.5735004,27.34375,-115.234375,-108.88671875,-310.05859375,0.0,0,0
1771949669.64802,1771949669.577393,-1000.0,-1000.0,-552.24609375,-1000.0,0.0,0,0
1771949669.6480582,1771949669.5812855,-505.859375,-632.32421875,-272.94921875,-340.33203125,0.0,0,0
1771949669.66224,1771949669.5853457,838.37890625,683.10546875,259.27734375,935.546875,0.0,0,0
1771949669.6623201,1771949669.5892382,-868.65234375,-840.8203125,452.1484375,-946.2890625,0.0,0,0
1771949669.662368,1771949669.5931306,200.1953125,156.73828125,-30.2734375,-7.8125,0.0,0,0
1771949669.662452,1771949669.5970232,-1000.0,-1000.0,-526.85546875,-1000.0,0.0,0,0
1771949669.6625128,1771949669.6009157,-700.68359375,-588.8671875,-331.54296875,-397.94921875,0.0,0,0
1771949669.662559,1771949669.604808,691.89453125,739.74609375,252.44140625,904.78515625,0.0,0,0
1771949669.6626291,1771949669.6087005,-832.51953125,-854.00390625,492.1875,-923.33984375,0.0,0,0
1771949669.662709,1771949669.612593,164.55078125,142.578125,0.9765625,55.17578125,0.0,0,0
1771949669.662753,1771949669.6164854,-1000.0,-1000.0,-501.46484375,-1000.0,0.0,0,0
1771949669.662793,1771949669.620378,-964.84375,-965.8203125,-434.08203125,-688.4765625,0.0,0,0
1771949669.662835,1771949669.6242704,319.82421875,260.25390625,143.06640625,635.25390625,0.0,0,0
1771949669.6628768,1771949669.6281629,-777.83203125,-782.71484375,516.11328125,-842.28515625,0.0,0,0
1771949669.706531,1771949669.6322076,139.6484375,187.01171875,71.2890625,92.28515625,0.0,0,0
1771949669.706665,1771949669.6361,-1000.0,-1000.0,-464.84375,-1000.0,0.0,0,0
1771949669.706709,1771949669.6399927,-1000.0,-1000.0,-463.8671875,-883.30078125,0.0,0,0
1771949669.706753,1771949669.6438851,31.73828125,9.765625,86.42578125,340.33203125,0.0,0,0
1771949669.7068028,1771949669.6477776,-776.3671875,-826.66015625,513.18359375,-795.8984375,0.0,0,0
1771949669.706848,1771949669.65167,374.51171875,560.546875,198.2421875,250.9765625,0.0,0,0
1771949669.706891,1771949669.6555626,-924.8046875,-758.7890625,-367.67578125,-1000.0,0.0,0,0
1771949669.706934,1771949669.659455,-1000.0,-1000.0,-515.13671875,-1000.0,0.0,0,0
1771949669.706972,1771949669.6633475,-168.9453125,-181.640625,-19.53125,97.65625,0.0,0,0
1771949669.7070138,1771949669.66724,-835.44921875,-872.0703125,455.56640625,-804.19921875,0.0,0,0
1771949669.707057,1771949669.6711326,535.64453125,621.09375,248.046875,344.23828125,0.0,0,0
1771949669.7071,1771949669.675025,-846.6796875,-727.05078125,-338.37890625,-950.68359375,0.0,0,0
1771949669.752042,1771949669.679059,-1000.0,-1000.0,-567.3828125,-1000.0,0.0,0,0
1771949669.752152,1771949669.6829517,-220.21484375,-194.82421875,-61.5234375,-87.40234375,0.0,0,0
1771949669.7521842,1771949669.686844,-917.48046875,-900.390625,452.1484375,-839.84375,0.0,0,0
1771949669.752214,1771949669.6907365,783.203125,706.54296875,317.87109375,482.91015625,0.0,0,0
1771949669.752245,1771949669.6946292,-578.125,-698.2421875,-283.203125,-878.41796875,0.0,0,0
1771949669.7522728,1771949669.6985216,-1000.0,-1000.0,-536.62109375,-1000.0,0.0,0,0
1771949669.752331,1771949669.702414,-187.01171875,189.453125,-77.63671875,14.6484375,0.0,0,0
1771949669.752419,1771949669.7063067,-977.05078125,-914.0625,379.39453125,-876.953125,0.0,0,0
1771949669.7524621,1771949669.710199,978.02734375,657.71484375,357.421875,643.06640625,0.0,0,0
1771949669.75251,1771949669.7140915,-253.90625,-548.828125,-218.26171875,-655.2734375,0.0,0,0
1771949669.752554,1771949669.7179842,-1000.0,-1000.0,-593.75,-1000.0,0.0,0,0
1771949669.752605,1771949669.7218766,-247.55859375,-303.7109375,-171.875,-166.015625,0.0,0,0
1771949669.797118,1771949669.7259035,966.796875,947.75390625,351.5625,-949.21875,0.0,0,0
1771949669.797287,1771949669.729796,-935.05859375,-946.77734375,405.2734375,879.8828125,0.0,0,0
1771949669.7973492,1771949669.7336886,6.8359375,-7.32421875,-132.8125,-331.0546875,0.0,0,0
1771949669.797394,1771949669.737581,-1000.0,-1000.0,-557.12890625,-1000.0,0.0,0,0
1771949669.797575,1771949669.7414737,-436.5234375,-435.546875,-238.28125,-280.2734375,0.0,0,0
1771949669.797621,1771949669.745366,878.41796875,864.2578125,327.63671875,976.5625,0.0,0,0
1771949669.797664,1771949669.7492585,-883.30078125,-879.8828125,498.046875,-989.2578125,0.0,0,0
1771949669.797707,1771949669.7531512,188.96484375,166.50390625,-37.109375,-89.35546875,0.0,0,0
1771949669.79775,1771949669.7570436,-1000.0,-1000.0,-559.5703125,-1000.0,0.0,0,0
1771949669.797788,1771949669.7609363,-698.73046875,-848.14453125,-353.02734375,-435.05859375,0.0,0,0
1771949669.7978399,1771949669.7648287,690.4296875,457.51953125,212.890625,870.60546875,0.0,0,0
1771949669.797882,1771949669.768721,-833.49609375,-806.15234375,466.796875,-900.87890625,0.0,0,0
1771949669.841559,1771949669.7727373,171.38671875,181.640625,6.8359375,85.9375,0.0,0,0
1771949669.8416939,1771949669.7766297,-1000.0,-1000.0,-507.8125,-1000.0,0.0,0,0
1771949669.841741,1771949669.7805223,-906.73828125,-787.109375,-385.7421875,-562.5,0.0,0,0
1771949669.8417869,1771949669.7844148,412.109375,496.09375,189.94140625,753.41796875,0.0,0,0
1771949669.841832,1771949669.7883074,-788.0859375,-820.80078125,493.1640625,-861.328125,0.0,0,0
1771949669.841877,1771949669.7921999,145.01953125,340.8203125,97.16796875,139.16015625,0.0,0,0
1771949669.8419268,1771949669.7960925,-1000.0,-955.078125,-436.03515625,-1000.0,0.0,0,0
1771949669.8419762,1771949669.799985,-1000.0,-1000.0,-458.984375,-808.10546875,0.0,0,0
1771949669.842036,1771949669.8038776,82.03125,110.83984375,112.79296875,464.84375,0.0,0,0
1771949669.842083,1771949669.80777,-768.5546875,-789.55078125,502.9296875,-810.05859375,0.0,0,0
1771949669.842125,1771949669.8116627,297.8515625,318.359375,154.78515625,185.05859375,0.0,0,0
1771949669.842169,1771949669.815555,-964.84375,-951.171875,-385.25390625,-1000.0,0.0,0,0
1771949669.902556,1771949669.8195596,-1000.0,-1000.0,-473.14453125,-983.3984375,0.0,0,0
1771949669.9027221,1771949669.823452,-109.86328125,-122.55859375,29.296875,186.5234375,0.0,0,0
1771949669.902791,1771949669.8273447,-815.4296875,-851.5625,477.5390625,-795.8984375,0.0,0,0
1771949669.902853,1771949669.831237,500.0,589.84375,248.53515625,305.17578125,0.0,0,0
1771949669.902915,1771949669.8351297,-862.3046875,-809.5703125,-321.77734375,-993.65234375,0.0,0,0
1771949669.902976,1771949669.8390222,-1000.0,-1000.0,-483.88671875,-1000.0,0.0,0,0
1771949669.90303,1771949669.8429148,-229.00390625,114.74609375,3.90625,77.1484375,0.0,0,0
1771949669.9030888,1771949669.8468075,-895.5078125,-857.91015625,438.4765625,-823.2421875,0.0,0,0
1771949669.903156,1771949669.8507,704.1015625,419.921875,279.78515625,380.37109375,0.0,0,0
1771949669.903214,1771949669.8545926,-681.15234375,-874.51171875,-297.8515625,-931.640625,0.0,0,0
1771949669.90329,1771949669.858485,-1000.0,-1000.0,-534.1796875,-1000.0,0.0,0,0
1771949669.903342,1771949669.8623776,-191.40625,-74.21875,-60.546875,-22.4609375,0.0,0,0
1771949669.946796,1771949669.8664515,-973.14453125,-935.546875,394.53125,-872.55859375,0.0,0,0
1771949669.946961,1771949669.8703442,963.8671875,884.765625,340.33203125,651.3671875,0.0,0,0
1771949669.947026,1771949669.8742368,-285.15625,-321.2890625,-214.84375,-646.484375,0.0,0,0
1771949669.947086,1771949669.8781292,-1000.0,-1000.0,-562.5,-1000.0,0.0,0,0
1771949669.9471428,1771949669.882022,-224.609375,-326.66015625,-154.296875,-183.10546875,0.0,0,0
1771949669.9472032,1771949669.8859146,982.91015625,987.3046875,381.8359375,-906.73828125,0.0,0,0
1771949669.947262,1771949669.889807,-950.68359375,933.59375,427.734375,712.40234375,0.0,0,0
1771949669.947319,1771949669.8936996,-57.12890625,-270.5078125,-138.671875,-559.08203125,0.0,0,0
1771949669.947378,1771949669.8975923,-1000.0,-1000.0,-564.453125,-1000.0,0.0,0,0
1771949669.947432,1771949669.9014847,-405.76171875,-476.5625,-243.1640625,-282.2265625,0.0,0,0
1771949669.947477,1771949669.9053774,891.11328125,826.171875,306.640625,976.07421875,0.0,0,0
1771949669.947531,1771949669.90927,-890.13671875,-870.1171875,443.359375,-993.65234375,0.0,0,0
1771949669.9918258,1771949669.9133341,160.15625,129.8828125,-59.08203125,-118.1640625,0.0,0,0
1771949669.9919732,1771949669.9172268,-1000.0,-1000.0,-527.83203125,-1000.0,0.0,0,0
1771949669.992018,1771949669.9211195,-577.63671875,-381.34765625,-299.31640625,-325.1953125,0.0,0,0
1771949669.992064,1771949669.9250119,810.546875,888.671875,243.1640625,935.05859375,0.0,0,0
1771949669.992107,1771949669.9289045,-856.93359375,-885.7421875,476.5625,-928.22265625,0.0,0,0
1771949669.99215,1771949669.9327972,176.26953125,204.1015625,25.390625,79.58984375,0.0,0,0
