timestamp,lsl_timestamp,TP9,AF7,AF8,TP10,Right AUX,keypress_A,keypress_B
1772272456.977242,1772272456.8761194,-248.046875,-28.3203125,-196.77734375,-1000.0,0.0,0,0
1772272456.977385,1772272456.8800144,-276.3671875,-6.34765625,-32.2265625,-807.6171875,0.0,0,0
1772272456.977416,1772272456.8839095,96.6796875,12.20703125,185.05859375,395.01953125,0.0,0,0
1772272456.977442,1772272456.8878045,338.8671875,12.20703125,118.65234375,-841.30859375,0.0,0,0
1772272456.9774652,1772272456.8916998,110.83984375,-18.5546875,-152.83203125,226.5625,0.0,0,0
1772272456.977489,1772272456.8955948,-243.65234375,-44.43359375,-218.26171875,-1000.0,0.0,0,0
1772272456.977512,1772272456.8994899,-314.453125,-42.48046875,-49.8046875,-929.6875,0.0,0,0
1772272456.977535,1772272456.9033852,41.50390625,-2.9296875,164.55078125,219.23828125,0.0,0,0
1772272456.977563,1772272456.9072802,346.19140625,3.41796875,139.16015625,-849.12109375,0.0,0,0
1772272456.977588,1772272456.9111753,183.10546875,-25.87890625,-81.54296875,424.31640625,0.0,0,0
1772272456.977612,1772272456.9150705,-188.4765625,-38.57421875,-188.96484375,-863.28125,0.0,0,0
1772272456.9776351,1772272456.9189656,-330.56640625,-34.1796875,-73.2421875,-1000.0,0.0,0,0
1772272456.9931898,1772272456.9230115,-26.3671875,-15.13671875,146.484375,80.56640625,0.0,0,0
1772272456.9932532,1772272456.9269066,308.10546875,-10.25390625,162.109375,-863.28125,0.0,0,0
1772272456.9932868,1772272456.9308019,227.5390625,-38.0859375,-53.7109375,544.43359375,0.0,0,0
1772272456.993322,1772272456.934697,-157.71484375,-44.43359375,-223.14453125,-717.7734375,0.0,0,0
1772272456.993355,1772272456.9385922,-367.1875,-42.48046875,-137.20703125,-1000.0,0.0,0,0
1772272456.993385,1772272456.9424872,-89.35546875,-23.92578125,117.1875,-62.5,0.0,0,0
1772272456.993414,1772272456.9463823,288.57421875,2.9296875,183.10546875,-893.06640625,0.0,0,0
1772272456.9934442,1772272456.9502776,241.2109375,-22.94921875,-11.71875,660.15625,0.0,0,0
1772272456.993474,1772272456.9541726,-172.36328125,-53.22265625,-219.23828125,-568.84765625,0.0,0,0
1772272456.993505,1772272456.958068,-374.0234375,-67.87109375,-140.13671875,-1000.0,0.0,0,0
1772272456.9935338,1772272456.961963,-125.48828125,-44.43359375,83.984375,-221.6796875,0.0,0,0
1772272456.993563,1772272456.965858,236.328125,9.765625,158.69140625,-969.7265625,0.0,0,0
1772272457.039235,1772272456.9698896,287.109375,-12.6953125,16.6015625,819.82421875,0.0,0,0
1772272457.039343,1772272456.9737847,-84.9609375,-71.2890625,-206.0546875,-365.72265625,0.0,0,0
1772272457.039387,1772272456.97768,-353.515625,-45.41015625,-170.41015625,-1000.0,0.0,0,0
1772272457.0394938,1772272456.981575,-151.85546875,-5.859375,41.50390625,-349.12109375,0.0,0,0
1772272457.03959,1772272456.9854703,233.88671875,-11.71875,146.97265625,937.01171875,0.0,0,0
1772272457.039635,1772272456.9893653,313.4765625,-34.66796875,40.52734375,942.3828125,0.0,0,0
1772272457.039674,1772272456.9932606,-21.484375,-36.1328125,-198.73046875,-210.44921875,0.0,0,0
1772272457.0398989,1772272456.9971557,-322.75390625,-29.296875,-216.30859375,-1000.0,0.0,0,0
1772272457.039989,1772272457.001051,-200.1953125,-44.43359375,5.859375,-489.74609375,0.0,0,0
1772272457.0400581,1772272457.004946,182.6171875,-24.4140625,141.6015625,792.96875,0.0,0,0
1772272457.0401258,1772272457.0088413,303.7109375,4.39453125,58.10546875,-954.58984375,0.0,0,0
1772272457.040195,1772272457.0127363,6.8359375,-24.90234375,-164.55078125,-70.3125,0.0,0,0
1772272457.083495,1772272457.0167572,-295.8984375,-46.38671875,-197.265625,-1000.0,0.0,0,0
1772272457.083633,1772272457.0206525,-251.953125,-39.0625,-6.34765625,-644.53125,0.0,0,0
1772272457.083667,1772272457.0245476,114.2578125,-15.13671875,143.5546875,615.72265625,0.0,0,0
1772272457.083698,1772272457.0284429,298.828125,-17.08984375,50.29296875,-891.11328125,0.0,0,0
1772272457.083749,1772272457.032338,34.66796875,-40.0390625,-177.734375,38.57421875,0.0,0,0
1772272457.08378,1772272457.0362332,-300.78125,-49.8046875,-205.56640625,-1000.0,0.0,0,0
1772272457.083841,1772272457.0401285,-279.78515625,-41.50390625,-25.87890625,-749.0234375,0.0,0,0
1772272457.08387,1772272457.0440235,93.75,-16.11328125,170.41015625,459.9609375,0.0,0,0
1772272457.083898,1772272457.0479188,287.109375,-44.921875,87.890625,-853.02734375,0.0,0,0
1772272457.083928,1772272457.0518138,85.9375,-60.05859375,-133.30078125,204.1015625,0.0,0,0
1772272457.083956,1772272457.0557091,-247.55859375,-45.41015625,-187.5,-1000.0,0.0,0,0
1772272457.083984,1772272457.0596044,-299.31640625,-38.57421875,-47.36328125,-858.3984375,0.0,0,0
1772272457.1284711,1772272457.063614,51.26953125,-2.9296875,163.0859375,324.70703125,0.0,0,0
1772272457.128553,1772272457.067509,309.08203125,-0.48828125,135.25390625,-844.7265625,0.0,0,0
1772272457.128584,1772272457.0714042,144.04296875,-40.0390625,-80.56640625,343.75,0.0,0,0
1772272457.128609,1772272457.0752995,-231.4453125,-59.08203125,-195.80078125,-946.77734375,0.0,0,0
1772272457.128635,1772272457.0791945,-327.1484375,-32.2265625,-102.5390625,-984.375,0.0,0,0
1772272457.12866,1772272457.0830898,8.7890625,-5.37109375,140.13671875,169.43359375,0.0,0,0
1772272457.128684,1772272457.086985,313.96484375,-1.46484375,154.296875,-840.8203125,0.0,0,0
1772272457.1287072,1772272457.0908802,151.3671875,-33.203125,-110.83984375,407.2265625,0.0,0,0
1772272457.1287308,1772272457.0947754,-250.48828125,-62.5,-265.13671875,-879.39453125,0.0,0,0
1772272457.1287549,1772272457.0986707,-360.83984375,-42.48046875,-120.60546875,-1000.0,0.0,0,0
1772272457.128778,1772272457.1025658,-61.5234375,-17.578125,127.44140625,21.484375,0.0,0,0
1772272457.128801,1772272457.106461,266.11328125,-1.953125,155.2734375,-876.46484375,0.0,0,0
1772272457.174218,1772272457.1104572,199.70703125,-23.92578125,-62.01171875,587.40234375,0.0,0,0
1772272457.174349,1772272457.1143525,-199.70703125,-45.41015625,-238.76953125,-666.015625,0.0,0,0
1772272457.174408,1772272457.1182477,-372.55859375,-24.4140625,-141.6015625,-1000.0,0.0,0,0
1772272457.174463,1772272457.1221428,-87.890625,-7.32421875,91.796875,-128.90625,0.0,0,0
1772272457.174519,1772272457.126038,236.81640625,-6.8359375,166.50390625,-920.41015625,0.0,0,0
1772272457.174572,1772272457.1299334,208.49609375,-20.5078125,-9.765625,726.07421875,0.0,0,0
1772272457.174623,1772272457.1338286,-147.94921875,-45.41015625,-220.21484375,-481.93359375,0.0,0,0
1772272457.174666,1772272457.1377237,-379.8828125,-59.5703125,-168.9453125,-1000.0,0.0,0,0
1772272457.1747022,1772272457.141619,-144.53125,-43.45703125,67.87109375,-257.8125,0.0,0,0
1772272457.174741,1772272457.1455142,231.93359375,-35.15625,169.43359375,-992.1875,0.0,0,0
1772272457.174786,1772272457.1494095,285.15625,-26.3671875,29.296875,865.72265625,0.0,0,0
1772272457.1748428,1772272457.1533046,-94.23828125,-41.50390625,-203.61328125,-301.7578125,0.0,0,0
1772272457.222065,1772272457.1573002,-385.25390625,-50.29296875,-187.98828125,-1000.0,0.0,0,0
1772272457.222205,1772272457.1611953,-190.91796875,-11.71875,40.0390625,-394.04296875,0.0,0,0
1772272457.222263,1772272457.1650906,172.36328125,-9.765625,149.4140625,896.97265625,0.0,0,0
1772272457.222315,1772272457.1689858,263.18359375,-4.8828125,49.31640625,981.4453125,0.0,0,0
1772272457.222371,1772272457.1728811,-46.875,-46.875,-185.546875,-150.390625,0.0,0,0
1772272457.222421,1772272457.1767764,-360.3515625,-64.94140625,-194.3359375,-1000.0,0.0,0,0
1772272457.222471,1772272457.1806715,-235.83984375,-5.37109375,47.36328125,-497.55859375,0.0,0,0
1772272457.222524,1772272457.1845667,144.04296875,-8.7890625,141.6015625,789.55078125,0.0,0,0
1772272457.2225752,1772272457.188462,283.69140625,-18.06640625,38.0859375,-952.1484375,0.0,0,0
1772272457.222626,1772272457.1923573,3.41796875,-37.59765625,-181.640625,-61.03515625,0.0,0,0
1772272457.222676,1772272457.1962526,-331.54296875,-61.03515625,-230.46875,-1000.0,0.0,0,0
1772272457.2227242,1772272457.2001476,-256.8359375,-30.2734375,-21.484375,-653.80859375,0.0,0,0
1772272457.26468,1772272457.2041333,150.87890625,0.9765625,171.875,589.35546875,0.0,1,0
1772272457.2648032,1772272457.2080286,329.58984375,-5.859375,100.5859375,-876.46484375,0.0,0,0
1772272457.264831,1772272457.2119238,64.94140625,-32.71484375,-134.765625,100.5859375,0.0,0,0
1772272457.265306,1772272457.2158191,-278.80859375,-34.1796875,-215.8203125,-1000.0,0.0,0,0
1772272457.2653382,1772272457.2197142,-292.48046875,-10.25390625,-46.38671875,-788.57421875,0.0,0,0
1772272457.2653708,1772272457.2236094,80.078125,7.8125,181.15234375,412.59765625,0.0,0,0
1772272457.265405,1772272457.2275047,316.89453125,-2.44140625,110.83984375,-842.28515625,0.0,0,0
1772272457.265435,1772272457.2314,84.9609375,-30.76171875,-119.62890625,246.58203125,0.0,0,0
1772272457.265463,1772272457.2352953,-271.97265625,-51.26953125,-193.84765625,-1000.0,0.0,0,0
1772272457.2654898,1772272457.2391906,-313.96484375,-38.0859375,-57.12890625,-895.99609375,0.0,0,0
1772272457.2655191,1772272457.2430859,30.76171875,-1.46484375,170.41015625,272.94921875,0.0,0,0
1772272457.265547,1772272457.2469811,279.296875,6.8359375,151.3671875,-842.7734375,0.0,0,0
1772272457.3249679,1772272457.2509513,140.625,-6.8359375,-90.8203125,379.39453125,0.0,0,0
1772272457.325112,1772272457.2548466,-237.79296875,-50.29296875,-214.35546875,-910.15625,0.0,0,0
1772272457.325155,1772272457.2587419,-372.0703125,-53.7109375,-109.86328125,-1000.0,0.0,0,0
1772272457.325193,1772272457.2626371,-27.34375,-9.765625,130.859375,70.80078125,0.0,0,0
1772272457.325231,1772272457.2665324,296.875,6.34765625,155.2734375,-861.328125,0.0,0,0
1772272457.3252668,1772272457.2704277,170.41015625,-15.625,-41.9921875,513.18359375,0.0,0,0
1772272457.325305,1772272457.274323,-217.28515625,-39.0625,-186.03515625,-759.765625,0.0,0,0
1772272457.325343,1772272457.2782183,-354.4921875,-33.69140625,-121.09375,-1000.0,0.0,0,0
1772272457.325381,1772272457.2821136,-51.7578125,-10.25390625,121.09375,-31.25,0.0,0,0
1772272457.325417,1772272457.2860088,301.26953125,6.34765625,171.38671875,-891.6015625,0.0,0,0
1772272457.3254552,1772272457.2899039,254.8828125,-24.90234375,-32.71484375,646.484375,0.0,0,0
1772272457.325491,1772272457.2937992,-156.25,-63.4765625,-222.65625,-581.0546875,0.0,0,0
1772272457.37027,1772272457.2978444,-357.421875,-61.03515625,-159.66796875,-1000.0,0.0,0,0
1772272457.370363,1772272457.3017397,-108.88671875,-21.484375,80.078125,-176.26953125,0.0,0,0
1772272457.3704052,1772272457.305635,226.07421875,-2.9296875,169.43359375,-934.5703125,0.0,0,0
1772272457.370444,1772272457.3095303,261.23046875,-3.41796875,7.32421875,759.27734375,0.0,0,0
1772272457.370482,1772272457.3134255,-98.6328125,-16.6015625,-204.58984375,-441.89453125,0.0,0,0
1772272457.370519,1772272457.3173208,-346.19140625,-27.34375,-153.80859375,-1000.0,0.0,0,0
1772272457.3705559,1772272457.321216,-137.6953125,-6.34765625,72.265625,-299.31640625,0.0,0,0
1772272457.370593,1772272457.3251114,258.30078125,33.69140625,166.50390625,987.79296875,0.0,0,0
1772272457.3706298,1772272457.3290067,292.48046875,-3.41796875,7.8125,873.046875,0.0,0,0
1772272457.370667,1772272457.332902,-105.95703125,-72.75390625,-232.91015625,-308.59375,0.0,0,0
1772272457.3707101,1772272457.3367972,-363.76953125,-55.17578125,-195.80078125,-1000.0,0.0,0,0
1772272457.370784,1772272457.3406928,-187.01171875,-9.27734375,38.0859375,-414.0625,0.0,0,0
1772272457.414558,1772272457.344728,174.31640625,-1.46484375,145.01953125,870.60546875,0.0,0,0
1772272457.414699,1772272457.3486233,275.87890625,-19.53125,32.2265625,996.58203125,0.0,0,0
1772272457.414742,1772272457.3525186,-20.99609375,-36.62109375,-192.3828125,-139.6484375,0.0,0,0
1772272457.41478,1772272457.3564138,-323.2421875,-49.31640625,-208.49609375,-1000.0,0.0,0,0
1772272457.414817,1772272457.3603091,-265.625,-27.34375,-3.90625,-586.9140625,0.0,0,0
1772272457.414853,1772272457.3642046,112.3046875,5.859375,143.06640625,669.43359375,0.0,0,0
1772272457.414923,1772272457.3681,313.96484375,-7.32421875,74.21875,-893.5546875,0.0,0,0
1772272457.415044,1772272457.3719952,44.921875,-18.5546875,-149.4140625,56.640625,0.0,0,0
1772272457.415139,1772272457.3758905,-318.84765625,-48.33984375,-236.328125,-1000.0,0.0,0,0
1772272457.4151812,1772272457.3797858,-288.0859375,-61.03515625,-30.76171875,-687.01171875,0.0,0,0
1772272457.41522,1772272457.383681,104.98046875,-5.859375,178.7109375,546.38671875,0.0,0,0
1772272457.4152582,1772272457.3875763,315.91796875,5.37109375,108.3984375,-859.86328125,0.0,0,0
1772272457.458969,1772272457.3916037,59.08203125,-31.73828125,-145.01953125,148.92578125,0.0,0,0
1772272457.459072,1772272457.395499,-296.875,-33.203125,-215.33203125,-1000.0,0.0,0,0
1772272457.4590971,1772272457.3993943,-295.8984375,-6.34765625,-11.23046875,-780.76171875,0.0,0,0
1772272457.459122,1772272457.4032896,53.7109375,1.46484375,188.4765625,417.48046875,0.0,0,0
1772272457.459153,1772272457.4071848,297.36328125,5.859375,147.4609375,-853.515625,0.0,0,0
1772272457.4591758,1772272457.4110804,130.37109375,-17.08984375,-71.2890625,371.58203125,0.0,0,0
1772272457.459201,1772272457.4149756,-249.0234375,-46.875,-201.171875,-926.7578125,0.0,0,0
1772272457.4592252,1772272457.418871,-351.07421875,-30.2734375,-104.98046875,-974.12109375,0.0,0,0
1772272457.459255,1772272457.4227662,10.25390625,-6.34765625,145.99609375,200.1953125,0.0,0,0
1772272457.4592798,1772272457.4266617,303.7109375,-3.41796875,157.2265625,-845.703125,0.0,0,0
1772272457.4593039,1772272457.430557,163.0859375,-20.01953125,-82.03125,413.0859375,0.0,0,0
1772272457.459327,1772272457.4344523,-215.33203125,-34.1796875,-207.03125,-860.83984375,0.0,0,0
1772272457.503971,1772272457.4384613,-354.98046875,-37.59765625,-119.62890625,-1000.0,0.0,0,0
1772272457.504111,1772272457.4423566,-69.3359375,-38.57421875,99.609375,16.6015625,0.0,0,0
1772272457.5041542,1772272457.446252,251.46484375,-31.25,158.69140625,-877.44140625,0.0,0,0
1772272457.504192,1772272457.4501474,198.73046875,-19.04296875,-38.57421875,588.37890625,0.0,0,0
1772272457.504231,1772272457.4540427,-192.87109375,-11.71875,-205.56640625,-664.55078125,0.0,0,0
1772272457.50427,1772272457.4579382,-371.09375,-8.30078125,-110.3515625,-1000.0,0.0,0,0
1772272457.504308,1772272457.4618335,-101.07421875,4.8828125,131.34765625,-74.70703125,0.0,0,0
1772272457.5043461,1772272457.4657288,237.3046875,-3.90625,149.4140625,-902.83203125,0.0,0,0
1772272457.5043929,1772272457.469624,201.66015625,-37.59765625,-42.96875,678.7109375,0.0,0,0
1772272457.5044322,1772272457.4735196,-183.59375,-52.734375,-219.23828125,-540.0390625,0.0,0,0
1772272457.504477,1772272457.4774148,-361.81640625,-45.8984375,-160.64453125,-1000.0,0.0,0,0
1772272457.504519,1772272457.4813101,-133.7890625,-14.16015625,85.44921875,-213.37890625,0.0,0,0
1772272457.6067479,1772272457.4853954,204.58984375,-7.32421875,146.97265625,-960.44921875,0.0,0,0
1772272457.6069062,1772272457.489291,209.9609375,-40.52734375,-19.04296875,781.73828125,0.0,0,0
1772272457.6069639,1772272457.4931862,-143.06640625,-51.26953125,-222.65625,-410.15625,0.0,0,0
1772272457.6070158,1772272457.4970815,-348.6328125,-36.62109375,-163.0859375,-1000.0,0.0,0,0
1772272457.6070678,1772272457.500977,-170.41015625,-23.4375,65.4296875,-364.74609375,0.0,0,0
1772272457.6071181,1772272457.5048723,179.6875,-2.44140625,154.78515625,936.5234375,0.0,0,0
1772272457.607169,1772272457.5087678,251.953125,-29.78515625,4.8828125,895.5078125,0.0,0,0
1772272457.607219,1772272457.5126631,-90.8203125,-62.5,-232.421875,-278.3203125,0.0,0,0
1772272457.607272,1772272457.5165584,-355.46875,-52.24609375,-210.9375,-1000.0,0.0,0,0
1772272457.607323,1772272457.520454,-217.28515625,-22.4609375,27.83203125,-482.91015625,0.0,0,0
1772272457.6073742,1772272457.5243492,163.0859375,8.30078125,165.52734375,802.24609375,0.0,0,0
1772272457.607425,1772272457.5282447,297.36328125,-9.765625,46.38671875,-959.9609375,0.0,0,0
1772272457.622813,1772272457.5323217,-11.71875,-43.45703125,-176.7578125,-67.87109375,0.0,0,0
1772272457.622921,1772272457.536217,-327.63671875,-48.33984375,-209.47265625,-1000.0,0.0,0,0
1772272457.622965,1772272457.5401125,-241.2109375,-18.5546875,-4.39453125,-611.328125,0.0,0,0
1772272457.622998,1772272457.5440078,130.37109375,6.34765625,165.52734375,648.4375,0.0,0,0
1772272457.623028,1772272457.5479033,300.78125,-8.7890625,63.4765625,-894.04296875,0.0,0,0
1772272457.6230578,1772272457.5517986,35.64453125,-26.3671875,-142.08984375,65.4296875,0.0,0,0
1772272457.623272,1772272457.555694,-297.36328125,-38.0859375,-182.12890625,-1000.0,0.0,0,0
1772272457.623304,1772272457.5595894,-282.71484375,-43.45703125,-35.15625,-755.859375,0.0,0,0
1772272457.6233332,1772272457.563485,76.66015625,-26.85546875,140.625,447.265625,0.0,0,0
1772272457.623362,1772272457.5673802,316.89453125,-20.99609375,89.35546875,-849.12109375,0.0,0,0
1772272457.623391,1772272457.5712757,86.9140625,-52.24609375,-141.6015625,201.66015625,0.0,0,0
1772272457.62342,1772272457.5751712,-254.8828125,-59.08203125,-208.984375,-1000.0,0.0,0,0
1772272457.638092,1772272457.579151,-265.625,-12.6953125,-48.33984375,-855.95703125,0.0,0,0
1772272457.638158,1772272457.5830464,62.01171875,18.5546875,175.78125,324.70703125,0.0,0,0
1772272457.6381812,1772272457.5869417,310.05859375,8.30078125,158.69140625,-846.6796875,0.0,0,0
1772272457.6382022,1772272457.5908372,134.765625,-29.78515625,-83.49609375,362.79296875,0.0,0,0
1772272457.638222,1772272457.5947325,-251.953125,-52.24609375,-200.1953125,-939.94140625,0.0,0,0
1772272457.638241,1772272457.598628,-323.73046875,-43.9453125,-68.359375,-969.23828125,0.0,0,0
1772272457.638262,1772272457.6025236,7.32421875,-22.94921875,150.87890625,204.1015625,0.0,0,0
1772272457.638282,1772272457.6064188,283.69140625,-25.390625,126.953125,-856.4453125,0.0,0,0
1772272457.638301,1772272457.6103144,172.8515625,-38.57421875,-83.49609375,479.98046875,0.0,0,0
1772272457.6383202,1772272457.6142097,-202.1484375,-48.33984375,-197.265625,-795.41015625,0.0,0,0
1772272457.638357,1772272457.6181052,-341.30859375,-36.1328125,-90.33203125,-1000.0,0.0,0,0
1772272457.638379,1772272457.6220007,-63.96484375,0.9765625,119.140625,0.48828125,0.0,0,0
1772272457.6972852,1772272457.6259632,244.62890625,-8.30078125,156.73828125,-881.34765625,0.0,0,0
1772272457.697359,1772272457.6298587,186.5234375,-56.15234375,-44.43359375,591.30859375,0.0,0,0
1772272457.697382,1772272457.633754,-174.31640625,-66.40625,-224.609375,-662.109375,0.0,0,0
1772272457.697402,1772272457.6376495,-351.5625,-35.15625,-124.51171875,-1000.0,0.0,0,0
1772272457.697422,1772272457.6415448,-94.7265625,-3.90625,98.6328125,-133.30078125,0.0,0,0
1772272457.697441,1772272457.6454403,281.25,-0.48828125,170.8984375,-921.875,0.0,0,0
1772272457.697461,1772272457.6493359,270.99609375,-32.71484375,-0.9765625,721.19140625,0.0,0,0
1772272457.6974819,1772272457.6532311,-113.76953125,-34.66796875,-224.12109375,-488.76953125,0.0,0,0
1772272457.697502,1772272457.6571267,-343.75,-26.3671875,-162.109375,-1000.0,0.0,0,0
1772272457.69752,1772272457.6610222,-160.15625,-35.64453125,60.05859375,-282.71484375,0.0,0,0
1772272457.697539,1772272457.6649175,185.546875,-19.53125,149.4140625,990.72265625,0.0,0,0
1772272457.697558,1772272457.668813,252.44140625,-27.34375,35.15625,862.79296875,0.0,0,0
1772272457.7434042,1772272457.672848,-106.4453125,-56.640625,-187.5,-308.10546875,0.0,0,0
1772272457.7434628,1772272457.6767433,-380.37109375,-53.22265625,-181.15234375,-1000.0,0.0,0,0
1772272457.7434912,1772272457.6806388,-182.6171875,-21.484375,45.41015625,-394.04296875,0.0,0,0
1772272457.743517,1772272457.6845343,196.2890625,-7.8125,157.2265625,898.92578125,0.0,0,0
1772272457.743542,1772272457.6884298,279.78515625,-12.6953125,26.3671875,957.51953125,0.0,0,0
1772272457.743565,1772272457.692325,-52.734375,-34.66796875,-193.359375,-187.98828125,0.0,0,0
1772272457.7435908,1772272457.6962206,-338.8671875,-43.9453125,-208.984375,-1000.0,0.0,0,0
1772272457.743614,1772272457.7001162,-225.5859375,-17.578125,-10.25390625,-556.15234375,0.0,0,0
1772272457.743637,1772272457.7040114,140.625,-11.23046875,151.85546875,719.7265625,0.0,0,0
1772272457.74366,1772272457.707907,302.734375,-31.25,68.359375,-939.453125,0.0,0,0
1772272457.743683,1772272457.7118025,1.953125,-57.12890625,-157.2265625,-42.48046875,0.0,0,0
1772272457.743737,1772272457.715698,-330.56640625,-52.24609375,-188.4765625,-1000.0,0.0,0,0
1772272457.788317,1772272457.7197227,-235.3515625,-12.20703125,-5.859375,-655.76171875,0.0,0,0
1772272457.788419,1772272457.7236183,131.8359375,4.39453125,149.4140625,579.58984375,0.0,0,0
1772272457.788464,1772272457.7275138,300.29296875,-3.41796875,68.84765625,-872.0703125,0.0,0,0
1772272457.7885041,1772272457.7314093,80.078125,-20.99609375,-139.6484375,139.16015625,0.0,0,0
1772272457.788542,1772272457.7353048,-271.97265625,-39.55078125,-196.77734375,-1000.0,0.0,0,0
1772272457.7885818,1772272457.7392,-280.2734375,-24.90234375,-19.53125,-764.6484375,0.0,0,0
1772272457.788619,1772272457.7430956,89.35546875,-12.20703125,167.48046875,454.1015625,0.0,0,0
1772272457.7886562,1772272457.7469912,310.05859375,6.8359375,94.7265625,-849.12109375,0.0,0,0
1772272457.788694,1772272457.7508867,114.2578125,-13.671875,-121.58203125,219.23828125,0.0,0,0
1772272457.7887318,1772272457.7547822,-261.71875,-70.80078125,-198.2421875,-1000.0,0.0,0,0
1772272457.7887669,1772272457.7586775,-338.37890625,-52.24609375,-49.8046875,-889.6484375,0.0,0,0
1772272457.788828,1772272457.762573,24.4140625,-12.20703125,160.15625,275.390625,0.0,0,0
1772272457.878766,1772272457.766843,297.36328125,-1.46484375,128.90625,-849.609375,0.0,0,0
1772272457.8788989,1772272457.7707386,136.23046875,-19.53125,-91.30859375,401.3671875,0.0,0,0
1772272457.878957,1772272457.7746341,-225.5859375,-37.59765625,-212.40234375,-882.8125,0.0,0,0
1772272457.87901,1772272457.7785296,-343.75,-43.45703125,-119.140625,-1000.0,0.0,0,0
1772272457.879097,1772272457.7824252,-31.73828125,-21.484375,117.67578125,83.49609375,0.0,0,0
1772272457.879191,1772272457.7863207,279.78515625,-1.953125,156.73828125,-860.3515625,0.0,0,0
1772272457.8792489,1772272457.7902162,191.89453125,-19.53125,-60.546875,508.7890625,0.0,0,0
1772272457.8793018,1772272457.7941117,-174.31640625,-33.69140625,-204.58984375,-749.51171875,0.0,0,0
1772272457.879355,1772272457.7980072,-351.07421875,-49.8046875,-134.27734375,-1000.0,0.0,0,0
1772272457.8794339,1772272457.8019028,-103.02734375,-25.87890625,103.02734375,-103.02734375,0.0,0,0
1772272457.879532,1772272457.8057983,242.67578125,-0.48828125,165.0390625,-902.83203125,0.0,0,0
1772272457.879613,1772272457.809694,218.75,-33.203125,-33.203125,654.296875,0.0,0,0
1772272457.8922508,1772272457.8137174,-181.15234375,-57.12890625,-218.26171875,-583.0078125,0.0,0,0
1772272457.8923242,1772272457.817613,-384.27734375,-46.38671875,-180.6640625,-1000.0,0.0,0,0
1772272457.892375,1772272457.8215086,-133.7890625,-22.4609375,50.29296875,-206.0546875,0.0,0,0
1772272457.892436,1772272457.8254042,243.65234375,-3.41796875,130.37109375,-951.171875,0.0,0,0
1772272457.892489,1772272457.8292997,269.53125,-5.859375,-19.04296875,774.90234375,0.0,0,0
1772272457.89254,1772272457.8331952,-95.21484375,-40.0390625,-205.078125,-412.109375,0.0,0,0
1772272457.8925922,1772272457.8370907,-352.5390625,-51.7578125,-176.26953125,-1000.0,0.0,0,0
1772272457.892642,1772272457.8409863,-181.640625,-28.3203125,45.8984375,-336.42578125,0.0,0,0
1772272457.892693,1772272457.844882,190.4296875,-12.6953125,139.6484375,964.84375,0.0,0,0
1772272457.892752,1772272457.8487775,248.53515625,-20.01953125,5.37109375,879.8828125,0.0,0,0
1772272457.892803,1772272457.852673,-105.46875,-40.52734375,-213.8671875,-303.22265625,0.0,0,0
1772272457.8928819,1772272457.8565686,-358.88671875,-41.50390625,-197.265625,-1000.0,0.0,0,0
1772272457.923837,1772272457.8605616,-201.66015625,-21.484375,36.62109375,-466.796875,0.0,0,0
1772272457.9239402,1772272457.8644574,151.3671875,-4.39453125,156.25,815.4296875,0.0,0,0
1772272457.92403,1772272457.868353,266.6015625,-4.39453125,59.5703125,-984.86328125,0.0,0,0
1772272457.9240909,1772272457.8722484,-29.78515625,-19.04296875,-153.3203125,-111.81640625,0.0,0,0
1772272457.924143,1772272457.876144,-337.40234375,-23.4375,-192.87109375,-1000.0,0.0,0,0
1772272457.924196,1772272457.8800395,-246.09375,-22.94921875,21.484375,-551.26953125,0.0,0,0
1772272457.924246,1772272457.8839352,115.234375,-16.11328125,145.01953125,718.26171875,0.0,0,0
1772272457.924296,1772272457.8878307,270.99609375,-9.27734375,43.9453125,-905.76171875,0.0,0,0
1772272457.924347,1772272457.8917263,31.73828125,-19.04296875,-129.8828125,50.29296875,0.0,0,0
1772272457.924642,1772272457.8956218,-308.10546875,-44.921875,-185.546875,-1000.0,0.0,0,0
1772272457.924696,1772272457.8995175,-294.43359375,-39.0625,-30.76171875,-706.0546875,0.0,0,0
1772272457.92475,1772272457.903413,71.2890625,1.46484375,173.33984375,527.83203125,0.0,0,0
1772272457.969449,1772272457.907402,300.29296875,-5.37109375,85.9375,-872.0703125,0.0,0,0
1772272457.969544,1772272457.9112976,67.87109375,-37.59765625,-139.6484375,129.39453125,0.0,0,0
1772272457.969582,1772272457.9151933,-304.6875,-53.22265625,-198.73046875,-1000.0,0.0,0,0
1772272457.9696221,1772272457.9190888,-334.9609375,-54.6875,-66.40625,-838.8671875,0.0,0,0
1772272457.9696589,1772272457.9229844,29.296875,-26.3671875,160.15625,330.078125,0.0,0,0
1772272457.969696,1772272457.9268801,302.734375,2.9296875,150.390625,-843.75,0.0,0,0
1772272457.969734,1772272457.9307756,131.8359375,-24.4140625,-83.984375,310.546875,0.0,0,0
1772272457.969771,1772272457.9346712,-247.55859375,-65.4296875,-208.0078125,-964.84375,0.0,0,0
1772272457.9698079,1772272457.9385667,-351.5625,-53.7109375,-100.5859375,-991.69921875,0.0,0,0
1772272457.969845,1772272457.9424624,-20.01953125,-23.4375,137.20703125,140.625,0.0,0,0
1772272457.969881,1772272457.946358,291.50390625,-3.41796875,156.73828125,-856.4453125,0.0,0,0
1772272457.969918,1772272457.9502535,172.8515625,-18.06640625,-64.453125,472.16796875,0.0,0,0
1772272458.014988,1772272457.9542356,-212.40234375,-43.9453125,-226.07421875,-810.546875,0.0,0,0
1772272458.0151198,1772272457.9581313,-349.12109375,-42.48046875,-118.1640625,-1000.0,0.0,0,0
1772272458.015166,1772272457.9620268,-28.3203125,-3.90625,148.4375,49.8046875,0.0,0,0
1772272458.0152378,1772272457.9659224,289.0625,5.37109375,168.9453125,-867.1875,0.0,0,0
1772272458.0152981,1772272457.969818,190.91796875,-36.62109375,-61.03515625,558.59375,0.0,0,0
1772272458.01534,1772272457.9737136,-169.921875,-57.12890625,-209.47265625,-700.1953125,0.0,0,0
1772272458.015379,1772272457.9776092,-342.7734375,-59.08203125,-123.53515625,-1000.0,0.0,0,0
1772272458.0154188,1772272457.981505,-79.58984375,-32.71484375,94.23828125,-99.12109375,0.0,0,0
1772272458.015477,1772272457.9854004,269.04296875,-0.9765625,154.296875,-907.2265625,0.0,0,0
1772272458.015518,1772272457.989296,233.88671875,-30.2734375,-31.73828125,668.9453125,0.0,0,0
1772272458.015558,1772272457.9931917,-127.9296875,-43.9453125,-223.14453125,-548.33984375,0.0,0,0
1772272458.015595,1772272457.9970872,-333.49609375,-49.8046875,-177.24609375,-1000.0,0.0,0,0
1772272458.074408,1772272458.0010543,-131.8359375,-34.66796875,48.33984375,-260.7421875,0.0,0,0
1772272458.074527,1772272458.00495,231.4453125,0.9765625,152.83203125,-991.69921875,0.0,0,0
1772272458.074571,1772272458.0088456,298.33984375,-19.53125,21.97265625,843.75,0.0,0,0
1772272458.07461,1772272458.012741,-69.3359375,-66.89453125,-209.9609375,-337.40234375,0.0,0,0
1772272458.0746481,1772272458.0166368,-351.5625,-63.4765625,-206.0546875,-1000.0,0.0,0,0
1772272458.074684,1772272458.0205324,-173.33984375,-11.23046875,54.6875,-343.26171875,0.0,0,0
1772272458.074733,1772272458.0244281,205.078125,1.953125,165.52734375,949.21875,0.0,0,0
1772272458.0747688,1772272458.0283237,310.05859375,-26.85546875,13.18359375,930.17578125,0.0,0,0
1772272458.074813,1772272458.0322192,-2.9296875,-38.57421875,-192.87109375,-225.09765625,0.0,0,0
1772272458.074851,1772272458.036115,-317.87109375,-40.0390625,-187.01171875,-1000.0,0.0,0,0
1772272458.074899,1772272458.0400105,-222.16796875,-29.78515625,8.7890625,-513.671875,0.0,0,0
1772272458.074938,1772272458.0439062,166.015625,-2.9296875,149.4140625,766.11328125,0.0,0,0
1772272458.119306,1772272458.047947,307.12890625,-7.8125,55.6640625,-955.078125,0.0,0,0
1772272458.119424,1772272458.0518427,18.06640625,-37.109375,-182.12890625,-72.75390625,0.0,0,0
1772272458.119466,1772272458.0557382,-329.1015625,-53.22265625,-221.6796875,-1000.0,0.0,0,0
1772272458.119504,1772272458.059634,-279.78515625,-36.1328125,-39.55078125,-642.08984375,0.0,0,0
1772272458.119543,1772272458.0635295,127.44140625,-8.30078125,131.34765625,594.7265625,0.0,0,0
1772272458.1195798,1772272458.0674253,310.05859375,-11.71875,74.70703125,-888.18359375,0.0,0,0
1772272458.119618,1772272458.0713208,47.36328125,-41.015625,-131.8359375,72.75390625,0.0,0,0
1772272458.119654,1772272458.0752165,-292.48046875,-56.15234375,-213.37890625,-1000.0,0.0,0,0
1772272458.11969,1772272458.079112,-301.7578125,-57.12890625,-47.36328125,-770.99609375,0.0,0,0
1772272458.1197271,1772272458.0830078,64.94140625,-24.4140625,163.0859375,433.10546875,0.0,0,0
1772272458.1197639,1772272458.0869033,316.40625,-5.859375,97.65625,-849.12109375,0.0,0,0
1772272458.1198,1772272458.090799,88.37890625,-31.73828125,-138.671875,190.4296875,0.0,0,0
1772272458.1788428,1772272458.0948296,-263.18359375,-36.1328125,-224.609375,-1000.0,0.0,0,0
1772272458.178894,1772272458.098725,-306.640625,-45.41015625,-72.265625,-881.8359375,0.0,0,0
1772272458.1789088,1772272458.1026208,27.34375,-17.578125,147.4609375,279.296875,0.0,0,0
1772272458.178921,1772272458.1065166,310.546875,19.04296875,125.9765625,-848.6328125,0.0,0,0
1772272458.178968,1772272458.1104121,127.44140625,-27.34375,-101.07421875,370.60546875,0.0,0,0
1772272458.178983,1772272458.1143079,-238.28125,-64.94140625,-190.4296875,-918.45703125,0.0,0,0
1772272458.1790469,1772272458.1182034,-329.1015625,-45.41015625,-79.1015625,-1000.0,0.0,0,0
1772272458.179075,1772272458.1220992,-18.5546875,-19.04296875,121.09375,155.2734375,0.0,0,0
1772272458.1790888,1772272458.1259947,304.6875,-27.34375,126.953125,-849.12109375,0.0,0,0
1772272458.179104,1772272458.1298904,158.69140625,-55.6640625,-101.07421875,452.63671875,0.0,0,0
1772272458.179115,1772272458.1337862,-211.9140625,-39.0625,-210.44921875,-826.66015625,0.0,0,0
1772272458.179141,1772272458.1376817,-329.1015625,-18.06640625,-79.58984375,-1000.0,0.0,0,0
1772272458.209087,1772272458.1417036,-59.5703125,-9.765625,126.953125,20.5078125,0.0,0,0
1772272458.2091148,1772272458.1455994,243.1640625,-24.4140625,146.484375,-890.13671875,0.0,0,0
1772272458.209126,1772272458.149495,207.03125,-38.57421875,-39.0625,639.16015625,0.0,0,0
1772272458.209136,1772272458.1533906,-165.52734375,-53.22265625,-204.58984375,-592.7734375,0.0,0,0
1772272458.209145,1772272458.1572864,-394.04296875,-60.05859375,-141.11328125,-1000.0,0.0,0,0
1772272458.2091541,1772272458.161182,-131.8359375,-21.97265625,97.16796875,-119.62890625,0.0,0,0
1772272458.2091641,1772272458.1650777,243.65234375,5.37109375,135.7421875,-920.8984375,0.0,0,0
1772272458.209173,1772272458.1689734,242.67578125,-9.765625,-37.109375,719.7265625,0.0,0,0
1772272458.2091808,1772272458.172869,-105.95703125,-31.73828125,-203.61328125,-468.75,0.0,0,0
1772272458.20919,1772272458.1767647,-341.30859375,-33.203125,-161.62109375,-1000.0,0.0,0,0
1772272458.209207,1772272458.1806605,-154.78515625,-20.99609375,58.59375,-294.921875,0.0,0,0
1772272458.209216,1772272458.184556,202.63671875,-11.71875,159.66796875,989.2578125,0.0,0,0
1772272458.252466,1772272458.1885622,264.16015625,-29.296875,7.32421875,858.88671875,0.0,0,0
1772272458.252497,1772272458.192458,-74.70703125,-61.5234375,-220.21484375,-322.265625,0.0,0,0
1772272458.252508,1772272458.1963534,-350.5859375,-63.4765625,-199.21875,-1000.0,0.0,0,0
1772272458.2525172,1772272458.2002492,-198.2421875,-38.57421875,32.71484375,-435.546875,0.0,0,0
1772272458.252525,1772272458.204145,184.08203125,-12.6953125,147.4609375,852.05078125,0.0,0,0
1772272458.252534,1772272458.2080405,307.12890625,1.46484375,59.08203125,993.1640625,0.0,0,0
1772272458.252542,1772272458.2119362,-7.8125,-31.73828125,-147.94921875,-137.6953125,0.0,0,0
1772272458.2525508,1772272458.215832,-356.93359375,-69.3359375,-220.703125,-1000.0,0.0,0,0
1772272458.2525592,1772272458.2197278,-239.74609375,-43.9453125,-25.390625,-577.63671875,0.0,0,0
1772272458.252567,1772272458.2236233,167.48046875,-7.32421875,151.85546875,693.84765625,0.0,0,0
1772272458.2526011,1772272458.227519,312.98828125,-13.671875,66.89453125,-930.17578125,0.0,0,0
1772272458.2526112,1772272458.2314148,38.0859375,-42.48046875,-150.390625,-29.296875,0.0,0,0
1772272458.298134,1772272458.2354136,-296.38671875,-34.1796875,-193.359375,-1000.0,0.0,0,0
1772272458.298229,1772272458.2393093,-269.04296875,-16.6015625,4.39453125,-643.06640625,0.0,0,0
1772272458.29824,1772272458.243205,89.35546875,-12.20703125,183.10546875,593.75,0.0,0,0
1772272458.29825,1772272458.2471006,285.64453125,-13.18359375,89.84375,-872.0703125,0.0,0,0
1772272458.2982578,1772272458.2509964,50.78125,-37.59765625,-146.484375,121.09375,0.0,0,0
1772272458.298267,1772272458.254892,-299.8046875,-61.5234375,-213.37890625,-1000.0,0.0,0,0
1772272458.298275,1772272458.2587879,-320.3125,-34.1796875,-45.8984375,-811.03515625,0.0,0,0
1772272458.298283,1772272458.2626836,30.76171875,-20.01953125,156.73828125,375.0,0.0,0,0
1772272458.298292,1772272458.2665792,276.85546875,-35.15625,109.86328125,-847.16796875,0.0,0,0
1772272458.2982998,1772272458.270475,105.46875,-24.4140625,-89.35546875,278.80859375,0.0,0,0
1772272458.298309,1772272458.2743707,-273.4375,-42.96875,-176.26953125,-993.65234375,0.0,0,0
1772272458.298317,1772272458.2782664,-351.5625,-46.38671875,-58.10546875,-935.546875,0.0,0,0
1772272458.344584,1772272458.2822511,-4.39453125,-27.34375,158.203125,226.07421875,0.0,0,0
1772272458.344613,1772272458.2861469,289.0625,-20.99609375,134.765625,-844.7265625,0.0,0,0
1772272458.344627,1772272458.2900424,136.23046875,-24.90234375,-85.44921875,395.99609375,0.0,0,0
1772272458.34464,1772272458.2939382,-240.234375,-36.62109375,-195.80078125,-887.20703125,0.0,0,0
1772272458.344652,1772272458.297834,-349.12109375,-39.0625,-98.14453125,-1000.0,0.0,0,0
1772272458.3446631,1772272458.3017297,-66.40625,1.46484375,125.9765625,66.40625,0.0,0,0
1772272458.344674,1772272458.3056254,251.953125,-5.859375,171.875,-863.76953125,0.0,0,0
1772272458.3446882,1772272458.3095212,181.15234375,-62.98828125,-54.6875,526.3671875,0.0,0,0
1772272458.3446999,1772272458.313417,-196.77734375,-58.10546875,-230.95703125,-741.2109375,0.0,0,0
1772272458.3447108,1772272458.3173125,-371.58203125,-38.0859375,-122.55859375,-1000.0,0.0,0,0
1772272458.344738,1772272458.3212082,-105.46875,-19.04296875,111.328125,-73.2421875,0.0,0,0
1772272458.344765,1772272458.325104,264.6484375,-3.41796875,145.99609375,-904.296875,0.0,0,0
1772272458.403786,1772272458.3290796,237.3046875,-7.8125,-39.55078125,679.6875,0.0,0,0
1772272458.403828,1772272458.3329754,-166.9921875,-40.0390625,-229.98046875,-547.8515625,0.0,0,0
1772272458.403844,1772272458.3368711,-372.55859375,-32.2265625,-142.578125,-1000.0,0.0,0,0
1772272458.403857,1772272458.340767,-125.0,-3.90625,108.3984375,-212.40234375,0.0,0,0
1772272458.4038699,1772272458.3446624,201.171875,-11.23046875,137.6953125,-966.796875,0.0,0,0
1772272458.403883,1772272458.3485582,210.9375,-30.76171875,-20.99609375,804.6875,0.0,0,0
1772272458.4038951,1772272458.352454,-140.13671875,-62.98828125,-212.890625,-380.859375,0.0,0,0
1772272458.403908,1772272458.3563497,-380.37109375,-68.84765625,-166.015625,-1000.0,0.0,0,0
1772272458.40392,1772272458.3602455,-195.3125,-26.3671875,64.94140625,-344.7265625,0.0,0,0
1772272458.4039319,1772272458.3641412,176.7578125,-9.765625,144.53125,945.80078125,0.0,0,0
1772272458.403945,1772272458.368037,260.7421875,-30.2734375,14.6484375,902.83203125,0.0,0,0
1772272458.403958,1772272458.3719327,-84.47265625,-32.2265625,-210.9375,-265.625,0.0,0,0
1772272458.476863,1772272458.376061,-363.28125,-35.15625,-195.80078125,-1000.0,0.0,0,0
1772272458.476911,1772272458.3799567,-224.12109375,-32.71484375,41.9921875,-481.4453125,0.0,0,0
1772272458.4769301,1772272458.3838525,140.13671875,-5.859375,151.85546875,809.08203125,0.0,0,0
1772272458.4769468,1772272458.3877482,245.60546875,-13.671875,43.9453125,-972.16796875,0.0,0,0
1772272458.476966,1772272458.391644,-52.734375,-50.78125,-174.31640625,-93.26171875,0.0,0,0
1772272458.476983,1772272458.3955398,-333.0078125,-47.36328125,-179.6875,-1000.0,0.0,0,0
1772272458.4769988,1772272458.3994355,-256.34765625,-17.08984375,26.85546875,-606.93359375,0.0,0,0
1772272458.477025,1772272458.4033315,104.98046875,-5.37109375,145.5078125,656.73828125,0.0,0,0
1772272458.477091,1772272458.4072273,278.80859375,-21.484375,61.03515625,-908.69140625,0.0,0,0
1772272458.477128,1772272458.411123,11.71875,-66.40625,-166.9921875,15.625,0.0,0,0
1772272458.4771469,1772272458.4150188,-312.5,-80.56640625,-214.84375,-1000.0,0.0,0,0
1772272458.477164,1772272458.4189146,-285.15625,-32.2265625,-16.11328125,-704.58984375,0.0,0,0
1772272458.492884,1772272458.4229512,63.4765625,-2.44140625,168.45703125,506.34765625,0.0,0,0
1772272458.492925,1772272458.426847,291.015625,-6.34765625,108.3984375,-855.46875,0.0,0,0
1772272458.492945,1772272458.430743,93.75,-26.85546875,-124.0234375,211.42578125,0.0,0,0
1772272458.4929621,1772272458.4346387,-260.7421875,-42.48046875,-195.3125,-1000.0,0.0,0,0
1772272458.492979,1772272458.4385345,-327.63671875,-38.0859375,-55.17578125,-887.20703125,0.0,0,0
1772272458.492996,1772272458.4424303,11.71875,-0.9765625,159.1796875,284.1796875,0.0,0,0
1772272458.493013,1772272458.446326,293.45703125,6.34765625,125.9765625,-845.703125,0.0,0,0
1772272458.493029,1772272458.4502218,120.1171875,-41.015625,-122.55859375,303.22265625,0.0,0,0
1772272458.493046,1772272458.4541178,-259.27734375,-55.17578125,-200.1953125,-965.33203125,0.0,0,0
1772272458.493078,1772272458.4580135,-346.6796875,-49.31640625,-90.33203125,-973.14453125,0.0,0,0
1772272458.493097,1772272458.4619093,13.18359375,-9.765625,136.23046875,172.36328125,0.0,0,0
1772272458.493113,1772272458.465805,314.453125,8.30078125,176.7578125,-844.23828125,0.0,0,0
1772272458.5393112,1772272458.4698303,144.04296875,-40.0390625,-66.40625,414.55078125,0.0,0,0
1772272458.53935,1772272458.473726,-236.81640625,-70.3125,-219.7265625,-868.65234375,0.0,0,0
1772272458.539374,1772272458.4776218,-335.9375,-37.59765625,-102.05078125,-1000.0,0.0,0,0
1772272458.539402,1772272458.4815178,-44.921875,-17.578125,107.91015625,18.06640625,0.0,0,0
1772272458.5394251,1772272458.4854136,265.13671875,-26.85546875,132.32421875,-870.1171875,0.0,0,0
1772272458.5394518,1772272458.4893093,188.4765625,-42.96875,-57.12890625,556.640625,0.0,0,0
1772272458.539476,1772272458.493205,-165.0390625,-62.98828125,-194.3359375,-698.2421875,0.0,0,0
1772272458.539499,1772272458.497101,-338.37890625,-62.98828125,-113.28125,-1000.0,0.0,0,0
1772272458.539522,1772272458.5009968,-103.02734375,-17.578125,96.19140625,-159.1796875,0.0,0,0
1772272458.539545,1772272458.5048926,245.60546875,-0.48828125,169.43359375,-921.38671875,0.0,0,0
1772272458.539569,1772272458.5087883,202.1484375,-38.0859375,-29.296875,686.5234375,0.0,0,0
1772272458.539592,1772272458.5126843,-164.0625,-51.26953125,-237.79296875,-544.43359375,0.0,0,0
1772272458.583394,1772272458.516695,-346.19140625,-37.59765625,-170.41015625,-1000.0,0.0,0,0
1772272458.583447,1772272458.5205908,-124.51171875,-10.7421875,62.98828125,-260.7421875,0.0,0,0
1772272458.583479,1772272458.5244865,232.91015625,18.5546875,154.296875,-1000.0,0.0,0,0
1772272458.583509,1772272458.5283823,285.15625,-1.46484375,27.34375,862.79296875,0.0,0,0
1772272458.583539,1772272458.5322783,-50.78125,-36.1328125,-183.10546875,-301.7578125,0.0,0,0
1772272458.5835679,1772272458.536174,-331.0546875,-29.78515625,-166.9921875,-1000.0,0.0,0,0
1772272458.583599,1772272458.5400698,-195.3125,-17.08984375,43.9453125,-377.9296875,0.0,0,0
1772272458.5836291,1772272458.5439658,189.453125,-20.99609375,131.34765625,912.109375,0.0,0,0
1772272458.583659,1772272458.5478616,298.828125,-40.52734375,18.06640625,949.70703125,0.0,0,0
1772272458.583688,1772272458.5517573,-41.50390625,-51.26953125,-193.84765625,-201.171875,0.0,0,0
1772272458.583744,1772272458.5556533,-335.9375,-59.08203125,-191.89453125,-1000.0,0.0,0,0
1772272458.583777,1772272458.559549,-227.5390625,-21.484375,10.25390625,-539.55078125,0.0,0,0
1772272458.629504,1772272458.563551,140.625,15.625,157.2265625,742.67578125,0.0,0,0
1772272458.629639,1772272458.5674467,276.3671875,-10.25390625,72.75390625,-957.03125,0.0,0,0
1772272458.629695,1772272458.5713427,-21.484375,-24.4140625,-166.9921875,-77.63671875,0.0,0,0
1772272458.62976,1772272458.5752385,-343.75,-35.15625,-213.37890625,-1000.0,0.0,0,0
1772272458.629812,1772272458.5791342,-276.85546875,-42.48046875,-28.80859375,-648.92578125,0.0,0,0
1772272458.630091,1772272458.5830302,119.140625,-11.23046875,175.29296875,591.30859375,0.0,0,0
1772272458.6301482,1772272458.586926,319.3359375,-19.53125,112.3046875,-875.9765625,0.0,0,0
1772272458.6302001,1772272458.5908217,42.48046875,-49.31640625,-143.5546875,84.9609375,0.0,0,0
1772272458.630259,1772272458.5947177,-311.03515625,-57.6171875,-219.23828125,-1000.0,0.0,0,0
1772272458.630309,1772272458.5986135,-294.921875,-41.50390625,-58.59375,-772.94921875,0.0,0,0
1772272458.630359,1772272458.6025095,55.6640625,-14.6484375,156.73828125,414.55078125,0.0,0,0
1772272458.630409,1772272458.6064053,291.015625,-10.7421875,111.81640625,-848.6328125,0.0,0,0
1772272458.673532,1772272458.6103973,94.23828125,-34.1796875,-128.90625,234.86328125,0.0,0,0
1772272458.6736279,1772272458.614293,-263.18359375,-47.8515625,-212.890625,-1000.0,0.0,0,0
1772272458.673671,1772272458.618189,-319.3359375,-19.53125,-55.17578125,-884.27734375,0.0,0,0
1772272458.673711,1772272458.6220849,8.30078125,-11.71875,160.64453125,278.80859375,0.0,0,0
1772272458.673749,1772272458.6259809,297.8515625,-18.5546875,139.16015625,-855.46875,0.0,0,0
1772272458.6737869,1772272458.6298766,157.71484375,-27.83203125,-63.4765625,411.62109375,0.0,0,0
1772272458.673824,1772272458.6337726,-211.42578125,-62.98828125,-194.82421875,-870.60546875,0.0,0,0
1772272458.673861,1772272458.6376684,-333.984375,-64.453125,-116.2109375,-1000.0,0.0,0,0
1772272458.673897,1772272458.6415644,-13.671875,-11.71875,128.41796875,88.8671875,0.0,0,0
1772272458.673934,1772272458.6454601,310.05859375,-14.16015625,165.52734375,-861.328125,0.0,0,0
1772272458.673971,1772272458.6493561,211.9140625,-43.9453125,-36.1328125,511.71875,0.0,0,0
1772272458.674007,1772272458.653252,-185.546875,-48.33984375,-197.265625,-760.25390625,0.0,0,0
1772272458.7189262,1772272458.6572335,-360.3515625,-42.96875,-115.72265625,-1000.0,0.0,0,0
1772272458.719041,1772272458.6611292,-69.82421875,-23.92578125,120.1171875,-25.390625,0.0,0,0
1772272458.719101,1772272458.6650252,287.109375,-14.16015625,181.15234375,-885.25390625,0.0,0,0
1772272458.7191548,1772272458.6689212,220.703125,-31.25,-22.4609375,617.1875,0.0,0,0
1772272458.7192059,1772272458.672817,-177.24609375,-58.59375,-238.76953125,-634.27734375,0.0,0,0
1772272458.719258,1772272458.676713,-359.375,-52.24609375,-130.859375,-1000.0,0.0,0,0
1772272458.719312,1772272458.6806087,-110.3515625,-21.97265625,113.28125,-122.0703125,0.0,0,0
1772272458.719363,1772272458.6845047,233.3984375,-20.01953125,131.34765625,-931.15234375,0.0,0,0
1772272458.719414,1772272458.6884005,262.20703125,-21.97265625,-20.5078125,750.0,0.0,0,0
1772272458.7194638,1772272458.6922965,-115.72265625,-47.36328125,-222.65625,-438.4765625,0.0,0,0
1772272458.719523,1772272458.6961923,-382.8125,-58.10546875,-177.734375,-1000.0,0.0,0,0
1772272458.719588,1772272458.7000883,-167.48046875,-26.3671875,80.56640625,-314.453125,0.0,0,0
1772272458.778291,1772272458.7041416,186.03515625,-11.71875,150.390625,973.14453125,0.0,0,0
1772272458.778406,1772272458.7080374,239.2578125,-22.94921875,13.18359375,873.53515625,0.0,0,0
1772272458.7784472,1772272458.7119334,-107.421875,-48.33984375,-208.49609375,-290.0390625,0.0,0,0
1772272458.778485,1772272458.7158294,-364.2578125,-55.6640625,-214.35546875,-1000.0,0.0,0,0
1772272458.778522,1772272458.7197251,-187.5,-20.99609375,20.01953125,-458.0078125,0.0,0,0
1772272458.778559,1772272458.7236211,167.96875,5.37109375,146.484375,837.40234375,0.0,0,0
1772272458.778595,1772272458.727517,291.9921875,-25.87890625,32.71484375,-995.60546875,0.0,0,0
1772272458.778632,1772272458.731413,-4.8828125,-66.89453125,-212.40234375,-140.625,0.0,0,0
1772272458.778668,1772272458.735309,-312.98828125,-45.41015625,-205.56640625,-1000.0,0.0,0,0
1772272458.778704,1772272458.7392046,-230.95703125,-17.578125,24.90234375,-571.77734375,0.0,0,0
1772272458.7787719,1772272458.7431006,137.6953125,6.8359375,168.45703125,696.2890625,0.0,0,0
1772272458.778808,1772272458.7469964,311.5234375,12.20703125,90.8203125,-917.96875,0.0,0,0
1772272458.825003,1772272458.75096,34.1796875,-27.83203125,-168.9453125,-12.20703125,0.0,0,0
1772272458.825087,1772272458.754856,-279.78515625,-33.69140625,-236.81640625,-1000.0,0.0,0,0
1772272458.8251278,1772272458.758752,-226.07421875,-2.44140625,-19.53125,-672.36328125,0.0,0,0
1772272458.8251672,1772272458.7626479,118.65234375,-2.44140625,180.17578125,549.8046875,0.0,0,0
1772272458.825208,1772272458.7665439,302.24609375,-19.53125,113.76953125,-866.2109375,0.0,0,0
1772272458.8252459,1772272458.7704396,79.58984375,-31.73828125,-114.2578125,165.0390625,0.0,0,0
1772272458.825283,1772272458.7743356,-273.4375,-54.6875,-205.56640625,-1000.0,0.0,0,0
1772272458.8253188,1772272458.7782316,-273.4375,-31.25,-48.33984375,-839.35546875,0.0,0,0
1772272458.825366,1772272458.7821274,83.0078125,-6.8359375,173.33984375,344.23828125,0.0,0,0
1772272458.825403,1772272458.7860234,296.38671875,-43.45703125,107.421875,-851.5625,0.0,0,0
1772272458.825459,1772272458.7899194,113.76953125,-77.1484375,-120.60546875,278.80859375,0.0,0,0
1772272458.825496,1772272458.7938151,-219.7265625,-56.640625,-174.8046875,-969.7265625,0.0,0,0
1772272458.884943,1772272458.7979336,-290.0390625,-45.41015625,-78.61328125,-977.5390625,0.0,0,0
1772272458.88508,1772272458.8018296,27.34375,-31.73828125,127.9296875,156.25,0.0,0,0
1772272458.8851352,1772272458.8057256,319.82421875,-11.23046875,156.25,-854.00390625,0.0,0,0
1772272458.885189,1772272458.8096216,191.40625,-21.97265625,-51.7578125,454.1015625,0.0,0,0
1772272458.885241,1772272458.8135173,-194.82421875,-34.1796875,-175.29296875,-826.66015625,0.0,0,0
1772272458.885296,1772272458.8174133,-330.56640625,-50.78125,-79.58984375,-1000.0,0.0,0,0
1772272458.885346,1772272458.8213093,-23.4375,-32.71484375,99.12109375,49.8046875,0.0,0,0
1772272458.885412,1772272458.8252053,310.546875,-6.8359375,145.01953125,-867.67578125,0.0,0,0
1772272458.8854651,1772272458.8291013,215.33203125,-27.34375,-53.22265625,534.1796875,0.0,0,0
1772272458.885516,1772272458.832997,-203.125,-62.5,-238.28125,-732.91015625,0.0,0,0
1772272458.885567,1772272458.836893,-358.3984375,-59.5703125,-128.41796875,-1000.0,0.0,0,0
1772272458.885616,1772272458.840789,-70.3125,-22.94921875,104.98046875,-69.3359375,0.0,0,0
1772272458.914639,1772272458.8448195,273.4375,-3.41796875,157.2265625,-909.1796875,0.0,0,0
1772272458.9146938,1772272458.8487155,257.32421875,-19.04296875,-21.97265625,694.3359375,0.0,0,0
1772272458.9147332,1772272458.8526115,-125.0,-62.98828125,-208.984375,-524.4140625,0.0,0,0
1772272458.91477,1772272458.8565075,-342.7734375,-47.36328125,-153.80859375,-1000.0,0.0,0,0
1772272458.9148061,1772272458.8604035,-103.515625,-7.32421875,83.0078125,-219.23828125,0.0,0,0
1772272458.9148428,1772272458.8642995,251.46484375,-8.30078125,169.43359375,-967.7734375,0.0,0,0
1772272458.914929,1772272458.8681955,294.921875,-22.4609375,12.6953125,802.24609375,0.0,0,0
1772272458.914967,1772272458.8720915,-62.98828125,-32.71484375,-219.23828125,-385.7421875,0.0,0,0
1772272458.915004,1772272458.8759873,-334.9609375,-47.8515625,-200.1953125,-1000.0,0.0,0,0
1772272458.915041,1772272458.8798833,-179.19921875,-37.109375,27.34375,-371.09375,0.0,0,0
1772272458.915082,1772272458.8837793,196.2890625,-10.25390625,160.15625,924.31640625,0.0,0,0
1772272458.9151192,1772272458.8876753,309.5703125,-17.08984375,33.69140625,924.31640625,0.0,0,0
1772272458.9592881,1772272458.8916917,-24.90234375,-46.875,-211.9140625,-244.62890625,0.0,0,0
1772272458.9593961,1772272458.8955877,-327.63671875,-53.7109375,-202.63671875,-1000.0,0.0,0,0
1772272458.9594398,1772272458.8994837,-192.87109375,-16.6015625,23.4375,-509.765625,0.0,0,0
1772272458.959479,1772272458.9033794,181.15234375,3.90625,164.0625,781.25,0.0,0,0
1772272458.9595158,1772272458.9072754,295.8984375,-21.97265625,53.22265625,-980.46875,0.0,0,0
1772272458.959554,1772272458.9111714,10.7421875,-42.48046875,-172.36328125,-112.79296875,0.0,0,0
1772272458.959595,1772272458.9150674,-291.9921875,-45.8984375,-208.49609375,-1000.0,0.0,0,0
1772272458.959632,1772272458.9189634,-233.88671875,-37.109375,-21.97265625,-624.51171875,0.0,0,0
1772272458.959678,1772272458.9228594,139.16015625,-20.01953125,136.71875,623.53515625,0.0,0,0
1772272458.959935,1772272458.9267554,332.03125,-12.20703125,75.68359375,-887.6953125,0.0,0,0
1772272458.959975,1772272458.9306514,48.828125,-40.0390625,-130.37109375,62.01171875,0.0,0,0
1772272458.960012,1772272458.9345474,-292.48046875,-72.75390625,-193.84765625,-1000.0,0.0,0,0
1772272459.003582,1772272458.938553,-250.9765625,-35.15625,-34.1796875,-715.33203125,0.0,0,0
1772272459.0036669,1772272458.942449,107.421875,12.6953125,160.15625,492.1875,0.0,0,0
1772272459.0036979,1772272458.946345,308.59375,-7.32421875,104.00390625,-856.93359375,0.0,0,0
1772272459.003728,1772272458.950241,89.84375,-56.15234375,-128.90625,207.03125,0.0,0,0
1772272459.0037591,1772272458.954137,-270.5078125,-57.6171875,-208.49609375,-1000.0,0.0,0,0
1772272459.003788,1772272458.958033,-321.2890625,-39.55078125,-47.36328125,-822.265625,0.0,0,0
1772272459.003822,1772272458.961929,49.31640625,-14.6484375,187.98828125,371.58203125,0.0,0,0
1772272459.003851,1772272458.965825,309.08203125,-0.9765625,130.37109375,-850.5859375,0.0,0,0
1772272459.003881,1772272458.969721,103.515625,-49.8046875,-114.2578125,316.89453125,0.0,0,0
1772272459.0039098,1772272458.973617,-264.6484375,-58.59375,-197.75390625,-960.44921875,0.0,0,0
1772272459.0039492,1772272458.977513,-325.68359375,-21.97265625,-66.40625,-967.7734375,0.0,0,0
1772272459.003979,1772272458.981409,9.27734375,-5.37109375,144.04296875,184.5703125,0.0,0,0
1772272459.0783381,1772272458.9855616,291.50390625,-12.6953125,142.08984375,-860.83984375,0.0,0,0
1772272459.0784378,1772272458.9894576,170.8984375,-21.97265625,-72.75390625,494.140625,0.0,0,0
1772272459.078478,1772272458.9933536,-203.125,-41.50390625,-224.609375,-778.3203125,0.0,0,0
1772272459.078516,1772272458.9972496,-344.7265625,-39.0625,-119.140625,-1000.0,0.0,0,0
1772272459.0785542,1772272459.0011458,-60.05859375,-7.32421875,122.0703125,12.20703125,0.0,0,0
1772272459.0785909,1772272459.0050418,286.1328125,-0.48828125,161.1328125,-876.46484375,0.0,0,0
1772272459.078629,1772272459.0089378,227.05078125,-32.2265625,-49.8046875,580.078125,0.0,0,0
1772272459.078666,1772272459.0128338,-183.59375,-56.640625,-236.328125,-674.31640625,0.0,0,0
1772272459.0787032,1772272459.0167298,-376.953125,-48.828125,-153.3203125,-1000.0,0.0,0,0
1772272459.078739,1772272459.020626,-107.91015625,-20.5078125,94.7265625,-130.37109375,0.0,0,0
1772272459.0787861,1772272459.024522,242.1875,1.953125,163.57421875,-924.31640625,0.0,0,0
1772272459.078822,1772272459.028418,225.09765625,-14.6484375,-14.16015625,721.6796875,0.0,0,0
1772272459.0941172,1772272459.0324042,-114.2578125,-31.25,-203.125,-470.703125,0.0,0,0
1772272459.0942411,1772272459.0363004,-347.65625,-35.15625,-137.20703125,-1000.0,0.0,0,0
1772272459.094282,1772272459.0401964,-164.55078125,-28.80859375,84.47265625,-281.25,0.0,0,0
1772272459.0943701,1772272459.0440924,205.078125,-20.99609375,153.80859375,-992.67578125,0.0,0,0
1772272459.094416,1772272459.0479884,227.5390625,-33.69140625,-7.8125,814.453125,0.0,0,0
1772272459.0944571,1772272459.0518847,-102.5390625,-38.57421875,-197.265625,-381.8359375,0.0,0,0
1772272459.094496,1772272459.0557806,-336.42578125,-29.296875,-150.87890625,-1000.0,0.0,0,0
1772272459.0945332,1772272459.0596766,-198.2421875,-19.53125,40.52734375,-403.80859375,0.0,0,0
1772272459.094569,1772272459.0635726,172.36328125,3.90625,139.6484375,895.99609375,0.0,0,0
1772272459.094613,1772272459.067469,271.97265625,5.859375,31.25,932.12890625,0.0,0,0
1772272459.09465,1772272459.0713649,-48.828125,-15.13671875,-172.8515625,-234.375,0.0,0,0
1772272459.094686,1772272459.0752609,-366.2109375,-35.64453125,-187.01171875,-1000.0,0.0,0,0
1772272459.1530392,1772272459.0792313,-276.3671875,-12.6953125,20.99609375,-554.19921875,0.0,0,0
1772272459.153204,1772272459.0831275,93.75,14.6484375,181.15234375,725.5859375,0.0,0,0
1772272459.153263,1772272459.0870235,221.6796875,-24.4140625,85.44921875,-953.125,0.0,0,0
1772272459.153316,1772272459.0909195,-71.2890625,-41.9921875,-156.73828125,-92.7734375,0.0,0,0
1772272459.1533692,1772272459.0948155,-376.46484375,-24.4140625,-185.05859375,-1000.0,0.0,0,0
1772272459.153423,1772272459.0987117,-302.24609375,-6.34765625,26.3671875,-681.15234375,0.0,0,0
1772272459.153483,1772272459.1026077,38.57421875,-2.44140625,169.43359375,532.2265625,0.0,0,0
1772272459.153534,1772272459.1065037,216.30859375,-4.39453125,89.35546875,-883.7890625,0.0,0,0
1772272459.1535842,1772272459.1104,15.625,-1.46484375,-103.515625,87.40234375,0.0,0,0
1772272459.153652,1772272459.114296,-338.8671875,-43.45703125,-174.31640625,-1000.0,0.0,0,0
1772272459.153718,1772272459.118192,-366.2109375,-47.36328125,-11.71875,-781.73828125,0.0,0,0
1772272459.1537678,1772272459.1220882,1.953125,-11.23046875,189.94140625,400.390625,0.0,0,0
1772272459.1990669,1772272459.126046,230.95703125,-11.71875,124.0234375,-853.515625,0.0,0,0
1772272459.1991858,1772272459.129942,63.96484375,-41.9921875,-86.9140625,260.25390625,0.0,0,0
1772272459.199231,1772272459.1338382,-282.71484375,-67.87109375,-183.10546875,-1000.0,0.0,0,0
1772272459.1992698,1772272459.1377342,-358.3984375,-49.31640625,-69.82421875,-916.9921875,0.0,0,0
1772272459.199308,1772272459.1416302,-0.9765625,-3.90625,157.2265625,241.69921875,0.0,0,0
1772272459.199347,1772272459.1455264,307.6171875,7.32421875,152.34375,-849.609375,0.0,0,0
1772272459.1993852,1772272459.1494224,171.38671875,-25.87890625,-79.58984375,409.66796875,0.0,0,0
1772272459.199422,1772272459.1533184,-222.65625,-64.453125,-205.078125,-879.8828125,0.0,0,0
1772272459.19946,1772272459.1572146,-333.49609375,-62.98828125,-92.7734375,-1000.0,0.0,0,0
1772272459.1994948,1772272459.1611106,-12.20703125,-41.015625,149.90234375,92.28515625,0.0,0,0
1772272459.199539,1772272459.1650066,298.33984375,-19.04296875,176.26953125,-871.58203125,0.0,0,0
1772272459.199584,1772272459.1689029,216.30859375,-28.80859375,-34.66796875,565.91796875,0.0,0,0
1772272459.243582,1772272459.1729345,-179.6875,-73.73046875,-204.58984375,-703.61328125,0.0,0,0
1772272459.2437189,1772272459.1768305,-321.77734375,-54.19921875,-114.74609375,-1000.0,0.0,0,0
1772272459.243762,1772272459.1807265,-14.16015625,-14.6484375,105.46875,-5.859375,0.0,0,0
1772272459.243801,1772272459.1846228,301.26953125,-15.13671875,136.71875,-901.3671875,0.0,0,0
1772272459.24384,1772272459.1885188,259.27734375,-28.80859375,-29.78515625,677.734375,0.0,0,0
1772272459.2438772,1772272459.192415,-123.53515625,-54.19921875,-200.1953125,-530.2734375,0.0,0,0
1772272459.243914,1772272459.196311,-331.0546875,-64.94140625,-158.203125,-1000.0,0.0,0,0
1772272459.2439492,1772272459.2002072,-77.63671875,-24.90234375,73.2421875,-158.69140625,0.0,0,0
1772272459.2439868,1772272459.2041032,275.390625,1.953125,157.71484375,-939.453125,0.0,0,0
1772272459.244023,1772272459.2079992,284.66796875,-45.8984375,-20.01953125,789.55078125,0.0,0,0
1772272459.2440588,1772272459.2118955,-81.54296875,-56.15234375,-211.42578125,-384.765625,0.0,0,0
1772272459.244096,1772272459.2157915,-322.75390625,-32.71484375,-151.3671875,-1000.0,0.0,0,0
1772272459.2890801,1772272459.2198129,-129.39453125,-28.80859375,73.2421875,-293.45703125,0.0,0,0
1772272459.28923,1772272459.2237089,224.12109375,-21.97265625,165.0390625,985.83984375,0.0,0,0
1772272459.289302,1772272459.227605,278.3203125,-24.4140625,4.39453125,881.34765625,0.0,0,0
1772272459.289357,1772272459.231501,-62.5,-42.96875,-227.5390625,-281.73828125,0.0,0,0
1772272459.289407,1772272459.2353973,-343.75,-50.29296875,-179.6875,-1000.0,0.0,0,0
1772272459.2894568,1772272459.2392933,-199.21875,-28.3203125,32.71484375,-436.5234375,0.0,0,0
1772272459.2895072,1772272459.2431896,172.8515625,-5.859375,150.390625,849.12109375,0.0,0,0
1772272459.2895622,1772272459.2470856,286.1328125,-23.4375,53.22265625,-990.72265625,0.0,0,0
1772272459.289612,1772272459.2509818,-14.16015625,-62.5,-184.5703125,-115.72265625,0.0,0,0
1772272459.289661,1772272459.2548778,-317.87109375,-59.5703125,-195.80078125,-1000.0,0.0,0,0
1772272459.28971,1772272459.258774,-222.16796875,-15.13671875,22.4609375,-564.453125,0.0,0,0
1772272459.28976,1772272459.26267,128.90625,-22.94921875,148.4375,693.359375,0.0,0,0
1772272459.377849,1772272459.2668412,270.99609375,-32.71484375,56.15234375,-911.1328125,0.0,0,0
1772272459.378187,1772272459.2707372,36.62109375,-20.01953125,-142.578125,47.36328125,0.0,0,0
1772272459.378245,1772272459.2746334,-289.55078125,-41.015625,-177.24609375,-1000.0,0.0,0,0
1772272459.378297,1772272459.2785296,-282.2265625,-39.55078125,-4.39453125,-716.796875,0.0,0,0
1772272459.378349,1772272459.2824256,96.19140625,-19.04296875,172.36328125,501.46484375,0.0,0,0
1772272459.378399,1772272459.2863219,307.6171875,-8.30078125,126.953125,-861.81640625,0.0,0,0
1772272459.378449,1772272459.290218,86.9140625,-33.69140625,-117.67578125,168.45703125,0.0,0,0
1772272459.378499,1772272459.294114,-267.578125,-56.640625,-194.3359375,-1000.0,0.0,0,0
1772272459.378548,1772272459.2980103,-316.89453125,-58.10546875,-53.7109375,-835.44921875,0.0,0,0
1772272459.378598,1772272459.3019066,57.12890625,-11.23046875,147.94921875,341.30859375,0.0,0,0
1772272459.378648,1772272459.3058026,331.54296875,7.8125,128.90625,-846.6796875,0.0,0,0
1772272459.378697,1772272459.3096988,118.65234375,-27.34375,-120.1171875,281.73828125,0.0,0,0
1772272459.3918688,1772272459.3137112,-229.98046875,-50.29296875,-210.44921875,-989.2578125,0.0,0,0
1772272459.391973,1772272459.3176074,-279.296875,-41.50390625,-67.3828125,-949.70703125,0.0,0,0
1772272459.392032,1772272459.3215036,29.296875,-3.90625,147.94921875,197.265625,0.0,0,0
1772272459.392087,1772272459.3253999,324.21875,-1.953125,165.52734375,-851.07421875,0.0,0,0
1772272459.392139,1772272459.3292959,216.796875,-16.11328125,-70.80078125,443.84765625,0.0,0,0
1772272459.39219,1772272459.333192,-180.17578125,-33.69140625,-203.61328125,-849.609375,0.0,0,0
1772272459.392247,1772272459.3370883,-343.26171875,-48.33984375,-72.265625,-1000.0,0.0,0,0
1772272459.392297,1772272459.3409846,-46.38671875,-21.484375,108.3984375,61.03515625,0.0,0,0
1772272459.3923469,1772272459.3448806,264.6484375,-9.765625,120.60546875,-882.32421875,0.0,0,0
1772272459.392398,1772272459.3487768,187.5,-33.203125,-44.43359375,585.9375,0.0,0,0
1772272459.392447,1772272459.352673,-166.015625,-25.390625,-164.55078125,-661.1328125,0.0,0,0
1772272459.392496,1772272459.3565693,-352.05078125,-29.78515625,-112.3046875,-1000.0,0.0,0,0
1772272459.424002,1772272459.360558,-115.72265625,-38.0859375,62.01171875,-126.953125,0.0,0,0
1772272459.4240901,1772272459.3644543,254.8828125,-7.32421875,132.8125,-915.0390625,0.0,0,0
1772272459.42413,1772272459.3683505,231.4453125,-24.90234375,-32.71484375,670.41015625,0.0,0,0
1772272459.424167,1772272459.3722467,-158.69140625,-64.453125,-228.515625,-559.5703125,0.0,0,0
1772272459.424204,1772272459.3761427,-365.234375,-54.6875,-157.2265625,-1000.0,0.0,0,0
1772272459.4242811,1772272459.380039,-137.6953125,-21.484375,84.9609375,-218.26171875,0.0,0,0
1772272459.424351,1772272459.3839352,223.14453125,-1.953125,132.32421875,-971.6796875,0.0,0,0
1772272459.424393,1772272459.3878314,267.08984375,-37.59765625,-11.23046875,829.1015625,0.0,0,0
1772272459.424432,1772272459.3917277,-80.56640625,-69.82421875,-196.2890625,-344.7265625,0.0,0,0
1772272459.4244962,1772272459.3956237,-351.07421875,-51.26953125,-177.734375,-1000.0,0.0,0,0
1772272459.4245918,1772272459.39952,-167.48046875,-21.97265625,52.24609375,-368.65234375,0.0,0,0
1772272459.424688,1772272459.4034162,191.40625,-4.8828125,161.1328125,917.48046875,0.0,0,0
1772272459.468801,1772272459.407397,285.64453125,0.9765625,31.73828125,949.21875,0.0,0,0
1772272459.468956,1772272459.4112933,-43.45703125,-10.25390625,-181.640625,-199.21875,0.0,0,0
1772272459.4690099,1772272459.4151893,-345.703125,-21.484375,-187.5,-1000.0,0.0,0,0
1772272459.469049,1772272459.4190855,-210.9375,-18.06640625,10.7421875,-523.92578125,0.0,0,0
1772272459.469087,1772272459.4229817,155.2734375,-10.25390625,146.97265625,752.9296875,0.0,0,0
1772272459.4691288,1772272459.426878,283.203125,-13.671875,73.73046875,-938.96484375,0.0,0,0
1772272459.4691799,1772272459.4307742,-10.7421875,-42.96875,-132.8125,-30.76171875,0.0,0,0
1772272459.469218,1772272459.4346704,-326.66015625,-66.89453125,-202.1484375,-1000.0,0.0,0,0
1772272459.4692569,1772272459.4385667,-270.5078125,-46.38671875,-31.73828125,-659.1796875,0.0,0,0
1772272459.4693062,1772272459.4424627,96.19140625,-14.16015625,161.62109375,582.51953125,0.0,0,0
1772272459.4693482,1772272459.446359,258.30078125,-26.85546875,83.0078125,-890.625,0.0,0,0
1772272459.4694002,1772272459.4502552,2.9296875,-48.33984375,-152.34375,64.453125,0.0,0,0
1772272459.513262,1772272459.4542239,-306.640625,-33.203125,-193.359375,-1000.0,0.0,0,0
1772272459.513381,1772272459.45812,-304.6875,-14.16015625,-24.4140625,-758.30078125,0.0,0,0
1772272459.513417,1772272459.462016,66.89453125,-7.8125,153.80859375,440.91796875,0.0,0,0
1772272459.5134459,1772272459.4659123,306.640625,-17.08984375,118.65234375,-852.5390625,0.0,0,0
1772272459.513479,1772272459.4698086,81.0546875,-41.50390625,-113.28125,230.46875,0.0,0,0
1772272459.513508,1772272459.4737048,-286.62109375,-53.7109375,-207.51953125,-1000.0,0.0,0,0
1772272459.513549,1772272459.477601,-320.3125,-54.19921875,-65.91796875,-917.96875,0.0,0,0
1772272459.513577,1772272459.4814973,33.69140625,-35.64453125,132.8125,237.79296875,0.0,0,0
1772272459.5136058,1772272459.4853935,291.015625,-6.8359375,111.328125,-845.703125,0.0,0,0
1772272459.513634,1772272459.4892898,126.953125,-25.390625,-101.5625,353.02734375,0.0,0,0
1772272459.513663,1772272459.493186,-232.91015625,-53.7109375,-190.91796875,-930.17578125,0.0,0,0
1772272459.5137,1772272459.4970822,-330.078125,-30.2734375,-80.56640625,-1000.0,0.0,0,0
1772272459.5734122,1772272459.5010407,-18.06640625,-9.765625,136.71875,136.71875,0.0,0,0
1772272459.5735428,1772272459.504937,268.5546875,-25.390625,150.87890625,-866.69921875,0.0,0,0
1772272459.573601,1772272459.5088332,179.6875,-41.50390625,-58.10546875,528.80859375,0.0,0,0
1772272459.573656,1772272459.5127294,-180.17578125,-56.15234375,-200.1953125,-742.67578125,0.0,0,0
1772272459.5737119,1772272459.5166254,-351.5625,-40.0390625,-112.79296875,-1000.0,0.0,0,0
1772272459.5737631,1772272459.5205216,-59.5703125,-15.13671875,129.39453125,13.18359375,0.0,0,0
1772272459.573815,1772272459.5244179,271.484375,-36.62109375,149.4140625,-889.6484375,0.0,0,0
1772272459.573867,1772272459.528314,219.7265625,-38.57421875,-40.52734375,642.08984375,0.0,0,0
1772272459.573927,1772272459.5322104,-156.25,-53.22265625,-212.890625,-574.21875,0.0,0,0
1772272459.573985,1772272459.5361066,-353.515625,-65.4296875,-166.50390625,-1000.0,0.0,0,0
1772272459.574045,1772272459.5400028,-102.05078125,-22.94921875,85.9375,-189.453125,0.0,0,0
1772272459.574095,1772272459.543899,248.046875,-10.7421875,160.64453125,-937.98828125,0.0,0,0
1772272459.619533,1772272459.547927,236.328125,-36.1328125,-27.83203125,720.21484375,0.0,0,0
1772272459.6196558,1772272459.5518231,-141.6015625,-50.29296875,-209.9609375,-489.2578125,0.0,0,0
1772272459.619713,1772272459.5557194,-354.4921875,-47.8515625,-154.296875,-1000.0,0.0,0,0
1772272459.6197891,1772272459.5596156,-140.625,-32.2265625,72.75390625,-271.484375,0.0,0,0
1772272459.6198459,1772272459.5635118,229.4921875,-10.7421875,168.45703125,997.0703125,0.0,0,0
1772272459.619898,1772272459.567408,280.76171875,-6.8359375,32.71484375,883.7890625,0.0,0,0
1772272459.61998,1772272459.5713043,-83.49609375,-56.640625,-207.03125,-280.76171875,0.0,0,0
1772272459.620032,1772272459.5752006,-357.91015625,-67.87109375,-211.9140625,-1000.0,0.0,0,0
1772272459.620082,1772272459.5790968,-207.03125,-4.8828125,35.64453125,-462.890625,0.0,0,0
1772272459.6201322,1772272459.582993,161.1328125,6.8359375,154.296875,829.58984375,0.0,0,0
1772272459.620183,1772272459.5868893,294.921875,-6.8359375,26.85546875,989.2578125,0.0,0,0
1772272459.6202319,1772272459.5907855,-18.06640625,-25.87890625,-204.1015625,-161.1328125,0.0,0,0
1772272459.678553,1772272459.5948832,-327.63671875,-44.921875,-218.75,-1000.0,0.0,0,0
1772272459.6786828,1772272459.5987794,-210.9375,-4.8828125,8.30078125,-541.50390625,0.0,0,0
1772272459.6787379,1772272459.6026757,186.03515625,37.59765625,171.38671875,731.4453125,0.0,0,0
1772272459.678792,1772272459.606572,322.75390625,13.671875,60.546875,-937.98828125,0.0,0,0
1772272459.6788428,1772272459.6104681,32.71484375,-28.3203125,-173.33984375,-27.83203125,0.0,0,0
1772272459.679151,1772272459.6143644,-276.3671875,-24.4140625,-200.68359375,-1000.0,0.0,0,0
1772272459.6791942,1772272459.6182609,-245.1171875,2.44140625,-23.4375,-697.75390625,0.0,0,0
1772272459.679232,1772272459.622157,107.421875,14.16015625,131.8359375,524.4140625,0.0,0,0
1772272459.679271,1772272459.6260533,301.7578125,-19.04296875,71.77734375,-871.58203125,0.0,0,0
1772272459.679308,1772272459.6299496,71.2890625,-63.96484375,-137.6953125,134.765625,0.0,0,0
1772272459.6793442,1772272459.6338458,-261.71875,-57.6171875,-196.2890625,-1000.0,0.0,0,0
1772272459.67938,1772272459.637742,-283.203125,-31.73828125,-44.921875,-794.43359375,0.0,0,0
1772272459.7090292,1772272459.6417487,80.56640625,-11.23046875,160.64453125,406.73828125,0.0,0,0
1772272459.709132,1772272459.645645,327.1484375,-9.27734375,113.28125,-844.23828125,0.0,0,0
1772272459.709192,1772272459.6495411,125.0,-19.53125,-134.27734375,245.60546875,0.0,0,0
1772272459.709252,1772272459.6534376,-231.4453125,-35.15625,-210.9375,-1000.0,0.0,0,0
1772272459.7093031,1772272459.6573339,-292.96875,-29.296875,-73.73046875,-945.3125,0.0,0,0
1772272459.709354,1772272459.66123,29.296875,-1.953125,153.80859375,193.84765625,0.0,0,0
1772272459.709404,1772272459.6651263,311.5234375,11.23046875,145.5078125,-848.14453125,0.0,0,0
1772272459.709455,1772272459.6690228,151.3671875,-31.73828125,-102.5390625,391.6015625,0.0,0,0
1772272459.709505,1772272459.672919,-225.5859375,-49.8046875,-211.42578125,-886.23046875,0.0,0,0
1772272459.709555,1772272459.6768153,-361.328125,-35.64453125,-99.12109375,-1000.0,0.0,0,0
1772272459.709604,1772272459.6807115,-67.87109375,-28.3203125,125.48828125,75.1953125,0.0,0,0
1772272459.709654,1772272459.6846077,287.59765625,-18.5546875,166.9921875,-870.1171875,0.0,0,0
1772272459.767158,1772272459.6886065,214.35546875,-39.0625,-43.45703125,554.19921875,0.0,0,0
1772272459.7672892,1772272459.692503,-182.6171875,-49.8046875,-218.75,-717.7734375,0.0,0,0
1772272459.7673442,1772272459.6963992,-330.078125,-44.921875,-112.3046875,-1000.0,0.0,0,0
1772272459.7673962,1772272459.7002954,-53.7109375,-19.04296875,134.765625,-34.66796875,0.0,0,0
1772272459.767448,1772272459.7041917,267.578125,5.859375,175.29296875,-902.83203125,0.0,0,0
1772272459.767499,1772272459.7080882,220.21484375,-29.78515625,-21.484375,665.0390625,0.0,0,0
1772272459.76755,1772272459.7119844,-133.7890625,-48.33984375,-214.84375,-544.43359375,0.0,0,0
1772272459.767601,1772272459.7158806,-334.47265625,-34.66796875,-162.109375,-1000.0,0.0,0,0
1772272459.767651,1772272459.719777,-105.46875,-15.13671875,76.171875,-207.51953125,0.0,0,0
1772272459.767702,1772272459.7236733,220.21484375,-3.90625,142.08984375,-955.078125,0.0,0,0
1772272459.767751,1772272459.7275696,228.515625,-29.78515625,-30.76171875,763.671875,0.0,0,0
1772272459.767801,1772272459.7314658,-101.5625,-46.875,-215.33203125,-428.22265625,0.0,0,0
1772272459.798591,1772272459.7354538,-344.23828125,-29.78515625,-168.45703125,-1000.0,0.0,0,0
1772272459.798699,1772272459.73935,-159.66796875,9.765625,65.4296875,-309.08203125,0.0,0,0
1772272459.7987561,1772272459.7432466,206.54296875,20.5078125,166.015625,974.609375,0.0,0,0
1772272459.7987971,1772272459.7471428,265.625,-7.32421875,6.8359375,907.71484375,0.0,0,0
1772272459.7988338,1772272459.751039,-90.33203125,-45.8984375,-213.8671875,-251.46484375,0.0,0,0
1772272459.798872,1772272459.7549355,-357.421875,-44.43359375,-182.6171875,-1000.0,0.0,0,0
1772272459.798908,1772272459.7588317,-219.7265625,-34.1796875,25.87890625,-496.09375,0.0,0,0
1772272459.798945,1772272459.762728,164.55078125,-41.015625,133.7890625,796.875,0.0,0,0
1772272459.798982,1772272459.7666245,288.57421875,-36.1328125,20.99609375,-991.2109375,0.0,0,0
1772272459.799019,1772272459.7705207,-37.59765625,-33.69140625,-185.05859375,-124.51171875,0.0,0,0
1772272459.799097,1772272459.774417,-346.6796875,-47.36328125,-195.80078125,-1000.0,0.0,0,0
1772272459.799136,1772272459.7783134,-250.48828125,-24.4140625,5.37109375,-578.61328125,0.0,0,0
1772272459.844206,1772272459.7822924,134.765625,14.16015625,165.52734375,687.5,0.0,0,0
1772272459.844341,1772272459.7861888,300.29296875,-1.953125,84.9609375,-903.80859375,0.0,0,0
1772272459.844394,1772272459.790085,23.4375,-28.3203125,-135.7421875,37.59765625,0.0,0,0
1772272459.844446,1772272459.7939816,-313.96484375,-42.48046875,-202.63671875,-1000.0,0.0,0,0
1772272459.844498,1772272459.7978778,-297.36328125,-42.48046875,-49.31640625,-746.09375,0.0,0,0
1772272459.8445492,1772272459.801774,68.359375,-9.765625,160.15625,458.49609375,0.0,0,0
1772272459.844599,1772272459.8056705,304.6875,-3.41796875,122.0703125,-854.98046875,0.0,0,0
1772272459.84465,1772272459.8095667,74.21875,-44.43359375,-140.625,152.34375,0.0,0,0
1772272459.8447192,1772272459.8134632,-288.0859375,-59.08203125,-232.421875,-1000.0,0.0,0,0
1772272459.84477,1772272459.8173594,-326.171875,-47.8515625,-57.12890625,-825.68359375,0.0,0,0
1772272459.844827,1772272459.8212557,24.90234375,-11.71875,162.59765625,332.51953125,0.0,0,0
1772272459.8448782,1772272459.8251522,290.0390625,-2.9296875,96.6796875,-840.8203125,0.0,0,0
1772272459.890151,1772272459.8291247,100.09765625,-28.3203125,-120.1171875,271.97265625,0.0,0,0
1772272459.89026,1772272459.8330212,-271.97265625,-49.8046875,-180.6640625,-988.76953125,0.0,0,0
1772272459.8903182,1772272459.8369174,-332.03125,-41.9921875,-67.87109375,-961.42578125,0.0,0,0
1772272459.890372,1772272459.8408139,6.34765625,-4.8828125,142.578125,174.31640625,0.0,0,0
1772272459.890424,1772272459.84471,268.06640625,-10.7421875,141.11328125,-860.83984375,0.0,0,0
1772272459.890483,1772272459.8486066,163.57421875,-25.390625,-55.17578125,484.86328125,0.0,0,0
1772272459.890537,1772272459.8525028,-209.9609375,-63.4765625,-212.890625,-788.0859375,0.0,0,0
1772272459.890589,1772272459.8563993,-360.83984375,-61.03515625,-124.0234375,-1000.0,0.0,0,0
1772272459.890641,1772272459.8602955,-47.36328125,-6.34765625,119.62890625,21.484375,0.0,0,0
1772272459.8906932,1772272459.8641918,287.59765625,11.71875,141.6015625,-875.0,0.0,0,0
1772272459.890743,1772272459.8680882,217.28515625,-0.48828125,-45.8984375,581.54296875,0.0,0,0
1772272459.890796,1772272459.8719845,-174.31640625,-37.59765625,-201.66015625,-654.78515625,0.0,0,0
1772272459.979786,1772272459.8761084,-359.86328125,-38.57421875,-148.4375,-1000.0,0.0,0,0
1772272459.979939,1772272459.880005,-99.12109375,-10.7421875,78.125,-151.3671875,0.0,0,0
1772272459.979997,1772272459.8839011,253.41796875,-0.48828125,159.1796875,-923.33984375,0.0,0,0
1772272459.980054,1772272459.8877976,249.0234375,-19.53125,-7.32421875,717.7734375,0.0,0,0
1772272459.9801059,1772272459.891694,-134.27734375,-51.7578125,-210.9375,-498.046875,0.0,0,0
1772272459.980157,1772272459.8955903,-355.95703125,-53.22265625,-150.87890625,-1000.0,0.0,0,0
1772272459.9802082,1772272459.8994868,-133.30078125,-31.25,73.73046875,-239.2578125,0.0,0,0
1772272459.980258,1772272459.903383,211.42578125,-3.90625,140.625,-978.515625,0.0,0,0
1772272459.9803112,1772272459.9072795,230.46875,-22.94921875,-20.01953125,806.640625,0.0,0,0
1772272459.980361,1772272459.9111757,-114.74609375,-49.31640625,-224.12109375,-382.32421875,0.0,0,0
1772272459.980416,1772272459.9150722,-353.02734375,-48.828125,-177.24609375,-1000.0,0.0,0,0
1772272459.9804769,1772272459.9189687,-189.94140625,-18.06640625,41.9921875,-417.48046875,0.0,0,0
1772272459.9956322,1772272459.9230025,168.45703125,1.953125,143.06640625,888.18359375,0.0,0,0
1772272459.995713,1772272459.926899,270.5078125,-18.06640625,21.97265625,937.5,0.0,0,0
1772272459.995809,1772272459.9307954,-49.8046875,-45.8984375,-191.40625,-237.3046875,0.0,0,0
1772272459.9958699,1772272459.9346917,-362.79296875,-53.7109375,-195.80078125,-1000.0,0.0,0,0
1772272459.99591,1772272459.9385881,-237.3046875,-37.109375,0.9765625,-532.71484375,0.0,0,0
1772272459.995949,1772272459.9424846,156.73828125,5.859375,142.08984375,734.375,0.0,0,0
1772272459.995986,1772272459.9463809,308.59375,5.37109375,45.41015625,-952.1484375,0.0,0,0
1772272459.996022,1772272459.9502773,20.99609375,-48.828125,-165.0390625,-57.12890625,0.0,0,0
1772272459.99606,1772272459.9541738,-322.75390625,-49.8046875,-198.73046875,-1000.0,0.0,0,0
1772272459.9963331,1772272459.95807,-279.296875,-27.83203125,-42.48046875,-649.90234375,0.0,0,0
1772272459.9963741,1772272459.9619665,104.4921875,-5.859375,153.80859375,598.14453125,0.0,0,0
1772272459.9964118,1772272459.965863,289.0625,-11.23046875,82.03125,-887.6953125,0.0,0,0
1772272460.041306,1772272459.9698882,47.8515625,-51.26953125,-162.109375,69.82421875,0.0,0,0
1772272460.04145,1772272459.9737844,-267.08984375,-58.59375,-211.42578125,-1000.0,0.0,0,0
1772272460.0415082,1772272459.977681,-276.3671875,-24.4140625,-43.9453125,-762.20703125,0.0,0,0
1772272460.0415611,1772272459.9815774,62.98828125,-9.765625,170.8984375,430.6640625,0.0,0,0
1772272460.0416121,1772272459.9854739,298.33984375,-19.04296875,114.2578125,-852.5390625,0.0,0,0
1772272460.041663,1772272459.98937,102.05078125,-27.83203125,-117.67578125,263.18359375,0.0,0,0
1772272460.041715,1772272459.9932666,-258.30078125,-41.50390625,-202.63671875,-1000.0,0.0,0,0
1772272460.041764,1772272459.997163,-302.24609375,-32.71484375,-68.84765625,-893.5546875,0.0,0,0
1772272460.041815,1772272460.0010595,22.4609375,-23.92578125,124.51171875,270.5078125,0.0,0,0
1772272460.0418649,1772272460.0049558,299.31640625,-17.08984375,117.67578125,-852.05078125,0.0,0,0
1772272460.041916,1772272460.0088522,164.0625,-21.484375,-79.58984375,385.7421875,0.0,0,0
1772272460.041965,1772272460.0127487,-225.5859375,-47.36328125,-208.0078125,-900.87890625,0.0,0,0
1772272460.083745,1772272460.0167596,-324.21875,-37.109375,-91.30859375,-1000.0,0.0,0,0
1772272460.083829,1772272460.0206559,-16.6015625,-11.23046875,146.97265625,104.98046875,0.0,0,0
1772272460.083873,1772272460.0245523,275.87890625,6.34765625,164.55078125,-862.3046875,0.0,0,0
1772272460.0839128,1772272460.0284488,190.4296875,-8.30078125,-64.453125,511.71875,0.0,0,0
1772272460.08395,1772272460.0323453,-200.68359375,-33.69140625,-215.8203125,-761.23046875,0.0,0,0
1772272460.083988,1772272460.0362418,-369.62890625,-41.50390625,-103.02734375,-1000.0,0.0,0,0
1772272460.0840251,1772272460.0401382,-92.28515625,-16.6015625,129.39453125,-36.1328125,0.0,0,0
1772272460.084063,1772272460.0440345,250.9765625,13.671875,166.015625,-883.7890625,0.0,0,0
1772272460.084099,1772272460.047931,181.15234375,-17.578125,-48.33984375,565.4296875,0.0,0,0
1772272460.084136,1772272460.0518274,-244.140625,-55.6640625,-216.30859375,-681.640625,0.0,0,0
1772272460.0841768,1772272460.055724,-436.03515625,-32.2265625,-123.046875,-1000.0,0.0,0,0
1772272460.084214,1772272460.0596204,-189.453125,-9.765625,94.7265625,-236.328125,0.0,0,0
1772272460.1290472,1772272460.0636213,147.94921875,4.8828125,168.45703125,-958.0078125,0.0,0,0
1772272460.129148,1772272460.0675178,128.41796875,-8.30078125,19.53125,711.42578125,0.0,0,0
1772272460.129181,1772272460.071414,-258.7890625,-56.640625,-192.3828125,-519.04296875,0.0,0,0
1772272460.129212,1772272460.0753105,-483.88671875,-53.22265625,-142.578125,-1000.0,0.0,0,0
1772272460.129241,1772272460.079207,-297.36328125,-30.76171875,76.66015625,-389.6484375,0.0,0,0
1772272460.12927,1772272460.0831034,56.15234375,-16.11328125,170.8984375,915.0390625,0.0,0,0
1772272460.1292999,1772272460.087,118.1640625,-20.5078125,59.08203125,872.55859375,0.0,0,0
1772272460.129328,1772272460.0908964,-238.76953125,-66.40625,-181.640625,-334.47265625,0.0,0,0
1772272460.1293728,1772272460.0947928,-474.609375,-87.40234375,-166.015625,-1000.0,0.0,0,0
1772272460.1294038,1772272460.0986893,-321.2890625,-67.87109375,67.87109375,-496.58203125,0.0,0,0
1772272460.1294332,1772272460.1025856,33.203125,-56.15234375,174.8046875,784.1796875,0.0,0,0
1772272460.129462,1772272460.106482,188.4765625,-54.19921875,79.1015625,-998.046875,0.0,0,0
1772272460.174906,1772272460.1104748,-124.51171875,-83.0078125,-133.30078125,-154.78515625,0.0,0,0
1772272460.17504,1772272460.1143713,-417.96875,-91.796875,-172.36328125,-1000.0,0.0,0,0
1772272460.1750982,1772272460.1182678,-292.48046875,-63.4765625,32.71484375,-583.984375,0.0,0,0
1772272460.1751502,1772272460.1221642,89.35546875,-51.7578125,206.0546875,676.26953125,0.0,0,0
1772272460.175203,1772272460.1260607,250.9765625,-62.01171875,95.21484375,-915.0390625,0.0,0,0
1772272460.175254,1772272460.1299572,-7.8125,-80.56640625,-133.30078125,26.85546875,0.0,0,0
1772272460.175305,1772272460.1338537,-330.56640625,-92.7734375,-174.31640625,-1000.0,0.0,0,0
1772272460.175355,1772272460.1377501,-319.82421875,-94.7265625,-17.578125,-681.15234375,0.0,0,0
1772272460.175405,1772272460.1416466,39.55078125,-60.05859375,164.0625,551.7578125,0.0,0,0
1772272460.175455,1772272460.145543,262.6953125,-45.8984375,92.7734375,-863.28125,0.0,0,0
1772272460.175505,1772272460.1494396,70.80078125,-76.171875,-128.90625,185.05859375,0.0,0,0
1772272460.175554,1772272460.153336,-264.6484375,-83.0078125,-192.3828125,-1000.0,0.0,0,0
1772272460.2189178,1772272460.1573172,-287.59765625,-58.10546875,-37.109375,-800.78125,0.0,0,0
1772272460.219022,1772272460.1612136,65.4296875,-32.2265625,170.41015625,406.25,0.0,0,0
1772272460.21908,1772272460.16511,322.75390625,-28.80859375,124.51171875,-853.515625,0.0,0,0
1772272460.219133,1772272460.1690066,147.4609375,-56.640625,-108.3984375,337.890625,0.0,0,0
1772272460.219189,1772272460.172903,-225.09765625,-81.54296875,-208.49609375,-961.42578125,0.0,0,0
1772272460.21924,1772272460.1767995,-300.78125,-51.7578125,-72.75390625,-900.87890625,0.0,0,0
1772272460.219276,1772272460.180696,55.6640625,-14.16015625,143.5546875,289.0625,0.0,0,0
1772272460.219313,1772272460.1845925,312.5,-43.9453125,108.88671875,-857.91015625,0.0,0,0
1772272460.21935,1772272460.188489,157.71484375,-67.3828125,-112.79296875,441.89453125,0.0,0,0
1772272460.219388,1772272460.1923854,-187.01171875,-67.3828125,-233.88671875,-847.16796875,0.0,0,0
1772272460.219428,1772272460.196282,-295.41015625,-57.6171875,-117.1875,-1000.0,0.0,0,0
1772272460.219468,1772272460.2001784,-12.20703125,-25.390625,115.72265625,94.23828125,0.0,0,0
1772272460.279447,1772272460.2041528,301.7578125,-11.23046875,151.3671875,-877.9296875,0.0,0,0
1772272460.2795808,1772272460.2080493,255.859375,-34.1796875,-38.57421875,592.28515625,0.0,0,0
1772272460.2796412,1772272460.2119458,-124.51171875,-51.26953125,-237.3046875,-661.62109375,0.0,0,0
1772272460.279696,1772272460.2158422,-312.98828125,-35.64453125,-153.80859375,-1000.0,0.0,0,0
1772272460.2797492,1772272460.2197387,-61.03515625,-17.578125,104.98046875,-38.57421875,0.0,0,0
1772272460.279802,1772272460.2236352,265.625,-2.9296875,174.8046875,-903.80859375,0.0,0,0
1772272460.279854,1772272460.2275317,236.328125,-45.41015625,-12.20703125,688.4765625,0.0,0,0
1772272460.279905,1772272460.2314281,-136.23046875,-78.125,-226.5625,-522.94921875,0.0,0,0
1772272460.279958,1772272460.2353249,-359.375,-47.36328125,-166.015625,-1000.0,0.0,0,0
1772272460.28001,1772272460.2392213,-125.9765625,-15.13671875,66.40625,-190.91796875,0.0,0,0
1772272460.280061,1772272460.2431178,257.8125,10.25390625,150.87890625,-961.42578125,0.0,0,0
1772272460.280112,1772272460.2470143,270.01953125,-24.4140625,-7.8125,818.359375,0.0,0,0
1772272460.3244202,1772272460.2509847,-88.37890625,-44.921875,-240.234375,-343.75,0.0,0,0
1772272460.3245282,1772272460.2548811,-349.609375,-30.76171875,-208.0078125,-1000.0,0.0,0,0
1772272460.324589,1772272460.2587776,-172.36328125,-25.87890625,23.4375,-369.62890625,0.0,0,0
1772272460.324641,1772272460.262674,189.94140625,-13.18359375,125.48828125,927.24609375,0.0,0,0
1772272460.324694,1772272460.2665706,253.90625,-11.23046875,0.48828125,926.26953125,0.0,0,0
1772272460.324746,1772272460.270467,-67.3828125,-29.78515625,-208.984375,-238.28125,0.0,0,0
1772272460.324796,1772272460.2743635,-340.33203125,-55.17578125,-191.89453125,-1000.0,0.0,0,0
1772272460.3248582,1772272460.27826,-222.16796875,-48.828125,10.25390625,-518.5546875,0.0,0,0
1772272460.3249102,1772272460.2821567,149.90234375,-9.765625,136.71875,764.6484375,0.0,0,0
1772272460.32496,1772272460.2860532,284.66796875,-4.39453125,36.62109375,-966.796875,0.0,0,0
1772272460.3250198,1772272460.2899497,-46.38671875,-26.3671875,-192.87109375,-100.5859375,0.0,0,0
1772272460.32509,1772272460.2938461,-354.4921875,-40.0390625,-206.54296875,-1000.0,0.0,0,0
1772272460.368962,1772272460.2978756,-276.85546875,-22.94921875,-11.71875,-629.39453125,0.0,0,0
1772272460.36907,1772272460.301772,83.984375,10.25390625,165.0390625,622.55859375,0.0,0,0
1772272460.369128,1772272460.3056686,273.92578125,15.13671875,88.8671875,-892.578125,0.0,0,0
1772272460.3691819,1772272460.309565,-4.39453125,-20.5078125,-147.4609375,43.45703125,0.0,0,0
1772272460.3692229,1772272460.3134615,-366.69921875,-50.29296875,-193.84765625,-1000.0,0.0,0,0
1772272460.369261,1772272460.317358,-346.6796875,-29.78515625,-4.39453125,-745.1171875,0.0,0,0
1772272460.369299,1772272460.3212547,17.08984375,-7.8125,182.12890625,457.51953125,0.0,0,0
1772272460.3693361,1772272460.3251512,231.4453125,-10.25390625,124.0234375,-860.3515625,0.0,0,0
1772272460.3693728,1772272460.3290477,-5.37109375,-34.66796875,-100.5859375,133.7890625,0.0,0,0
1772272460.36941,1772272460.3329442,-394.53125,-58.10546875,-177.734375,-1000.0,0.0,0,0
1772272460.369455,1772272460.3368406,-443.84765625,-36.62109375,-10.25390625,-904.78515625,0.0,0,0
1772272460.369505,1772272460.340737,-78.61328125,11.71875,211.42578125,233.3984375,0.0,0,0
1772272460.414151,1772272460.344752,166.015625,20.99609375,162.59765625,-832.03125,0.0,0,0
1772272460.4142442,1772272460.3486485,-30.2734375,-34.1796875,-82.03125,231.4453125,0.0,0,0
1772272460.414297,1772272460.352545,-384.765625,-73.73046875,-184.08203125,-1000.0,0.0,0,0
1772272460.414349,1772272460.3564415,-479.4921875,-49.8046875,-56.15234375,-994.62890625,0.0,0,0
1772272460.414401,1772272460.3603382,-168.45703125,-11.71875,175.29296875,99.12109375,0.0,0,0
1772272460.414453,1772272460.3642347,161.1328125,1.46484375,186.5234375,-847.65625,0.0,0,0
1772272460.414504,1772272460.3681312,77.1484375,-6.8359375,-39.0625,426.7578125,0.0,0,0
1772272460.414554,1772272460.3720276,-293.45703125,-39.0625,-214.84375,-848.14453125,0.0,0,0
1772272460.414604,1772272460.375924,-426.7578125,-75.1953125,-135.25390625,-1000.0,0.0,0,0
1772272460.4146528,1772272460.3798208,-124.0234375,-55.6640625,134.27734375,-28.3203125,0.0,0,0
1772272460.414716,1772272460.3837173,224.609375,-11.71875,180.17578125,-877.9296875,0.0,0,0
1772272460.414782,1772272460.3876138,172.36328125,-35.15625,-49.31640625,568.359375,0.0,0,0
1772272460.4597309,1772272460.3916254,-206.0546875,-63.96484375,-251.953125,-692.3828125,0.0,0,0
1772272460.459877,1772272460.3955219,-386.23046875,-55.17578125,-163.57421875,-1000.0,0.0,0,0
1772272460.45992,1772272460.3994184,-71.77734375,-27.83203125,100.09765625,-111.81640625,0.0,0,0
1772272460.45996,1772272460.4033148,328.125,-9.27734375,179.19921875,-918.9453125,0.0,0,0
1772272460.459999,1772272460.4072115,296.38671875,-26.85546875,-10.25390625,719.7265625,0.0,0,0
1772272460.4600372,1772272460.411108,-84.47265625,-53.7109375,-224.12109375,-486.328125,0.0,0,0
1772272460.460074,1772272460.4150045,-314.94140625,-76.171875,-172.8515625,-1000.0,0.0,0,0
1772272460.4601102,1772272460.4189012,-87.40234375,-43.9453125,64.453125,-226.5625,0.0,0,0
1772272460.460146,1772272460.4227977,328.125,-10.7421875,150.390625,-973.14453125,0.0,0,0
1772272460.4601831,1772272460.4266942,362.79296875,-27.83203125,-22.4609375,838.37890625,0.0,0,0
1772272460.4602208,1772272460.4305909,-14.16015625,-42.96875,-250.0,-325.1953125,0.0,0,0
1772272460.460257,1772272460.4344873,-297.8515625,-54.6875,-227.05078125,-1000.0,0.0,0,0
1772272460.504437,1772272460.438489,-146.97265625,-31.73828125,30.2734375,-364.74609375,0.0,0,0
1772272460.504535,1772272460.4423854,244.140625,1.46484375,158.203125,916.50390625,0.0,0,0
1772272460.5045729,1772272460.4462821,367.67578125,-9.765625,23.92578125,983.88671875,0.0,0,0
1772272460.504611,1772272460.4501786,47.8515625,-36.1328125,-202.1484375,-131.8359375,0.0,0,0
1772272460.504649,1772272460.454075,-289.0625,-50.29296875,-211.9140625,-1000.0,0.0,0,0
1772272460.504689,1772272460.4579718,-188.4765625,-30.2734375,29.296875,-487.3046875,0.0,0,0
1772272460.504726,1772272460.4618683,201.171875,6.34765625,184.5703125,799.8046875,0.0,0,0
1772272460.5047622,1772272460.4657648,360.3515625,-15.13671875,48.828125,-945.3125,0.0,0,0
1772272460.5048,1772272460.4696615,69.3359375,-74.70703125,-227.05078125,-31.25,0.0,0,0
1772272460.50484,1772272460.473558,-270.01953125,-51.7578125,-250.9765625,-1000.0,0.0,0,0
1772272460.5048761,1772272460.4774544,-210.44921875,-18.06640625,-11.71875,-599.12109375,0.0,0,0
1772272460.5049129,1772272460.4813511,168.9453125,-21.97265625,178.22265625,667.48046875,0.0,0,0
1772272460.5791628,1772272460.4854944,355.95703125,-25.87890625,72.75390625,-890.13671875,0.0,0,0
1772272460.579273,1772272460.489391,96.19140625,-30.76171875,-180.6640625,80.078125,0.0,0,0
1772272460.579315,1772272460.4932876,-252.9296875,-36.1328125,-248.046875,-1000.0,0.0,0,0
1772272460.579354,1772272460.4971843,-262.20703125,-40.0390625,-54.6875,-727.5390625,0.0,0,0
1772272460.579392,1772272460.5010808,121.09375,-12.20703125,159.1796875,485.3515625,0.0,0,0
1772272460.5794408,1772272460.5049775,397.4609375,10.7421875,125.9765625,-849.609375,0.0,0,0
1772272460.579478,1772272460.508874,183.10546875,-5.37109375,-122.0703125,278.3203125,0.0,0,0
1772272460.579517,1772272460.5127707,-250.9765625,-40.52734375,-258.30078125,-1000.0,0.0,0,0
1772272460.579554,1772272460.5166671,-319.3359375,-31.73828125,-89.35546875,-901.85546875,0.0,0,0
1772272460.579604,1772272460.5205638,63.96484375,-1.46484375,173.828125,287.109375,0.0,0,0
1772272460.579659,1772272460.5244603,350.5859375,-11.71875,158.203125,-847.16796875,0.0,0,0
1772272460.579697,1772272460.528357,182.6171875,-24.90234375,-95.703125,395.5078125,0.0,0,0
1772272460.594411,1772272460.5323412,-229.4921875,-41.9921875,-222.65625,-896.484375,0.0,0,0
1772272460.594477,1772272460.536238,-349.609375,-29.296875,-87.40234375,-1000.0,0.0,0,0
1772272460.594516,1772272460.5401344,-19.04296875,-17.578125,161.62109375,128.41796875,0.0,0,0
1772272460.5945542,1772272460.5440311,300.29296875,-18.5546875,174.8046875,-855.46875,0.0,0,0
1772272460.594592,1772272460.5479279,193.359375,-1.953125,-80.56640625,486.81640625,0.0,0,0
1772272460.594636,1772272460.5518243,-235.83984375,-9.765625,-227.5390625,-793.45703125,0.0,0,0
1772272460.5946739,1772272460.555721,-396.484375,-25.390625,-91.796875,-1000.0,0.0,0,0
1772272460.594711,1772272460.5596175,-116.2109375,-30.76171875,125.9765625,-25.87890625,0.0,0,0
1772272460.594748,1772272460.5635142,238.76953125,-6.8359375,194.3359375,-876.46484375,0.0,0,0
1772272460.594785,1772272460.5674107,187.98828125,-12.20703125,-18.06640625,555.17578125,0.0,0,0
1772272460.594823,1772272460.5713074,-273.92578125,-61.5234375,-259.27734375,-703.125,0.0,0,0
1772272460.59486,1772272460.5752041,-496.09375,-51.7578125,-151.85546875,-1000.0,0.0,0,0
1772272460.6397471,1772272460.579178,-247.0703125,-15.625,132.32421875,-213.37890625,0.0,0,0
1772272460.6398542,1772272460.5830748,114.74609375,-2.9296875,194.3359375,-935.546875,0.0,0,0
1772272460.639911,1772272460.5869713,118.65234375,-36.62109375,0.48828125,683.59375,0.0,0,0
1772272460.639967,1772272460.590868,-298.828125,-64.94140625,-216.30859375,-553.7109375,0.0,0,0
1772272460.64002,1772272460.5947645,-580.078125,-29.78515625,-178.7109375,-1000.0,0.0,0,0
1772272460.640085,1772272460.5986612,-365.234375,15.13671875,94.7265625,-364.74609375,0.0,0,0
1772272460.640136,1772272460.602558,50.78125,3.90625,204.1015625,965.33203125,0.0,0,0
1772272460.640194,1772272460.6064544,115.72265625,-39.55078125,28.3203125,813.4765625,0.0,0,0
1772272460.640244,1772272460.610351,-264.16015625,-41.9921875,-215.33203125,-413.57421875,0.0,0,0
1772272460.6403022,1772272460.6142476,-547.36328125,-32.71484375,-199.21875,-1000.0,0.0,0,0
1772272460.640351,1772272460.6181443,-391.11328125,-6.8359375,74.70703125,-491.69921875,0.0,0,0
1772272460.6404102,1772272460.622041,52.24609375,9.27734375,219.23828125,818.84765625,0.0,0,0
1772272460.6983109,1772272460.6259987,202.63671875,-14.16015625,64.94140625,968.75,0.0,0,0
1772272460.698453,1772272460.6298954,-143.06640625,-35.64453125,-190.4296875,-218.75,0.0,0,0
1772272460.698505,1772272460.6337922,-478.515625,-49.31640625,-202.63671875,-1000.0,0.0,0,0
1772272460.698556,1772272460.6376886,-375.48828125,-45.8984375,40.52734375,-554.19921875,0.0,0,0
1772272460.6987672,1772272460.6415854,72.265625,-6.34765625,205.56640625,719.23828125,0.0,0,0
1772272460.698821,1772272460.6454818,275.87890625,-13.671875,80.56640625,-925.78125,0.0,0,0
1772272460.698872,1772272460.6493785,-6.8359375,-83.0078125,-172.8515625,-18.06640625,0.0,0,0
1772272460.698934,1772272460.6532753,-366.69921875,-96.6796875,-232.91015625,-1000.0,0.0,0,0
1772272460.698983,1772272460.6571717,-300.29296875,-64.453125,-25.390625,-652.83203125,0.0,0,0
1772272460.699032,1772272460.6610684,140.625,-16.6015625,194.3359375,587.890625,0.0,0,0
1772272460.699083,1772272460.6649652,380.37109375,-0.48828125,108.3984375,-863.76953125,0.0,0,0
1772272460.699144,1772272460.6688616,131.8359375,-34.66796875,-155.76171875,153.3203125,0.0,0,0
1772272460.7434108,1772272460.672885,-252.9296875,-58.10546875,-253.90625,-1000.0,0.0,0,0
1772272460.7434702,1772272460.6767817,-270.01953125,-42.96875,-66.89453125,-777.83203125,0.0,0,0
1772272460.743507,1772272460.6806781,143.06640625,-11.71875,199.70703125,428.22265625,0.0,0,0
1772272460.743545,1772272460.6845748,440.91796875,-13.671875,150.87890625,-852.5390625,0.0,0,0
1772272460.743582,1772272460.6884716,212.40234375,-52.734375,-123.046875,335.9375,0.0,0,0
1772272460.743619,1772272460.6923683,-226.07421875,-72.265625,-253.90625,-967.28515625,0.0,0,0
1772272460.743655,1772272460.6962647,-309.5703125,-68.84765625,-106.4453125,-915.52734375,0.0,0,0
1772272460.743692,1772272460.7001615,86.9140625,-51.26953125,176.26953125,282.71484375,0.0,0,0
1772272460.7437282,1772272460.7040582,429.19921875,-27.34375,156.73828125,-853.02734375,0.0,0,0
1772272460.7437649,1772272460.707955,273.92578125,-39.0625,-118.65234375,438.96484375,0.0,0,0
1772272460.743801,1772272460.7118514,-194.82421875,-65.91796875,-255.37109375,-854.98046875,0.0,0,0
1772272460.7438478,1772272460.715748,-326.171875,-47.8515625,-129.39453125,-1000.0,0.0,0,0
1772272460.788469,1772272460.7197611,53.7109375,-14.16015625,133.30078125,124.0234375,0.0,0,0
1772272460.7885492,1772272460.7236578,400.390625,-11.71875,167.96875,-870.1171875,0.0,0,0
1772272460.7886,1772272460.7275546,294.43359375,-24.4140625,-76.171875,568.84765625,0.0,0,0
1772272460.7886488,1772272460.731451,-162.59765625,-56.15234375,-269.04296875,-689.453125,0.0,0,0
1772272460.788706,1772272460.7353477,-362.79296875,-80.56640625,-160.64453125,-1000.0,0.0,0,0
1772272460.788748,1772272460.7392445,-64.94140625,-40.52734375,136.23046875,-44.43359375,0.0,0,0
1772272460.788785,1772272460.7431412,345.21484375,-0.9765625,201.171875,-889.6484375,0.0,0,0
1772272460.7888331,1772272460.747038,329.1015625,-18.5546875,-58.59375,654.78515625,0.0,0,0
1772272460.7888691,1772272460.7509344,-113.76953125,-56.640625,-265.625,-569.3359375,0.0,0,0
1772272460.788906,1772272460.754831,-361.81640625,-58.59375,-169.921875,-1000.0,0.0,0,0
1772272460.788942,1772272460.7587278,-104.4921875,-24.90234375,85.9375,-189.94140625,0.0,0,0
1772272460.7889779,1772272460.7626245,323.73046875,-11.71875,187.5,-945.80078125,0.0,0,0
1772272460.879103,1772272460.7668562,375.0,-20.99609375,-11.23046875,797.36328125,0.0,0,0
1772272460.879236,1772272460.770753,-55.17578125,-28.3203125,-251.46484375,-379.39453125,0.0,0,0
1772272460.8792782,1772272460.7746496,-372.55859375,-26.85546875,-201.66015625,-1000.0,0.0,0,0
1772272460.879317,1772272460.7785463,-176.26953125,-6.34765625,53.7109375,-315.4296875,0.0,0,0
1772272460.879354,1772272460.782443,305.17578125,13.671875,168.45703125,964.84375,0.0,0,0
1772272460.879392,1772272460.7863398,423.828125,-8.30078125,14.16015625,933.10546875,0.0,0,0
1772272460.879429,1772272460.7902365,18.06640625,-45.41015625,-252.44140625,-216.30859375,0.0,0,0
1772272460.87947,1772272460.7941332,-324.70703125,-52.734375,-229.00390625,-1000.0,0.0,0,0
1772272460.8795068,1772272460.79803,-177.734375,-41.015625,12.6953125,-453.125,0.0,0,0
1772272460.879589,1772272460.8019266,273.92578125,-13.18359375,162.109375,837.890625,0.0,0,0
1772272460.8796391,1772272460.8058233,419.921875,-5.859375,64.94140625,-980.95703125,0.0,0,0
1772272460.8796768,1772272460.80972,38.57421875,-43.45703125,-209.47265625,-104.4921875,0.0,0,0
1772272460.8822029,1772272460.8137305,-356.93359375,-59.08203125,-252.44140625,-1000.0,0.0,0,0
1772272460.882276,1772272460.8176272,-259.27734375,-11.71875,-6.34765625,-548.828125,0.0,0,0
1772272460.882318,1772272460.821524,221.6796875,17.578125,202.1484375,729.98046875,0.0,0,0
1772272460.882356,1772272460.8254206,414.0625,-10.25390625,70.80078125,-896.484375,0.0,0,0
1772272460.882394,1772272460.8293173,83.984375,-34.1796875,-221.6796875,55.6640625,0.0,0,0
1772272460.882431,1772272460.833214,-306.640625,-49.31640625,-257.32421875,-1000.0,0.0,0,0
1772272460.882473,1772272460.8371108,-286.62109375,-26.85546875,-9.765625,-672.36328125,0.0,0,0
1772272460.8825128,1772272460.8410075,147.94921875,12.20703125,217.28515625,567.3828125,0.0,0,0
1772272460.882551,1772272460.8449042,426.26953125,3.41796875,124.0234375,-856.93359375,0.0,0,0
1772272460.8825998,1772272460.848801,161.1328125,-33.69140625,-171.38671875,153.80859375,0.0,0,0
1772272460.882659,1772272460.8526976,-312.5,-64.94140625,-277.83203125,-1000.0,0.0,0,0
1772272460.882698,1772272460.8565946,-371.09375,-52.24609375,-77.63671875,-839.84375,0.0,0,0
1772272460.924788,1772272460.8605819,95.703125,-10.25390625,185.05859375,340.8203125,0.0,0,0
1772272460.92491,1772272460.8644788,420.8984375,-8.7890625,125.9765625,-839.84375,0.0,0,0
1772272460.92497,1772272460.8683755,217.7734375,-27.34375,-141.11328125,279.296875,0.0,0,0
1772272460.925023,1772272460.8722723,-254.8828125,-33.69140625,-255.859375,-991.2109375,0.0,0,0
1772272460.925073,1772272460.876169,-375.48828125,-28.3203125,-127.9296875,-970.703125,0.0,0,0
1772272460.9251242,1772272460.8800657,45.41015625,-1.953125,171.38671875,168.45703125,0.0,0,0
1772272460.925174,1772272460.8839624,412.109375,15.625,183.59375,-843.26171875,0.0,0,0
1772272460.9252238,1772272460.887859,258.7890625,-38.0859375,-124.0234375,421.875,0.0,0,0
1772272460.9252741,1772272460.8917558,-219.7265625,-75.68359375,-276.3671875,-872.0703125,0.0,0,0
1772272460.925326,1772272460.8956528,-387.6953125,-35.15625,-132.32421875,-1000.0,0.0,0,0
1772272460.925378,1772272460.8995495,-35.64453125,10.7421875,133.30078125,55.17578125,0.0,0,0
1772272460.925428,1772272460.9034462,358.88671875,16.11328125,176.7578125,-868.1640625,0.0,0,0
1772272460.969367,1772272460.907426,291.50390625,-5.37109375,-78.61328125,566.89453125,0.0,0,0
1772272460.9695091,1772272460.9113228,-205.078125,-41.015625,-297.36328125,-694.82421875,0.0,0,0
1772272460.969567,1772272460.9152195,-443.84765625,-42.48046875,-167.96875,-1000.0,0.0,0,0
1772272460.96962,1772272460.9191163,-118.1640625,-10.7421875,124.51171875,-92.7734375,0.0,0,0
1772272460.969663,1772272460.923013,300.78125,0.9765625,176.7578125,-913.57421875,0.0,0,0
1772272460.969706,1772272460.92691,301.7578125,-14.16015625,-19.04296875,719.23828125,0.0,0,0
1772272460.969743,1772272460.9308066,-140.13671875,-50.29296875,-252.44140625,-490.234375,0.0,0,0
1772272460.969824,1772272460.9347034,-452.63671875,-57.6171875,-202.1484375,-1000.0,0.0,0,0
1772272460.969863,1772272460.9386,-214.84375,-20.5078125,66.40625,-258.30078125,0.0,0,0
1772272460.969905,1772272460.9424968,216.30859375,-14.16015625,170.8984375,-981.4453125,0.0,0,0
1772272460.969942,1772272460.9463935,310.05859375,-12.6953125,-18.5546875,834.47265625,0.0,0,0
1772272460.9699788,1772272460.9502904,-87.890625,-22.94921875,-286.62109375,-356.93359375,0.0,0,0
1772272461.0151439,1772272460.9542596,-464.84375,-56.15234375,-250.0,-1000.0,0.0,0,0
1772272461.015231,1772272460.9581563,-282.71484375,-30.76171875,46.875,-364.2578125,0.0,0,0
1772272461.015284,1772272460.9620533,181.15234375,8.30078125,193.84765625,933.10546875,0.0,0,0
1772272461.0153348,1772272460.96595,319.3359375,-6.34765625,20.99609375,944.82421875,0.0,0,0
1772272461.015386,1772272460.9698467,-63.4765625,-42.48046875,-256.34765625,-219.7265625,0.0,0,0
1772272461.015438,1772272460.9737434,-448.2421875,-47.36328125,-240.234375,-1000.0,0.0,0,0
1772272461.015488,1772272460.9776402,-320.80078125,-30.2734375,16.6015625,-522.94921875,0.0,0,0
1772272461.01572,1772272460.981537,167.96875,-9.765625,172.8515625,761.23046875,0.0,0,0
1772272461.015775,1772272460.9854338,372.55859375,-3.90625,62.01171875,-941.89453125,0.0,0,0
1772272461.0158331,1772272460.9893305,18.06640625,-31.73828125,-201.66015625,-47.36328125,0.0,0,0
1772272461.015886,1772272460.9932272,-420.8984375,-66.40625,-276.85546875,-1000.0,0.0,0,0
1772272461.015934,1772272460.997124,-350.5859375,-41.9921875,-26.3671875,-606.4453125,0.0,0,0
1772272461.075146,1772272461.0010846,137.20703125,-14.16015625,224.12109375,653.3203125,0.0,0,0
1772272461.075264,1772272461.0049815,373.046875,-16.11328125,116.69921875,-877.44140625,0.0,0,0
1772272461.0753028,1772272461.0088782,94.23828125,-30.76171875,-168.45703125,92.7734375,0.0,0,0
1772272461.075341,1772272461.012775,-363.28125,-38.57421875,-233.3984375,-1000.0,0.0,0,0
1772272461.075379,1772272461.0166717,-414.0625,-19.53125,-27.34375,-768.06640625,0.0,0,0
1772272461.075417,1772272461.0205686,62.01171875,-20.5078125,190.91796875,445.3125,0.0,0,0
1772272461.075457,1772272461.0244653,366.2109375,-37.59765625,107.91015625,-842.28515625,0.0,0,0
1772272461.0754938,1772272461.028362,85.9375,-59.08203125,-173.33984375,200.1953125,0.0,0,0
1772272461.07554,1772272461.0322587,-351.07421875,-62.98828125,-269.04296875,-1000.0,0.0,0,0
1772272461.075583,1772272461.0361557,-416.50390625,-28.3203125,-68.359375,-884.27734375,0.0,0,0
1772272461.07564,1772272461.0400524,-3.41796875,-11.71875,205.56640625,283.69140625,0.0,0,0
1772272461.075683,1772272461.0439491,361.328125,-19.04296875,179.6875,-835.44921875,0.0,0,0
1772272461.119103,1772272461.0479748,171.38671875,-46.875,-113.28125,319.82421875,0.0,0,0
1772272461.119206,1772272461.0518715,-313.4765625,-56.15234375,-276.85546875,-967.28515625,0.0,0,0
1772272461.119263,1772272461.0557683,-447.75390625,-42.48046875,-97.16796875,-1000.0,0.0,0,0
1772272461.119307,1772272461.0596652,-35.15625,-25.390625,182.6171875,120.60546875,0.0,0,0
1772272461.119345,1772272461.063562,359.86328125,-4.8828125,176.7578125,-850.5859375,0.0,0,0
1772272461.119383,1772272461.0674586,241.2109375,-33.203125,-75.68359375,478.02734375,0.0,0,0
1772272461.119421,1772272461.0713556,-253.41796875,-84.47265625,-274.4140625,-803.7109375,0.0,0,0
1772272461.1194592,1772272461.0752523,-458.0078125,-59.5703125,-149.4140625,-1000.0,0.0,0,0
1772272461.1195,1772272461.079149,-101.5625,-24.4140625,138.18359375,-40.0390625,0.0,0,0
1772272461.1195369,1772272461.083046,314.453125,-34.66796875,160.64453125,-880.37109375,0.0,0,0
1772272461.1195772,1772272461.0869427,276.85546875,-40.0390625,-74.21875,593.26171875,0.0,0,0
1772272461.119614,1772272461.0908394,-173.828125,-42.96875,-270.99609375,-668.9453125,0.0,0,0
1772272461.178402,1772272461.094926,-450.1953125,-70.80078125,-153.3203125,-1000.0,0.0,0,0
1772272461.178516,1772272461.098823,-146.97265625,-41.50390625,145.5078125,-122.55859375,0.0,0,0
1772272461.178544,1772272461.1027198,296.38671875,-5.37109375,230.95703125,-917.48046875,0.0,0,0
1772272461.178569,1772272461.1066167,317.87109375,-35.15625,14.6484375,727.05078125,0.0,0,0
1772272461.178594,1772272461.1105134,-132.8125,-69.3359375,-262.6953125,-479.4921875,0.0,0,0
1772272461.178619,1772272461.1144104,-468.75,-62.98828125,-199.21875,-1000.0,0.0,0,0
1772272461.178643,1772272461.118307,-261.23046875,-27.34375,102.05078125,-300.78125,0.0,0,0
1772272461.178667,1772272461.1222038,208.984375,0.0,201.171875,999.0234375,0.0,0,0
1772272461.1786911,1772272461.1261008,301.26953125,-26.85546875,23.4375,830.078125,0.0,0,0
1772272461.178716,1772272461.1299975,-152.83203125,-72.75390625,-254.8828125,-376.46484375,0.0,0,0
1772272461.178741,1772272461.1338944,-519.53125,-70.80078125,-235.3515625,-1000.0,0.0,0,0
1772272461.178765,1772272461.1377912,-350.5859375,-22.94921875,79.1015625,-454.58984375,0.0,0,0
1772272461.2082582,1772272461.1417923,125.48828125,0.48828125,241.69921875,846.19140625,0.0,0,0
1772272461.2083578,1772272461.145689,270.99609375,-17.08984375,74.21875,975.5859375,0.0,0,0
1772272461.208386,1772272461.149586,-118.1640625,-32.71484375,-207.03125,-194.3359375,0.0,0,0
1772272461.208411,1772272461.1534827,-491.2109375,-44.43359375,-220.21484375,-1000.0,0.0,0,0
1772272461.208435,1772272461.1573796,-368.1640625,-29.78515625,31.73828125,-577.1484375,0.0,0,0
1772272461.20846,1772272461.1612763,128.90625,-5.37109375,222.65625,694.82421875,0.0,0,0
1772272461.2084858,1772272461.1651733,392.578125,2.9296875,104.98046875,-914.0625,0.0,0,0
1772272461.20851,1772272461.16907,56.15234375,-44.43359375,-198.2421875,-12.20703125,0.0,0,0
1772272461.208534,1772272461.172967,-393.5546875,-80.56640625,-262.20703125,-1000.0,0.0,0,0
1772272461.208558,1772272461.1768637,-350.09765625,-56.640625,-19.53125,-653.3203125,0.0,0,0
1772272461.208582,1772272461.1807606,139.16015625,-8.30078125,221.19140625,593.26171875,0.0,0,0
1772272461.208606,1772272461.1846573,428.22265625,-5.859375,135.25390625,-860.3515625,0.0,0,0
1772272461.254714,1772272461.1886513,153.80859375,-72.75390625,-157.2265625,152.34375,0.0,0,0
1772272461.254863,1772272461.192548,-294.43359375,-94.7265625,-240.72265625,-1000.0,0.0,0,0
1772272461.254905,1772272461.196445,-311.03515625,-44.921875,-45.41015625,-772.4609375,0.0,0,0
1772272461.254944,1772272461.200342,161.1328125,-9.27734375,198.2421875,440.91796875,0.0,0,0
1772272461.254981,1772272461.2042387,476.5625,-5.859375,132.8125,-852.5390625,0.0,0,0
1772272461.255018,1772272461.2081356,271.484375,-18.5546875,-142.578125,312.5,0.0,0,0
1772272461.255054,1772272461.2120323,-187.5,-32.71484375,-246.09375,-965.8203125,0.0,0,0
1772272461.25509,1772272461.2159293,-349.12109375,-43.9453125,-104.4921875,-954.58984375,0.0,0,0
1772272461.255126,1772272461.219826,83.984375,-11.71875,182.12890625,220.703125,0.0,0,0
1772272461.255162,1772272461.223723,463.37890625,13.671875,164.55078125,-842.28515625,0.0,0,0
1772272461.255198,1772272461.2276196,260.7421875,-34.66796875,-130.859375,403.3203125,0.0,0,0
1772272461.255235,1772272461.2315166,-231.93359375,-53.22265625,-266.6015625,-882.8125,0.0,0,0
1772272461.29827,1772272461.2355,-414.0625,-35.15625,-123.046875,-1000.0,0.0,0,0
1772272461.298393,1772272461.239397,-40.0390625,-11.71875,150.87890625,70.3125,0.0,0,0
1772272461.29842,1772272461.243294,376.953125,2.9296875,175.29296875,-865.234375,0.0,0,0
1772272461.298445,1772272461.2471907,293.9453125,-16.6015625,-86.42578125,544.921875,0.0,0,0
1772272461.298472,1772272461.2510877,-196.2890625,-56.640625,-276.85546875,-727.5390625,0.0,0,0
1772272461.298511,1772272461.2549844,-426.26953125,-45.8984375,-142.578125,-1000.0,0.0,0,0
1772272461.298534,1772272461.2588813,-79.58984375,-5.37109375,125.9765625,-34.1796875,0.0,0,0
1772272461.298558,1772272461.2627783,344.7265625,-12.6953125,170.8984375,-893.5546875,0.0,0,0
1772272461.298582,1772272461.266675,317.87109375,-30.2734375,-44.921875,667.48046875,0.0,0,0
1772272461.298625,1772272461.270572,-166.50390625,-46.875,-279.296875,-564.453125,0.0,0,0
1772272461.298648,1772272461.2744687,-457.03125,-47.8515625,-211.42578125,-1000.0,0.0,0,0
1772272461.2986722,1772272461.2783656,-143.5546875,0.9765625,95.703125,-163.57421875,0.0,0,0
1772272461.3441122,1772272461.2823417,304.6875,0.0,198.2421875,-936.5234375,0.0,0,0
1772272461.3442628,1772272461.2862384,327.63671875,-36.62109375,-6.8359375,793.45703125,0.0,0,0
1772272461.344306,1772272461.2901354,-119.140625,-60.546875,-264.6484375,-389.6484375,0.0,0,0
1772272461.3443468,1772272461.2940323,-453.61328125,-65.4296875,-241.2109375,-1000.0,0.0,0,0
1772272461.344388,1772272461.297929,-227.5390625,-15.13671875,65.4296875,-291.015625,0.0,0,0
1772272461.344425,1772272461.301826,262.6953125,23.4375,229.98046875,980.46875,0.0,0,0
1772272461.344461,1772272461.305723,412.109375,-4.8828125,42.48046875,932.6171875,0.0,0,0
1772272461.344498,1772272461.3096197,-12.6953125,-58.10546875,-278.80859375,-209.47265625,0.0,0,0
1772272461.3445382,1772272461.3135166,-413.57421875,-53.7109375,-278.80859375,-1000.0,0.0,0,0
1772272461.344585,1772272461.3174136,-258.7890625,1.953125,29.296875,-441.40625,0.0,0,0
1772272461.3446221,1772272461.3213103,221.6796875,15.13671875,204.58984375,853.515625,0.0,0,0
1772272461.3448288,1772272461.3252072,401.85546875,0.9765625,58.10546875,-984.375,0.0,0,0
1772272461.389079,1772272461.3291724,18.06640625,-31.73828125,-213.8671875,-111.81640625,0.0,0,0
1772272461.38917,1772272461.3330693,-421.38671875,-49.8046875,-233.3984375,-1000.0,0.0,0,0
1772272461.389227,1772272461.3369663,-325.68359375,-15.13671875,15.625,-563.96484375,0.0,0,0
1772272461.389279,1772272461.340863,166.50390625,-0.9765625,214.35546875,709.47265625,0.0,0,0
1772272461.38933,1772272461.34476,397.94921875,-5.859375,99.609375,-899.4140625,0.0,0,0
1772272461.38938,1772272461.348657,91.30859375,-21.484375,-186.5234375,43.45703125,0.0,0,0
1772272461.389429,1772272461.3525536,-362.3046875,-54.19921875,-263.671875,-1000.0,0.0,0,0
1772272461.389482,1772272461.3564506,-381.34765625,-38.57421875,-21.484375,-708.49609375,0.0,0,0
1772272461.389533,1772272461.3603475,97.65625,-15.13671875,215.33203125,515.13671875,0.0,0,0
1772272461.389583,1772272461.3642445,384.765625,-18.06640625,139.16015625,-852.05078125,0.0,0,0
1772272461.3896341,1772272461.3681412,116.69921875,-36.1328125,-124.0234375,195.3125,0.0,0,0
1772272461.389684,1772272461.3720381,-359.86328125,-49.8046875,-235.3515625,-1000.0,0.0,0,0
1772272461.4639099,1772272461.376147,-415.52734375,-23.4375,-61.03515625,-856.93359375,0.0,0,0
1772272461.464044,1772272461.380044,30.76171875,7.8125,213.8671875,327.63671875,0.0,0,0
1772272461.464076,1772272461.383941,385.7421875,10.7421875,167.48046875,-838.37890625,0.0,0,0
1772272461.464106,1772272461.3878376,188.4765625,-20.5078125,-126.953125,279.78515625,0.0,0,0
1772272461.464136,1772272461.3917346,-324.21875,-50.78125,-256.34765625,-1000.0,0.0,0,0
1772272461.464166,1772272461.3956316,-443.84765625,-41.015625,-85.9375,-950.1953125,0.0,0,0
1772272461.464195,1772272461.3995285,-32.2265625,-13.18359375,201.171875,202.63671875,0.0,0,0
1772272461.464224,1772272461.4034255,346.6796875,-2.9296875,178.7109375,-840.8203125,0.0,0,0
1772272461.464253,1772272461.4073224,187.98828125,-33.69140625,-116.2109375,394.53125,0.0,0,0
1772272461.464283,1772272461.4112191,-296.875,-58.59375,-271.97265625,-879.8828125,0.0,0,0
1772272461.4643111,1772272461.415116,-480.95703125,-41.015625,-126.953125,-1000.0,0.0,0,0
1772272461.464339,1772272461.419013,-138.671875,-12.6953125,140.625,-27.83203125,0.0,0,0
1772272461.4938922,1772272461.4230344,288.0859375,-6.8359375,166.50390625,-871.58203125,0.0,0,0
1772272461.494028,1772272461.4269314,215.8203125,-28.80859375,-57.6171875,557.6171875,0.0,0,0
1772272461.4940732,1772272461.430828,-256.8359375,-48.828125,-239.2578125,-710.44921875,0.0,0,0
1772272461.494112,1772272461.434725,-502.9296875,-41.9921875,-130.859375,-1000.0,0.0,0,0
1772272461.4941509,1772272461.438622,-229.98046875,-14.6484375,144.53125,-155.76171875,0.0,0,0
1772272461.494189,1772272461.442519,213.37890625,2.44140625,224.609375,-907.2265625,0.0,0,0
1772272461.494231,1772272461.446416,247.0703125,-13.671875,-7.8125,652.34375,0.0,0,0
1772272461.494268,1772272461.4503129,-240.234375,-38.57421875,-285.15625,-602.05078125,0.0,0,0
1772272461.494324,1772272461.4542098,-561.03515625,-23.92578125,-175.29296875,-1000.0,0.0,0,0
1772272461.4943612,1772272461.4581068,-328.125,-6.8359375,123.53515625,-308.59375,0.0,0,0
1772272461.494408,1772272461.4620037,91.30859375,-8.7890625,200.68359375,990.234375,0.0,0,0
1772272461.494446,1772272461.4659007,189.94140625,1.953125,37.59765625,824.70703125,0.0,0,0
1772272461.5538392,1772272461.469911,-183.10546875,-15.13671875,-232.91015625,-385.7421875,0.0,0,0
1772272461.553967,1772272461.473808,-568.359375,-30.2734375,-224.609375,-1000.0,0.0,0,0
1772272461.554023,1772272461.477705,-436.03515625,-20.5078125,69.82421875,-457.03125,0.0,0,0
1772272461.554074,1772272461.481602,60.546875,-9.765625,228.02734375,854.4921875,0.0,0,0
1772272461.5541272,1772272461.485499,220.21484375,-12.6953125,55.6640625,949.21875,0.0,0,0
1772272461.5541801,1772272461.4893959,-173.33984375,-29.78515625,-208.49609375,-232.91015625,0.0,0,0
1772272461.5542321,1772272461.4932928,-522.94921875,-50.78125,-209.9609375,-1000.0,0.0,0,0
1772272461.554282,1772272461.4971898,-398.92578125,-36.1328125,26.85546875,-569.3359375,0.0,0,0
1772272461.554333,1772272461.5010865,75.68359375,-7.8125,187.01171875,712.40234375,0.0,0,0
1772272461.554385,1772272461.5049834,301.26953125,-6.34765625,57.12890625,-951.171875,0.0,0,0
1772272461.554434,1772272461.5088804,-14.6484375,-34.1796875,-207.51953125,-91.30859375,0.0,0,0
1772272461.554485,1772272461.5127773,-430.6640625,-55.6640625,-247.55859375,-1000.0,0.0,0,0
1772272461.583489,1772272461.5167785,-399.4140625,-41.9921875,-43.45703125,-664.55078125,0.0,0,0
1772272461.583571,1772272461.5206754,82.51953125,-11.71875,172.8515625,578.61328125,0.0,0,0
1772272461.5836139,1772272461.5245724,374.51171875,-11.71875,84.47265625,-871.58203125,0.0,0,0
1772272461.5836532,1772272461.5284693,98.14453125,-42.48046875,-208.49609375,71.77734375,0.0,0,0
1772272461.583693,1772272461.5323663,-355.46875,-57.6171875,-256.8359375,-1000.0,0.0,0,0
1772272461.58373,1772272461.5362632,-361.328125,-41.9921875,-41.015625,-756.34765625,0.0,0,0
1772272461.583767,1772272461.5401602,101.5625,-21.484375,176.26953125,438.4765625,0.0,0,0
1772272461.5838048,1772272461.5440574,427.24609375,-0.9765625,111.81640625,-849.609375,0.0,0,0
1772272461.5838459,1772272461.5479543,199.70703125,-22.94921875,-138.671875,252.44140625,0.0,0,0
1772272461.583884,1772272461.5518513,-273.4375,-60.546875,-252.44140625,-1000.0,0.0,0,0
1772272461.583931,1772272461.5557482,-374.0234375,-46.38671875,-102.5390625,-911.1328125,0.0,0,0
1772272461.583968,1772272461.5596452,57.12890625,-0.48828125,175.29296875,267.578125,0.0,0,0
1772272461.628528,1772272461.5636358,395.99609375,-18.06640625,142.578125,-842.28515625,0.0,0,0
1772272461.6287029,1772272461.567533,210.44921875,-51.7578125,-140.13671875,373.53515625,0.0,0,0
1772272461.628774,1772272461.57143,-237.79296875,-55.6640625,-268.5546875,-919.921875,0.0,0,0
1772272461.6288278,1772272461.575327,-378.41796875,-45.41015625,-125.48828125,-1000.0,0.0,0,0
1772272461.628902,1772272461.5792239,-7.8125,-37.59765625,141.6015625,145.99609375,0.0,0,0
1772272461.6289542,1772272461.5831208,408.203125,-25.390625,171.38671875,-861.328125,0.0,0,0
1772272461.628993,1772272461.5870178,317.3828125,-12.20703125,-81.54296875,522.94921875,0.0,0,0
1772272461.629032,1772272461.5909147,-210.9375,-60.546875,-287.109375,-739.74609375,0.0,0,0
1772272461.629069,1772272461.5948117,-442.87109375,-76.171875,-184.5703125,-1000.0,0.0,0,0
1772272461.629108,1772272461.5987086,-102.05078125,-40.52734375,107.421875,-48.828125,0.0,0,0
1772272461.629144,1772272461.6026056,357.91015625,-16.11328125,171.875,-891.11328125,0.0,0,0
1772272461.629198,1772272461.6065025,328.61328125,-31.73828125,-44.921875,650.390625,0.0,0,0
1772272461.689277,1772272461.61056,-169.43359375,-89.84375,-286.62109375,-594.23828125,0.0,0,0
1772272461.68943,1772272461.614457,-452.63671875,-69.82421875,-204.1015625,-1000.0,0.0,0,0
1772272461.6894841,1772272461.6183538,-142.578125,-3.41796875,113.28125,-113.76953125,0.0,0,0
1772272461.689537,1772272461.6222508,337.890625,-8.30078125,196.77734375,-917.96875,0.0,0,0
1772272461.689595,1772272461.6261477,350.09765625,-45.41015625,-33.203125,745.1171875,0.0,0,0
1772272461.689646,1772272461.630045,-104.00390625,-56.640625,-275.390625,-448.73046875,0.0,0,0
1772272461.689697,1772272461.633942,-395.5078125,-42.48046875,-196.2890625,-1000.0,0.0,0,0
1772272461.689746,1772272461.6378388,-160.64453125,-30.76171875,52.24609375,-305.6640625,0.0,0,0
1772272461.6897972,1772272461.6417358,302.24609375,-0.48828125,160.64453125,986.81640625,0.0,0,0
1772272461.689852,1772272461.6456327,417.96875,-4.39453125,-4.39453125,871.58203125,0.0,0,0
1772272461.6899111,1772272461.6495297,-8.7890625,-47.8515625,-283.69140625,-315.91796875,0.0,0,0
1772272461.6899798,1772272461.653427,-362.3046875,-32.2265625,-256.8359375,-1000.0,0.0,0,0
1772272461.718507,1772272461.6574,-187.01171875,-7.8125,26.3671875,-412.109375,0.0,0,0
1772272461.7186282,1772272461.6612968,284.66796875,-2.9296875,193.84765625,876.953125,0.0,0,0
1772272461.718688,1772272461.6651938,439.94140625,-3.90625,61.03515625,-995.1171875,0.0,0,0
1772272461.718922,1772272461.6690907,58.59375,-42.48046875,-218.26171875,-126.953125,0.0,0,0
1772272461.71898,1772272461.6729877,-356.93359375,-71.77734375,-262.6953125,-1000.0,0.0,0,0
1772272461.719032,1772272461.676885,-276.85546875,-37.59765625,3.90625,-545.8984375,0.0,0,0
1772272461.719084,1772272461.6807818,218.75,0.48828125,227.05078125,739.74609375,0.0,0,0
1772272461.719122,1772272461.6846788,409.66796875,-20.01953125,67.3828125,-924.31640625,0.0,0,0
1772272461.7191591,1772272461.6885757,53.7109375,-55.17578125,-219.7265625,-14.6484375,0.0,0,0
1772272461.719195,1772272461.6924727,-340.8203125,-66.40625,-246.09375,-1000.0,0.0,0,0
1772272461.71923,1772272461.69637,-333.0078125,-44.921875,-36.62109375,-703.61328125,0.0,0,0
1772272461.719266,1772272461.7002668,113.76953125,-20.01953125,186.5234375,527.34375,0.0,0,0
1772272461.763493,1772272461.7042298,385.25390625,-14.6484375,115.72265625,-855.95703125,0.0,0,0
1772272461.7636669,1772272461.708127,111.328125,-36.1328125,-171.38671875,157.2265625,0.0,0,0
1772272461.7637372,1772272461.712024,-341.30859375,-74.21875,-256.34765625,-1000.0,0.0,0,0
1772272461.7637918,1772272461.715921,-397.94921875,-48.828125,-52.734375,-804.19921875,0.0,0,0
1772272461.7638452,1772272461.7198179,49.8046875,-10.7421875,202.1484375,395.99609375,0.0,0,0
1772272461.7638981,1772272461.723715,363.28125,-18.5546875,166.015625,-842.28515625,0.0,0,0
1772272461.76395,1772272461.727612,130.859375,-64.453125,-141.6015625,261.23046875,0.0,0,0
1772272461.7640011,1772272461.731509,-333.984375,-86.9140625,-278.80859375,-1000.0,0.0,0,0
1772272461.76405,1772272461.735406,-438.4765625,-52.24609375,-90.33203125,-929.19921875,0.0,0,0
1772272461.7641,1772272461.739303,-9.765625,-19.53125,203.125,234.375,0.0,0,0
1772272461.764168,1772272461.7432,347.65625,-21.97265625,188.4765625,-850.09765625,0.0,0,0
1772272461.7642171,1772272461.747097,221.19140625,-32.71484375,-83.984375,434.5703125,0.0,0,0
1772272461.8232388,1772272461.7510512,-250.48828125,-43.45703125,-257.32421875,-844.7265625,0.0,0,0
1772272461.823348,1772272461.7549481,-439.94140625,-30.76171875,-125.9765625,-1000.0,0.0,0,0
1772272461.823405,1772272461.7588453,-58.59375,-3.41796875,156.73828125,42.96875,0.0,0,0
1772272461.8234591,1772272461.7627423,327.63671875,-2.44140625,173.33984375,-861.328125,0.0,0,0
1772272461.823512,1772272461.7666392,264.16015625,-29.78515625,-96.19140625,537.109375,0.0,0,0
1772272461.823563,1772272461.7705364,-194.3359375,-44.921875,-269.53125,-729.98046875,0.0,0,0
1772272461.823615,1772272461.7744334,-453.61328125,-50.78125,-159.1796875,-1000.0,0.0,0,0
1772272461.823665,1772272461.7783303,-142.08984375,-30.2734375,105.95703125,-106.4453125,0.0,0,0
1772272461.823717,1772272461.7822273,310.05859375,-2.44140625,212.40234375,-896.97265625,0.0,0,0
1772272461.823767,1772272461.7861245,289.55078125,-20.99609375,-28.80859375,635.7421875,0.0,0,0
1772272461.823818,1772272461.7900214,-199.70703125,-45.8984375,-277.83203125,-610.3515625,0.0,0,0
1772272461.823869,1772272461.7939184,-477.5390625,-41.9921875,-175.78125,-1000.0,0.0,0,0
1772272461.868536,1772272461.7979374,-206.54296875,-24.4140625,97.16796875,-210.9375,0.0,0,0
1772272461.86866,1772272461.8018343,233.3984375,-12.6953125,192.3828125,-962.40234375,0.0,0,0
1772272461.8687181,1772272461.8057313,296.875,-24.4140625,12.6953125,819.82421875,0.0,0,0
1772272461.868772,1772272461.8096285,-131.34765625,-58.59375,-257.8125,-366.69921875,0.0,0,0
1772272461.8688252,1772272461.8135254,-468.75,-63.4765625,-198.2421875,-1000.0,0.0,0,0
1772272461.868885,1772272461.8174224,-268.06640625,-37.109375,85.9375,-292.96875,0.0,0,0
1772272461.8689358,1772272461.8213196,230.95703125,-7.8125,187.5,982.421875,0.0,0,0
1772272461.8689861,1772272461.8252165,349.12109375,-17.08984375,32.71484375,924.31640625,0.0,0,0
1772272461.869035,1772272461.8291135,-62.5,-49.8046875,-210.9375,-214.35546875,0.0,0,0
1772272461.8690739,1772272461.8330107,-434.5703125,-69.82421875,-215.8203125,-1000.0,0.0,0,0
1772272461.869112,1772272461.8369076,-319.82421875,-34.66796875,43.45703125,-479.4921875,0.0,0,0
1772272461.8691578,1772272461.8408048,151.85546875,0.9765625,198.2421875,819.82421875,0.0,0,0
1772272461.91394,1772272461.8448184,335.9375,-18.06640625,51.7578125,-976.5625,0.0,0,0
1772272461.914059,1772272461.8487153,-14.6484375,-47.8515625,-205.078125,-103.515625,0.0,0,0
1772272461.9141161,1772272461.8526125,-438.96484375,-63.4765625,-233.3984375,-1000.0,0.0,0,0
1772272461.914169,1772272461.8565094,-375.48828125,-33.203125,16.11328125,-572.265625,0.0,0,0
