timestamp,lsl_timestamp,TP9,AF7,AF8,TP10,Right AUX,keypress_A,keypress_B
1765391591.491128,1765391591.4313207,56.15234375,-2.9296875,67.87109375,405.76171875,0.0,0,0
1765391591.491233,1765391591.4352136,24.90234375,-30.76171875,-5.859375,245.1171875,0.0,0,0
1765391591.491252,1765391591.4391067,-62.5,-42.48046875,-108.88671875,-239.74609375,0.0,0,0
1765391591.491265,1765391591.4429996,-104.4921875,-40.0390625,-123.53515625,-444.82421875,0.0,0,0
1765391591.491276,1765391591.4468927,-21.484375,-28.3203125,3.41796875,-34.1796875,0.0,0,0
1765391591.491287,1765391591.4507859,62.98828125,-20.01953125,68.359375,368.1640625,0.0,0,0
1765391591.4913,1765391591.4546788,54.19921875,-12.20703125,7.8125,303.22265625,0.0,0,0
1765391591.4913568,1765391591.458572,-45.8984375,-26.85546875,-96.6796875,-195.80078125,0.0,0,0
1765391591.491369,1765391591.4624648,-108.3984375,-47.8515625,-110.83984375,-480.95703125,0.0,0,0
1765391591.49138,1765391591.466358,-46.875,-30.2734375,-9.27734375,-109.86328125,0.0,0,0
1765391591.4913962,1765391591.4702508,33.69140625,-28.80859375,47.36328125,316.40625,0.0,0,0
1765391591.4914072,1765391591.474144,48.33984375,-29.296875,17.08984375,340.8203125,0.0,0,0
1765391591.5503879,1765391591.4781277,-36.1328125,-34.1796875,-99.609375,-144.04296875,0.0,0,0
1765391591.550483,1765391591.4820206,-104.00390625,-49.8046875,-140.13671875,-483.3984375,0.0,0,0
1765391591.550533,1765391591.4859138,-57.12890625,-43.9453125,-32.2265625,-184.5703125,0.0,0,0
1765391591.5505679,1765391591.489807,31.25,-14.16015625,42.48046875,261.71875,0.0,0,0
1765391591.550602,1765391591.4936998,52.24609375,-8.30078125,8.30078125,368.1640625,0.0,0,0
1765391591.550635,1765391591.497593,-31.73828125,-41.50390625,-95.703125,-95.703125,0.0,0,0
1765391591.550669,1765391591.501486,-100.5859375,-42.96875,-124.51171875,-476.5625,0.0,0,0
1765391591.5507011,1765391591.505379,-69.82421875,-19.04296875,-35.64453125,-247.0703125,0.0,0,0
1765391591.550733,1765391591.509272,23.92578125,-12.20703125,37.109375,226.5625,0.0,0,0
1765391591.550764,1765391591.513165,65.4296875,-16.6015625,35.64453125,406.25,0.0,0,0
1765391591.550795,1765391591.5170581,-16.11328125,-41.9921875,-59.5703125,-26.3671875,0.0,0,0
1765391591.550827,1765391591.5209513,-91.30859375,-57.6171875,-105.95703125,-439.94140625,0.0,0,0
1765391591.596234,1765391591.5249202,-65.4296875,-33.203125,-36.1328125,-290.52734375,0.0,0,0
1765391591.5963578,1765391591.5288131,31.25,-8.7890625,41.50390625,193.359375,0.0,0,0
1765391591.596396,1765391591.5327063,80.56640625,-18.5546875,53.22265625,431.15234375,0.0,0,0
1765391591.596432,1765391591.5365994,3.90625,-53.22265625,-42.96875,28.80859375,0.0,0,0
1765391591.5964649,1765391591.5404923,-83.49609375,-63.96484375,-96.19140625,-416.9921875,0.0,0,0
1765391591.596499,1765391591.5443854,-82.51953125,-49.31640625,-35.64453125,-367.67578125,0.0,0,0
1765391591.596528,1765391591.5482786,6.34765625,-36.1328125,48.33984375,136.71875,0.0,0,0
1765391591.596556,1765391591.5521715,62.01171875,-26.85546875,53.7109375,427.734375,0.0,0,0
1765391591.596585,1765391591.5560646,1.46484375,-33.69140625,-43.9453125,77.1484375,0.0,0,0
1765391591.5966249,1765391591.5599577,-81.0546875,-43.9453125,-111.81640625,-358.88671875,0.0,0,0
1765391591.5966651,1765391591.5638509,-90.8203125,-32.71484375,-79.1015625,-403.3203125,0.0,0,0
1765391591.596734,1765391591.5677438,-4.8828125,-11.23046875,32.2265625,78.61328125,0.0,0,0
1765391591.6417642,1765391591.5718064,57.12890625,-5.859375,59.5703125,419.43359375,0.0,0,0
1765391591.641883,1765391591.5756993,13.671875,-30.76171875,-29.296875,141.6015625,0.0,0,0
1765391591.641932,1765391591.5795925,-71.77734375,-48.828125,-90.8203125,-324.70703125,0.0,0,0
1765391591.641976,1765391591.5834856,-99.12109375,-35.64453125,-68.359375,-440.4296875,0.0,0,0
1765391591.642061,1765391591.5873787,-25.87890625,-16.11328125,34.66796875,22.4609375,0.0,0,0
1765391591.642106,1765391591.5912719,53.7109375,-11.23046875,75.68359375,404.296875,0.0,0,0
1765391591.642148,1765391591.595165,14.6484375,-39.0625,-12.6953125,213.37890625,0.0,0,0
1765391591.6422222,1765391591.599058,-91.30859375,-57.12890625,-106.93359375,-266.6015625,0.0,0,0
1765391591.642265,1765391591.602951,-111.81640625,-45.8984375,-116.2109375,-442.87109375,0.0,0,0
1765391591.642317,1765391591.6068442,-21.97265625,-22.94921875,-6.34765625,-8.30078125,0.0,0,0
1765391591.642357,1765391591.6107373,41.50390625,-24.90234375,43.45703125,386.71875,0.0,0,0
1765391591.642425,1765391591.6146305,24.4140625,-23.4375,15.13671875,286.62109375,0.0,0,0
1765391591.717597,1765391591.6188934,-63.4765625,-24.4140625,-38.0859375,-208.49609375,0.0,0,0
1765391591.7177432,1765391591.6227868,-117.67578125,-32.2265625,-63.96484375,-479.98046875,0.0,0,0
1765391591.717791,1765391591.62668,-45.41015625,-7.32421875,26.85546875,-95.21484375,0.0,0,0
1765391591.7178361,1765391591.630573,36.1328125,11.23046875,69.82421875,335.9375,0.0,0,0
1765391591.717899,1765391591.6344662,35.15625,-7.8125,7.32421875,334.47265625,0.0,0,0
1765391591.717945,1765391591.6383593,-50.29296875,-41.015625,-84.9609375,-153.80859375,0.0,0,0
1765391591.717987,1765391591.6422524,-108.88671875,-40.52734375,-89.35546875,-475.5859375,0.0,0,0
1765391591.718029,1765391591.6461456,-51.26953125,-9.27734375,7.32421875,-147.4609375,0.0,0,0
1765391591.7180731,1765391591.650039,23.4375,5.859375,60.05859375,291.50390625,0.0,0,0
1765391591.7181141,1765391591.653932,38.57421875,-15.625,19.53125,369.62890625,0.0,0,0
1765391591.7181592,1765391591.6578252,-41.50390625,-55.17578125,-88.8671875,-98.14453125,0.0,0,0
1765391591.7182,1765391591.6617184,-121.58203125,-50.78125,-131.8359375,-476.07421875,0.0,0,0
1765391591.733401,1765391591.6657646,-83.49609375,-20.99609375,-41.015625,-230.95703125,0.0,0,0
1765391591.733548,1765391591.669658,11.23046875,-3.90625,40.52734375,235.3515625,0.0,0,0
1765391591.733612,1765391591.673551,50.29296875,-4.8828125,47.36328125,400.87890625,0.0,0,0
1765391591.733676,1765391591.6774442,-34.1796875,-48.828125,-56.15234375,-46.38671875,0.0,0,0
1765391591.7337348,1765391591.6813376,-120.1171875,-77.1484375,-115.234375,-472.16796875,0.0,0,0
1765391591.733794,1765391591.6852307,-94.23828125,-39.0625,-33.203125,-297.36328125,0.0,0,0
1765391591.73385,1765391591.6891239,6.34765625,-9.27734375,51.7578125,197.265625,0.0,0,0
1765391591.733917,1765391591.693017,58.10546875,-18.06640625,63.4765625,426.7578125,0.0,0,0
1765391591.734004,1765391591.6969104,-28.80859375,-49.31640625,-54.19921875,6.8359375,0.0,0,0
1765391591.7341151,1765391591.7008035,-112.79296875,-62.01171875,-123.53515625,-432.12890625,0.0,0,0
1765391591.734184,1765391591.7046967,-98.6328125,-37.109375,-44.921875,-359.86328125,0.0,0,0
1765391591.73426,1765391591.7085898,-5.859375,-8.7890625,47.36328125,120.1171875,0.0,0,0
1765391591.777463,1765391591.7126176,45.41015625,-6.8359375,52.24609375,402.34375,0.0,0,0
1765391591.7776,1765391591.7165108,-22.4609375,-30.76171875,-59.5703125,41.9921875,0.0,0,0
1765391591.7776482,1765391591.720404,-97.16796875,-51.7578125,-120.60546875,-392.08984375,0.0,0,0
1765391591.7776918,1765391591.7242973,-113.28125,-51.26953125,-81.54296875,-401.85546875,0.0,0,0
1765391591.777739,1765391591.7281904,-31.25,-20.5078125,10.7421875,66.89453125,0.0,0,0
1765391591.7777832,1765391591.7320836,46.38671875,-4.39453125,62.5,399.4140625,0.0,0,0
1765391591.777825,1765391591.735977,1.46484375,-25.87890625,-25.390625,124.51171875,0.0,0,0
1765391591.777868,1765391591.73987,-87.890625,-37.59765625,-110.83984375,-337.890625,0.0,0,0
1765391591.777913,1765391591.7437634,-108.88671875,-45.8984375,-81.54296875,-451.66015625,0.0,0,0
1765391591.777956,1765391591.7476566,-20.5078125,-37.59765625,18.06640625,14.16015625,0.0,0,0
1765391591.777998,1765391591.7515497,45.8984375,-18.06640625,48.33984375,396.97265625,0.0,0,0
1765391591.778039,1765391591.755443,22.4609375,-15.13671875,-2.44140625,206.54296875,0.0,0,0
1765391591.8231459,1765391591.7594578,-60.05859375,-31.25,-80.078125,-269.53125,0.0,0,0
1765391591.8232908,1765391591.7633512,-101.5625,-39.0625,-98.14453125,-443.84765625,0.0,0,0
1765391591.823352,1765391591.7672443,-22.4609375,-4.8828125,4.8828125,-5.37109375,0.0,0,0
1765391591.823999,1765391591.7711377,46.38671875,2.9296875,65.4296875,386.71875,0.0,0,0
1765391591.824061,1765391591.7750309,28.3203125,-23.4375,-0.48828125,263.18359375,0.0,0,0
1765391591.824121,1765391591.7789242,-64.453125,-54.19921875,-102.05078125,-232.91015625,0.0,0,0
1765391591.8241768,1765391591.7828174,-104.00390625,-55.6640625,-106.93359375,-468.75,0.0,0,0
1765391591.8242402,1765391591.7867107,-36.1328125,-23.92578125,-0.9765625,-63.4765625,0.0,0,0
1765391591.824301,1765391591.7906039,39.55078125,-9.765625,46.38671875,357.91015625,0.0,0,0
1765391591.8243551,1765391591.7944973,45.8984375,-16.6015625,-6.34765625,329.1015625,0.0,0,0
1765391591.8244228,1765391591.7983904,-56.15234375,-43.9453125,-116.2109375,-175.78125,0.0,0,0
1765391591.824478,1765391591.8022838,-119.62890625,-50.78125,-135.7421875,-479.00390625,0.0,0,0
1765391591.8695831,1765391591.806285,-59.5703125,-21.97265625,-12.6953125,-125.9765625,0.0,0,0
1765391591.8696902,1765391591.8101783,30.76171875,1.46484375,60.05859375,314.453125,0.0,0,0
1765391591.869737,1765391591.8140717,44.921875,-12.6953125,31.73828125,376.46484375,0.0,0,0
1765391591.869772,1765391591.8179648,-45.41015625,-51.26953125,-68.84765625,-106.93359375,0.0,0,0
1765391591.869806,1765391591.8218582,-106.93359375,-59.08203125,-123.046875,-469.7265625,0.0,0,0
1765391591.869838,1765391591.8257513,-56.15234375,-29.296875,-33.69140625,-187.5,0.0,0,0
1765391591.8698702,1765391591.8296447,29.78515625,-20.99609375,52.24609375,270.5078125,0.0,0,0
1765391591.8699038,1765391591.8335378,45.8984375,-35.15625,21.484375,395.01953125,0.0,0,0
1765391591.869938,1765391591.8374312,-39.0625,-53.7109375,-96.19140625,-68.359375,0.0,0,0
1765391591.8699698,1765391591.8413246,-109.86328125,-50.29296875,-137.20703125,-468.75,0.0,0,0
1765391591.870002,1765391591.8452177,-82.51953125,-21.97265625,-47.36328125,-273.92578125,0.0,0,0
1765391591.870034,1765391591.849111,4.8828125,-5.859375,44.43359375,201.171875,0.0,0,0
1765391591.9253912,1765391591.8530931,40.0390625,-14.6484375,40.52734375,400.87890625,0.0,0,0
1765391591.925497,1765391591.8569863,-37.59765625,-41.9921875,-75.1953125,-7.32421875,0.0,0,0
1765391591.925538,1765391591.8608797,-104.00390625,-45.41015625,-127.44140625,-421.875,0.0,0,0
1765391591.925573,1765391591.864773,-96.6796875,-25.87890625,-55.6640625,-334.9609375,0.0,0,0
1765391591.925611,1765391591.8686662,-11.71875,-16.6015625,41.50390625,151.3671875,0.0,0,0
1765391591.925646,1765391591.8725595,45.8984375,-19.04296875,60.05859375,427.24609375,0.0,0,0
1765391591.9256809,1765391591.8764527,-11.23046875,-23.4375,-45.41015625,56.15234375,0.0,0,0
1765391591.925715,1765391591.880346,-87.890625,-33.69140625,-108.88671875,-382.8125,0.0,0,0
1765391591.925751,1765391591.8842394,-96.6796875,-30.2734375,-58.59375,-371.58203125,0.0,0,0
1765391591.925826,1765391591.8881326,-14.16015625,-10.25390625,32.2265625,109.375,0.0,0,0
1765391591.925859,1765391591.892026,49.31640625,-6.34765625,53.7109375,430.6640625,0.0,0,0
1765391591.925907,1765391591.8959193,-4.39453125,-32.2265625,-44.43359375,116.69921875,0.0,0,0
1765391592.017349,1765391591.8998888,-95.703125,-48.828125,-121.58203125,-341.30859375,0.0,0,0
1765391592.017496,1765391591.903782,-117.1875,-38.57421875,-92.28515625,-422.36328125,0.0,0,0
1765391592.017545,1765391591.9076753,-31.25,-20.5078125,13.671875,48.828125,0.0,0,0
1765391592.017588,1765391591.9115686,37.109375,-16.6015625,44.921875,412.59765625,0.0,0,0
1765391592.017629,1765391591.9154618,-6.34765625,-40.0390625,-55.6640625,170.41015625,0.0,0,0
1765391592.01767,1765391591.9193552,-91.30859375,-47.8515625,-134.27734375,-302.24609375,0.0,0,0
1765391592.017715,1765391591.9232485,-125.48828125,-44.921875,-108.88671875,-460.9375,0.0,0,0
1765391592.017758,1765391591.927142,-45.41015625,-35.15625,-2.44140625,-34.1796875,0.0,0,0
1765391592.0177999,1765391591.931035,38.0859375,-8.7890625,57.6171875,372.0703125,0.0,0,0
1765391592.0178409,1765391591.9349284,3.41796875,-26.85546875,-1.953125,228.515625,0.0,0,0
1765391592.0178812,1765391591.9388218,-102.05078125,-71.77734375,-91.30859375,-275.87890625,0.0,0,0
1765391592.017923,1765391591.942715,-143.06640625,-60.546875,-95.21484375,-493.1640625,0.0,0,0
1765391592.020169,1765391591.9467988,-61.5234375,-14.6484375,7.32421875,-82.03125,0.0,0,0
1765391592.0202491,1765391591.9506922,15.13671875,-6.8359375,49.8046875,329.58984375,0.0,0,0
1765391592.020297,1765391591.9545856,6.34765625,-22.4609375,-12.6953125,279.296875,0.0,0,0
1765391592.02034,1765391591.9584787,-74.21875,-39.0625,-110.3515625,-210.44921875,0.0,0,0
1765391592.020382,1765391591.962372,-109.86328125,-41.015625,-136.71875,-493.1640625,0.0,0,0
1765391592.020423,1765391591.9662654,-38.57421875,-23.92578125,-33.69140625,-127.44140625,0.0,0,0
1765391592.0204642,1765391591.9701588,44.921875,-11.71875,60.546875,305.17578125,0.0,0,0
1765391592.0205052,1765391591.9740522,47.8515625,-20.5078125,45.8984375,343.75,0.0,0,0
1765391592.0205472,1765391591.9779456,-44.43359375,-34.66796875,-51.26953125,-137.20703125,0.0,0,0
1765391592.020588,1765391591.981839,-104.00390625,-36.1328125,-82.51953125,-487.79296875,0.0,0,0
1765391592.020632,1765391591.985732,-60.05859375,-24.4140625,-3.90625,-202.1484375,0.0,0,0
1765391592.020673,1765391591.9896255,13.671875,-9.765625,45.41015625,248.046875,0.0,0,0
1765391592.06194,1765391591.993678,47.36328125,-11.23046875,26.85546875,368.65234375,0.0,0,0
1765391592.0621388,1765391591.9975715,-24.4140625,-36.62109375,-82.51953125,-85.9375,0.0,0,0
1765391592.0622342,1765391592.0014648,-101.07421875,-46.38671875,-135.25390625,-476.5625,0.0,0,0
1765391592.062338,1765391592.0053582,-74.21875,-28.3203125,-36.1328125,-266.6015625,0.0,0,0
1765391592.0623932,1765391592.0092516,10.25390625,-7.32421875,56.15234375,213.37890625,0.0,0,0
1765391592.0625112,1765391592.013145,52.734375,-8.30078125,55.6640625,405.2734375,0.0,0,0
1765391592.06259,1765391592.0170383,-26.85546875,-44.921875,-52.24609375,-24.4140625,0.0,0,0
1765391592.062643,1765391592.0209317,-105.95703125,-55.6640625,-112.3046875,-446.2890625,0.0,0,0
1765391592.062693,1765391592.024825,-82.51953125,-20.01953125,-39.0625,-329.58984375,0.0,0,0
1765391592.0627499,1765391592.0287185,8.7890625,5.859375,43.45703125,158.203125,0.0,0,0
1765391592.062834,1765391592.0326118,58.10546875,-8.7890625,35.15625,414.55078125,0.0,0,0
1765391592.062884,1765391592.0365052,-11.71875,-35.15625,-72.75390625,37.109375,0.0,0,0
1765391592.106625,1765391592.0405428,-85.44921875,-40.52734375,-127.44140625,-382.8125,0.0,0,0
1765391592.106726,1765391592.0444362,-83.984375,-30.76171875,-80.078125,-354.4921875,0.0,0,0
1765391592.1067688,1765391592.0483296,4.39453125,-4.39453125,29.78515625,124.0234375,0.0,0,0
1765391592.106804,1765391592.052223,60.05859375,-2.44140625,51.7578125,437.5,0.0,0,0
1765391592.106838,1765391592.0561163,0.48828125,-30.2734375,-66.89453125,103.515625,0.0,0,0
1765391592.106873,1765391592.0600097,-82.03125,-43.45703125,-105.95703125,-356.93359375,0.0,0,0
1765391592.106907,1765391592.063903,-102.05078125,-56.15234375,-66.89453125,-428.7109375,0.0,0,0
1765391592.1069398,1765391592.0677965,-16.6015625,-38.57421875,23.92578125,42.96875,0.0,0,0
1765391592.1069791,1765391592.07169,62.5,-5.37109375,58.59375,420.8984375,0.0,0,0
1765391592.107011,1765391592.0755835,25.87890625,-21.97265625,-26.3671875,188.4765625,0.0,0,0
1765391592.107042,1765391592.0794768,-71.2890625,-49.8046875,-90.33203125,-273.4375,0.0,0,0
1765391592.107074,1765391592.0833702,-101.07421875,-42.96875,-71.2890625,-397.94921875,0.0,0,0
1765391592.151737,1765391592.087389,-12.6953125,-17.578125,23.92578125,52.24609375,0.0,0,0
1765391592.151784,1765391592.0912824,57.6171875,-10.7421875,68.84765625,419.43359375,0.0,0,0
1765391592.15181,1765391592.0951757,27.83203125,-31.25,-4.39453125,234.86328125,0.0,0,0
1765391592.151836,1765391592.099069,-71.77734375,-50.78125,-91.796875,-252.9296875,0.0,0,0
1765391592.15186,1765391592.1029625,-117.1875,-52.734375,-107.421875,-457.51953125,0.0,0,0
1765391592.151885,1765391592.106856,-29.78515625,-20.99609375,-7.8125,-36.1328125,0.0,0,0
1765391592.1519098,1765391592.1107495,50.29296875,-8.7890625,45.41015625,379.8828125,0.0,0,0
1765391592.152087,1765391592.1146429,34.1796875,-24.4140625,-20.5078125,311.03515625,0.0,0,0
1765391592.152114,1765391592.1185362,-54.6875,-39.0625,-101.5625,-189.453125,0.0,0,0
1765391592.1521401,1765391592.1224296,-110.3515625,-53.22265625,-103.515625,-471.19140625,0.0,0,0
1765391592.152166,1765391592.1263232,-45.41015625,-28.3203125,8.7890625,-89.84375,0.0,0,0
1765391592.15219,1765391592.1302166,37.59765625,-5.37109375,63.96484375,327.63671875,0.0,0,0
1765391592.1965508,1765391592.1342306,46.38671875,-13.18359375,22.94921875,338.37890625,0.0,0,0
1765391592.196596,1765391592.1381242,-44.43359375,-42.96875,-72.265625,-140.625,0.0,0,0
1765391592.1966279,1765391592.1420176,-117.67578125,-55.6640625,-99.12109375,-483.88671875,0.0,0,0
1765391592.19666,1765391592.145911,-77.63671875,-39.0625,-13.18359375,-188.4765625,0.0,0,0
1765391592.196692,1765391592.1498046,19.53125,-14.16015625,36.1328125,279.78515625,0.0,0,0
1765391592.196723,1765391592.153698,56.640625,-13.671875,20.01953125,394.53125,0.0,0,0
1765391592.196755,1765391592.1575913,-29.78515625,-49.31640625,-61.5234375,-92.7734375,0.0,0,0
1765391592.196786,1765391592.1614847,-108.88671875,-47.36328125,-94.23828125,-485.3515625,0.0,0,0
1765391592.1968231,1765391592.1653783,-75.68359375,-16.6015625,-13.18359375,-247.55859375,0.0,0,0
1765391592.196855,1765391592.1692717,20.99609375,-4.8828125,47.36328125,222.16796875,0.0,0,0
1765391592.196886,1765391592.173165,47.8515625,-19.04296875,33.203125,381.8359375,0.0,0,0
1765391592.196953,1765391592.1770587,-28.80859375,-39.55078125,-54.6875,-46.38671875,0.0,0,0
1765391592.241528,1765391592.1810584,-104.98046875,-50.29296875,-104.98046875,-453.61328125,0.0,0,0
1765391592.2416189,1765391592.184952,-89.84375,-46.875,-46.38671875,-310.546875,0.0,0,0
1765391592.241683,1765391592.1888454,-1.953125,-32.2265625,43.9453125,171.38671875,0.0,0,0
1765391592.241717,1765391592.1927388,41.50390625,-26.3671875,49.31640625,399.90234375,0.0,0,0
1765391592.241746,1765391592.1966324,-25.390625,-45.41015625,-41.015625,9.27734375,0.0,0,0
1765391592.2417731,1765391592.2005258,-87.890625,-48.828125,-80.56640625,-405.76171875,0.0,0,0
1765391592.241834,1765391592.2044194,-76.66015625,-16.11328125,-34.1796875,-356.93359375,0.0,0,0
1765391592.241867,1765391592.2083127,-9.765625,2.44140625,48.33984375,114.74609375,0.0,0,0
1765391592.241916,1765391592.2122061,44.43359375,-13.18359375,65.91796875,414.55078125,0.0,0,0
1765391592.241975,1765391592.2160997,-0.48828125,-36.62109375,-42.48046875,84.9609375,0.0,0,0
1765391592.242007,1765391592.219993,-89.84375,-52.24609375,-123.046875,-361.81640625,0.0,0,0
1765391592.242034,1765391592.2238867,-105.46875,-43.45703125,-86.9140625,-402.83203125,0.0,0,0
1765391592.3187048,1765391592.2280767,-10.25390625,-10.25390625,24.4140625,67.87109375,0.0,0,0
1765391592.31885,1765391592.2319703,56.15234375,2.44140625,54.6875,412.59765625,0.0,0,0
1765391592.318912,1765391592.235864,9.27734375,-22.94921875,-38.0859375,144.53125,0.0,0,0
1765391592.318944,1765391592.2397573,-76.171875,-43.9453125,-108.88671875,-307.12890625,0.0,0,0
1765391592.318975,1765391592.243651,-103.515625,-38.0859375,-93.75,-416.015625,0.0,0,0
1765391592.3190022,1765391592.2475445,-21.484375,-8.7890625,9.765625,25.390625,0.0,0,0
1765391592.31903,1765391592.251438,45.8984375,2.9296875,43.45703125,392.578125,0.0,0,0
1765391592.319057,1765391592.2553315,12.6953125,-21.97265625,-43.45703125,204.1015625,0.0,0,0
1765391592.3190851,1765391592.259225,-75.1953125,-40.52734375,-109.375,-268.06640625,0.0,0,0
1765391592.3191118,1765391592.2631185,-114.2578125,-41.9921875,-99.609375,-466.796875,0.0,0,0
1765391592.319139,1765391592.2670121,-36.1328125,-19.04296875,0.48828125,-48.33984375,0.0,0,0
1765391592.319168,1765391592.2709055,44.43359375,-1.46484375,52.24609375,367.1875,0.0,0,0
1765391592.3475058,1765391592.274896,30.2734375,-20.5078125,-28.80859375,281.25,0.0,0,0
1765391592.347636,1765391592.2787895,-61.03515625,-47.8515625,-119.62890625,-212.40234375,0.0,0,0
1765391592.347751,1765391592.2826831,-110.83984375,-40.52734375,-111.328125,-474.609375,0.0,0,0
1765391592.347836,1765391592.2865765,-48.33984375,-13.671875,-13.18359375,-93.26171875,0.0,0,0
1765391592.347915,1765391592.2904701,31.25,-2.44140625,49.8046875,316.40625,0.0,0,0
1765391592.348018,1765391592.2943637,39.55078125,-12.20703125,12.6953125,304.19921875,0.0,0,0
1765391592.348077,1765391592.298257,-47.8515625,-40.0390625,-105.95703125,-185.546875,0.0,0,0
1765391592.348162,1765391592.3021507,-108.3984375,-38.57421875,-128.90625,-503.41796875,0.0,0,0
1765391592.3482392,1765391592.3060443,-53.7109375,-17.578125,-10.7421875,-173.828125,0.0,0,0
1765391592.348305,1765391592.3099377,25.87890625,-10.25390625,50.29296875,253.41796875,0.0,0,0
1765391592.348375,1765391592.3138313,41.015625,-12.6953125,21.484375,323.2421875,0.0,0,0
1765391592.348459,1765391592.317725,-48.33984375,-32.2265625,-72.75390625,-145.99609375,0.0,0,0
1765391592.407445,1765391592.3217905,-124.0234375,-42.48046875,-112.79296875,-514.6484375,0.0,0,0
1765391592.40754,1765391592.325684,-82.03125,-22.4609375,-26.85546875,-250.9765625,0.0,0,0
1765391592.407582,1765391592.3295774,9.765625,-5.859375,59.08203125,219.7265625,0.0,0,0
1765391592.4076202,1765391592.333471,36.1328125,-14.16015625,41.9921875,360.3515625,0.0,0,0
1765391592.407653,1765391592.3373647,-44.921875,-28.80859375,-73.2421875,-83.49609375,0.0,0,0
1765391592.407685,1765391592.3412583,-120.1171875,-40.0390625,-116.2109375,-483.3984375,0.0,0,0
1765391592.4077172,1765391592.345152,-93.26171875,-29.78515625,-46.875,-315.91796875,0.0,0,0
1765391592.4077492,1765391592.3490455,-3.41796875,-13.671875,33.69140625,165.0390625,0.0,0,0
1765391592.4077811,1765391592.352939,36.1328125,-16.6015625,50.78125,389.16015625,0.0,0,0
1765391592.407813,1765391592.3568325,-34.1796875,-35.64453125,-47.36328125,-9.765625,0.0,0,0
1765391592.407844,1765391592.360726,-112.3046875,-49.31640625,-113.28125,-430.6640625,0.0,0,0
1765391592.407875,1765391592.3646197,-93.75,-39.55078125,-61.5234375,-340.33203125,0.0,0,0
1765391592.4381518,1765391592.3686748,-3.90625,-15.13671875,8.7890625,158.69140625,0.0,0,0
1765391592.4382222,1765391592.3725684,51.7578125,-8.7890625,22.4609375,440.91796875,0.0,0,0
1765391592.43826,1765391592.376462,-0.48828125,-28.3203125,-59.08203125,76.66015625,0.0,0,0
1765391592.438294,1765391592.3803556,-86.9140625,-46.875,-118.1640625,-359.375,0.0,0,0
1765391592.438327,1765391592.3842492,-96.19140625,-45.8984375,-99.12109375,-367.67578125,0.0,0,0
1765391592.438359,1765391592.3881428,-6.34765625,-20.01953125,-4.8828125,112.3046875,0.0,0,0
1765391592.438391,1765391592.3920364,53.22265625,-6.34765625,48.33984375,452.63671875,0.0,0,0
1765391592.438424,1765391592.39593,-4.39453125,-39.55078125,-42.48046875,141.11328125,0.0,0,0
1765391592.438455,1765391592.3998237,-88.8671875,-61.03515625,-115.234375,-339.35546875,0.0,0,0
1765391592.438487,1765391592.4037173,-103.02734375,-45.8984375,-90.8203125,-426.7578125,0.0,0,0
1765391592.438559,1765391592.407611,-20.01953125,-12.20703125,18.06640625,56.15234375,0.0,0,0
1765391592.438608,1765391592.4115045,45.8984375,-6.34765625,61.03515625,424.8046875,0.0,0,0
1765391592.481778,1765391592.4155445,9.765625,-37.109375,-39.0625,195.3125,0.0,0,0
1765391592.481837,1765391592.4194381,-67.3828125,-44.43359375,-125.48828125,-270.01953125,0.0,0,0
1765391592.481854,1765391592.4233317,-92.28515625,-28.80859375,-101.07421875,-427.24609375,0.0,0,0
1765391592.481869,1765391592.4272254,-16.11328125,-11.71875,12.6953125,2.9296875,0.0,0,0
1765391592.4818828,1765391592.4311192,55.6640625,-5.859375,62.01171875,396.97265625,0.0,0,0
1765391592.4818969,1765391592.4350128,27.34375,-19.53125,-9.27734375,272.4609375,0.0,0,0
1765391592.481911,1765391592.4389064,-62.98828125,-44.921875,-103.02734375,-218.75,0.0,0,0
1765391592.481926,1765391592.4428,-104.98046875,-51.26953125,-116.69921875,-459.47265625,0.0,0,0
1765391592.4819388,1765391592.4466937,-36.1328125,-12.20703125,-16.6015625,-59.08203125,0.0,0,0
1765391592.4819589,1765391592.4505873,52.734375,-5.37109375,59.08203125,355.46875,0.0,0,0
1765391592.481973,1765391592.454481,49.8046875,-38.57421875,13.18359375,313.4765625,0.0,0,0
1765391592.482063,1765391592.4583745,-41.50390625,-41.50390625,-97.65625,-168.45703125,0.0,0,0
1765391592.525804,1765391592.462396,-100.09765625,-34.1796875,-100.5859375,-457.51953125,0.0,0,0
1765391592.525835,1765391592.4662895,-33.203125,-8.7890625,14.16015625,-106.93359375,0.0,0,0
1765391592.5258482,1765391592.4701831,53.7109375,9.765625,67.3828125,325.68359375,0.0,0,0
1765391592.52586,1765391592.4740767,51.26953125,-7.32421875,27.34375,364.74609375,0.0,0,0
1765391592.5258722,1765391592.4779706,-47.36328125,-41.50390625,-80.078125,-123.046875,0.0,0,0
1765391592.525884,1765391592.4818642,-114.74609375,-40.52734375,-110.83984375,-475.09765625,0.0,0,0
1765391592.5258958,1765391592.4857578,-68.84765625,-20.5078125,-16.11328125,-194.82421875,0.0,0,0
1765391592.525908,1765391592.4896514,13.671875,-12.20703125,47.8515625,258.7890625,0.0,0,0
1765391592.52592,1765391592.493545,42.96875,-15.625,22.4609375,384.27734375,0.0,0,0
1765391592.525932,1765391592.4974387,-33.69140625,-45.8984375,-81.0546875,-81.0546875,0.0,0,0
1765391592.525944,1765391592.5013325,-103.515625,-47.8515625,-115.234375,-475.09765625,0.0,0,0
1765391592.5259562,1765391592.5052261,-72.265625,-29.78515625,-42.96875,-268.5546875,0.0,0,0
1765391592.617109,1765391592.5095272,20.01953125,-17.08984375,22.4609375,210.44921875,0.0,0,0
1765391592.617169,1765391592.5134208,67.3828125,-21.484375,30.2734375,406.73828125,0.0,0,0
1765391592.6171892,1765391592.5173147,-5.37109375,-50.78125,-66.40625,-19.04296875,0.0,0,0
1765391592.617207,1765391592.5212083,-95.21484375,-62.01171875,-136.23046875,-448.73046875,0.0,0,0
1765391592.617225,1765391592.5251021,-80.56640625,-30.76171875,-56.15234375,-323.2421875,0.0,0,0
1765391592.6172428,1765391592.5289958,6.8359375,-0.9765625,54.6875,167.48046875,0.0,0,0
1765391592.6172612,1765391592.5328896,51.26953125,-10.25390625,57.6171875,410.64453125,0.0,0,0
1765391592.6172779,1765391592.5367832,-11.71875,-35.64453125,-53.22265625,32.2265625,0.0,0,0
1765391592.6173398,1765391592.540677,-94.7265625,-54.19921875,-113.76953125,-397.94921875,0.0,0,0
1765391592.617374,1765391592.5445707,-93.75,-49.8046875,-71.77734375,-373.046875,0.0,0,0
1765391592.6173928,1765391592.5484645,-3.90625,-12.20703125,22.4609375,120.1171875,0.0,0,0
1765391592.6174111,1765391592.5523582,60.546875,-1.953125,44.921875,433.59375,0.0,0,0
1765391592.618985,1765391592.556371,11.71875,-37.109375,-58.59375,101.07421875,0.0,0,0
1765391592.619033,1765391592.5602646,-71.77734375,-48.828125,-121.58203125,-349.12109375,0.0,0,0
1765391592.619058,1765391592.5641584,-82.03125,-28.3203125,-95.21484375,-404.78515625,0.0,0,0
1765391592.619078,1765391592.568052,9.27734375,-2.9296875,11.71875,67.3828125,0.0,0,0
1765391592.619096,1765391592.571946,70.80078125,-8.7890625,76.66015625,421.38671875,0.0,0,0
1765391592.619114,1765391592.5758395,22.4609375,-35.64453125,0.9765625,179.6875,0.0,0,0
1765391592.6191318,1765391592.5797334,-59.5703125,-37.109375,-85.9375,-282.2265625,0.0,0,0
1765391592.619149,1765391592.5836272,-96.6796875,-44.921875,-74.70703125,-440.91796875,0.0,0,0
1765391592.619167,1765391592.5875208,-27.34375,-27.83203125,31.25,-8.30078125,0.0,0,0
1765391592.619184,1765391592.5914147,47.36328125,-10.25390625,68.359375,385.25390625,0.0,0,0
1765391592.6192021,1765391592.5953083,25.390625,-37.59765625,-21.484375,231.93359375,0.0,0,0
1765391592.6192188,1765391592.5992022,-54.19921875,-46.38671875,-113.76953125,-245.60546875,0.0,0,0
1765391592.675713,1765391592.6031783,-88.8671875,-28.80859375,-100.5859375,-457.51953125,0.0,0,0
1765391592.675798,1765391592.607072,-29.78515625,-7.32421875,26.3671875,-56.15234375,0.0,0,0
1765391592.675831,1765391592.6109657,42.96875,8.30078125,82.03125,353.02734375,0.0,0,0
1765391592.675859,1765391592.6148596,46.875,-11.23046875,7.32421875,298.828125,0.0,0,0
1765391592.6758862,1765391592.6187534,-49.31640625,-51.7578125,-87.40234375,-200.1953125,0.0,0,0
1765391592.675912,1765391592.622647,-113.28125,-52.734375,-85.44921875,-493.65234375,0.0,0,0
1765391592.6759412,1765391592.626541,-57.6171875,-4.39453125,5.859375,-130.859375,0.0,0,0
1765391592.675966,1765391592.6304345,20.5078125,14.16015625,56.15234375,291.015625,0.0,0,0
1765391592.675992,1765391592.6343284,26.3671875,-18.5546875,20.5078125,308.10546875,0.0,0,0
1765391592.6760168,1765391592.6382222,-59.5703125,-48.828125,-101.5625,-176.26953125,0.0,0,0
1765391592.676041,1765391592.6421158,-116.69921875,-34.66796875,-120.1171875,-508.30078125,0.0,0,0
1765391592.6760662,1765391592.6460097,-78.125,-11.71875,-2.9296875,-208.0078125,0.0,0,0
1765391592.721386,1765391592.6499755,-5.37109375,-2.9296875,62.5,229.4921875,0.0,0,0
1765391592.721538,1765391592.6538694,5.859375,-11.23046875,38.57421875,310.546875,0.0,0,0
1765391592.721604,1765391592.6577632,-82.03125,-37.109375,-49.31640625,-152.83203125,0.0,0,0
1765391592.721668,1765391592.6616569,-161.62109375,-37.109375,-86.9140625,-539.55078125,0.0,0,0
1765391592.721726,1765391592.6655507,-163.57421875,-11.23046875,-27.34375,-347.65625,0.0,0,0
1765391592.721785,1765391592.6694446,-100.5859375,10.7421875,55.6640625,98.14453125,0.0,0,0
1765391592.7218409,1765391592.6733384,-73.73046875,6.8359375,59.08203125,252.9296875,0.0,0,0
1765391592.721898,1765391592.677232,-149.4140625,-21.97265625,-42.48046875,-173.828125,0.0,0,0
1765391592.721956,1765391592.6811259,-232.421875,-42.48046875,-93.26171875,-590.33203125,0.0,0,0
1765391592.7220109,1765391592.6850197,-217.7734375,-14.16015625,-34.1796875,-467.7734375,0.0,0,0
1765391592.7220669,1765391592.6889133,-116.2109375,20.99609375,55.17578125,37.59765625,0.0,0,0
1765391592.722122,1765391592.6928072,-65.91796875,-1.953125,57.6171875,286.1328125,0.0,0,0
1765391592.7669618,1765391592.6968615,-126.46484375,-26.3671875,-47.36328125,-109.375,0.0,0,0
1765391592.767141,1765391592.7007554,-200.1953125,-16.6015625,-98.14453125,-526.3671875,0.0,0,0
1765391592.7671921,1765391592.7046492,-194.82421875,4.8828125,-60.546875,-476.5625,0.0,0,0
1765391592.767235,1765391592.708543,-85.44921875,21.97265625,30.76171875,27.83203125,0.0,0,0
1765391592.7672808,1765391592.712437,-17.08984375,13.671875,65.91796875,347.16796875,0.0,0,0
1765391592.767324,1765391592.7163308,-79.1015625,-17.08984375,-47.36328125,12.6953125,0.0,0,0
1765391592.767366,1765391592.7202246,-160.64453125,-35.64453125,-125.9765625,-422.8515625,0.0,0,0
1765391592.7674081,1765391592.7241182,-168.45703125,-12.6953125,-71.77734375,-463.8671875,0.0,0,0
1765391592.76745,1765391592.728012,-64.94140625,15.13671875,26.3671875,17.08984375,0.0,0,0
1765391592.767491,1765391592.731906,18.06640625,5.37109375,59.5703125,397.94921875,0.0,0,0
1765391592.767545,1765391592.7357998,-12.6953125,-29.296875,-20.5078125,147.4609375,0.0,0,0
1765391592.767589,1765391592.7396936,-95.703125,-40.0390625,-100.09765625,-329.1015625,0.0,0,0
1765391592.811344,1765391592.7437336,-120.1171875,-32.71484375,-102.05078125,-456.54296875,0.0,0,0
1765391592.811473,1765391592.7476275,-13.671875,-9.27734375,-9.27734375,21.484375,0.0,0,0
1765391592.811506,1765391592.7515213,76.66015625,-1.953125,35.64453125,422.8515625,0.0,0,0
1765391592.8115342,1765391592.755415,48.33984375,-33.203125,-45.8984375,239.2578125,0.0,0,0
1765391592.8115652,1765391592.7593088,-38.57421875,-47.36328125,-126.46484375,-237.79296875,0.0,0,0
1765391592.811593,1765391592.7632027,-75.1953125,-37.109375,-105.95703125,-435.05859375,0.0,0,0
1765391592.811619,1765391592.7670965,13.671875,-14.16015625,15.625,-6.34765625,0.0,0,0
1765391592.811645,1765391592.7709904,96.6796875,-9.765625,51.26953125,413.0859375,0.0,0,0
1765391592.811671,1765391592.7748842,81.54296875,-30.2734375,-25.87890625,313.96484375,0.0,0,0
1765391592.811697,1765391592.778778,-16.11328125,-52.24609375,-111.328125,-185.546875,0.0,0,0
1765391592.811724,1765391592.782672,-62.01171875,-51.7578125,-105.46875,-434.08203125,0.0,0,0
1765391592.81175,1765391592.7865658,19.53125,-29.78515625,7.8125,-43.9453125,0.0,0,0
1765391592.856909,1765391592.7905943,103.515625,-12.6953125,56.15234375,370.60546875,0.0,0,0
1765391592.857027,1765391592.7944882,111.328125,-12.20703125,1.953125,376.953125,0.0,0,0
1765391592.857058,1765391592.798382,14.6484375,-47.8515625,-93.26171875,-111.328125,0.0,0,0
1765391592.857291,1765391592.802276,-59.08203125,-53.22265625,-109.375,-447.75390625,0.0,0,0
1765391592.8573198,1765391592.8061697,3.90625,-17.08984375,-16.6015625,-122.55859375,0.0,0,0
1765391592.8573492,1765391592.8100636,100.09765625,-2.9296875,32.2265625,333.49609375,0.0,0,0
1765391592.857377,1765391592.8139575,113.76953125,-30.2734375,-36.62109375,433.10546875,0.0,0,0
1765391592.857406,1765391592.8178513,20.5078125,-54.19921875,-134.27734375,-35.64453125,0.0,0,0
1765391592.857433,1765391592.8217452,-65.91796875,-44.921875,-108.88671875,-426.26953125,0.0,0,0
1765391592.8574579,1765391592.825639,-40.52734375,-28.80859375,6.34765625,-182.6171875,0.0,0,0
1765391592.857483,1765391592.829533,49.31640625,-23.4375,79.1015625,288.0859375,0.0,0,0
1765391592.8575091,1765391592.833427,82.03125,-30.76171875,47.36328125,428.22265625,0.0,0,0
1765391592.916446,1765391592.837545,6.8359375,-50.78125,-64.453125,-15.625,0.0,0,0
1765391592.9165099,1765391592.8414388,-65.4296875,-48.828125,-120.1171875,-411.62109375,0.0,0,0
1765391592.916544,1765391592.8453326,-42.48046875,-36.1328125,-56.640625,-254.8828125,0.0,0,0
1765391592.916576,1765391592.8492265,32.2265625,-39.55078125,15.625,205.56640625,0.0,0,0
1765391592.916611,1765391592.8531206,75.68359375,-41.015625,20.99609375,429.19921875,0.0,0,0
1765391592.9166431,1765391592.8570144,18.5546875,-57.6171875,-47.8515625,41.015625,0.0,0,0
1765391592.916675,1765391592.8609083,-66.40625,-59.08203125,-83.984375,-383.30078125,0.0,0,0
1765391592.916706,1765391592.8648021,-62.5,-34.1796875,-31.73828125,-316.40625,0.0,0,0
1765391592.916738,1765391592.8686962,36.62109375,-13.18359375,41.50390625,174.31640625,0.0,0,0
1765391592.91677,1765391592.87259,98.14453125,-7.8125,68.359375,463.8671875,0.0,0,0
1765391592.916801,1765391592.876484,41.9921875,-29.296875,-12.6953125,114.2578125,0.0,0,0
1765391592.916833,1765391592.8803778,-43.9453125,-53.22265625,-87.890625,-338.37890625,0.0,0,0
1765391592.961301,1765391592.884389,-53.7109375,-46.38671875,-48.33984375,-366.2109375,0.0,0,0
1765391592.961458,1765391592.888283,29.296875,-29.78515625,55.6640625,119.62890625,0.0,0,0
1765391592.961524,1765391592.8921769,83.0078125,-19.04296875,70.3125,461.9140625,0.0,0,0
1765391592.96159,1765391592.8960707,25.87890625,-24.90234375,-17.08984375,161.62109375,0.0,0,0
1765391592.9616508,1765391592.8999648,-67.3828125,-41.9921875,-72.75390625,-301.7578125,0.0,0,0
1765391592.961707,1765391592.9038587,-86.42578125,-42.96875,-42.96875,-383.7890625,0.0,0,0
1765391592.96177,1765391592.9077525,-5.37109375,-35.64453125,44.43359375,63.96484375,0.0,0,0
1765391592.961826,1765391592.9116466,60.05859375,-32.71484375,68.84765625,430.17578125,0.0,0,0
1765391592.9618812,1765391592.9155405,29.296875,-36.1328125,-26.85546875,235.83984375,0.0,0,0
1765391592.961941,1765391592.9194343,-55.17578125,-36.1328125,-113.76953125,-227.05078125,0.0,0,0
1765391592.961996,1765391592.9233284,-93.26171875,-33.69140625,-107.91015625,-406.25,0.0,0,0
1765391592.9620512,1765391592.9272223,-20.01953125,-14.16015625,5.37109375,9.27734375,0.0,0,0
1765391592.994658,1765391592.9312181,60.05859375,-16.6015625,73.73046875,398.92578125,0.0,0,0
1765391592.994829,1765391592.9351122,52.24609375,-34.1796875,18.5546875,298.33984375,0.0,0,0
1765391592.9948952,1765391592.939006,-39.0625,-45.8984375,-71.77734375,-166.9921875,0.0,0,0
1765391592.994953,1765391592.9429,-86.9140625,-54.6875,-86.9140625,-406.73828125,0.0,0,0
1765391592.995012,1765391592.946794,-25.390625,-23.4375,19.53125,-31.73828125,0.0,0,0
1765391592.995069,1765391592.950688,53.22265625,2.9296875,81.54296875,375.9765625,0.0,0,0
1765391592.995137,1765391592.954582,54.6875,-13.18359375,4.8828125,352.5390625,0.0,0,0
1765391592.995192,1765391592.9584758,-39.0625,-40.52734375,-106.93359375,-129.8828125,0.0,0,0
1765391592.995251,1765391592.96237,-99.609375,-50.78125,-117.1875,-441.89453125,0.0,0,0
1765391592.995307,1765391592.9662638,-52.734375,-34.66796875,-8.7890625,-108.88671875,0.0,0,0
1765391592.995362,1765391592.9701576,41.9921875,-11.71875,79.1015625,331.0546875,0.0,0,0
1765391592.995418,1765391592.9740517,66.89453125,-23.4375,35.64453125,383.7890625,0.0,0,0
1765391593.0369449,1765391592.9780369,-24.90234375,-55.6640625,-95.21484375,-101.07421875,0.0,0,0
1765391593.037089,1765391592.981931,-90.33203125,-49.31640625,-104.98046875,-457.51953125,0.0,0,0
1765391593.037211,1765391592.9858248,-55.6640625,-24.4140625,-14.16015625,-196.2890625,0.0,0,0
1765391593.037271,1765391592.989719,16.11328125,-14.16015625,29.78515625,241.2109375,0.0,0,0
1765391593.037305,1765391592.9936128,37.109375,-18.06640625,32.71484375,365.234375,0.0,0,0
1765391593.037337,1765391592.9975069,-38.57421875,-37.109375,-41.9921875,-76.171875,0.0,0,0
1765391593.0373702,1765391593.0014007,-115.234375,-50.78125,-88.37890625,-472.65625,0.0,0,0
1765391593.0374022,1765391593.0052948,-83.49609375,-29.296875,-20.01953125,-281.25,0.0,0,0
1765391593.0374348,1765391593.0091887,13.18359375,-7.32421875,56.15234375,198.2421875,0.0,0,0
1765391593.0374668,1765391593.0130827,50.29296875,-20.01953125,49.8046875,396.484375,0.0,0,0
1765391593.037499,1765391593.0169766,-22.94921875,-45.41015625,-48.33984375,-12.20703125,0.0,0,0
1765391593.037537,1765391593.0208704,-104.00390625,-44.921875,-108.88671875,-432.6171875,0.0,0,0
1765391593.097543,1765391593.02484,-90.33203125,-23.4375,-54.6875,-333.0078125,0.0,0,0
1765391593.097583,1765391593.028734,6.8359375,-10.7421875,37.109375,163.0859375,0.0,0,0
1765391593.0975978,1765391593.032628,47.36328125,-29.78515625,46.875,425.78125,0.0,0,0
1765391593.097611,1765391593.036522,-14.6484375,-46.38671875,-53.22265625,57.6171875,0.0,0,0
1765391593.097623,1765391593.040416,-86.42578125,-59.08203125,-121.09375,-365.72265625,0.0,0,0
1765391593.097642,1765391593.0443099,-96.6796875,-41.9921875,-73.73046875,-364.2578125,0.0,0,0
1765391593.097655,1765391593.048204,-9.27734375,-6.34765625,39.55078125,104.98046875,0.0,0,0
1765391593.097688,1765391593.052098,57.12890625,-15.625,59.5703125,426.7578125,0.0,0,0
1765391593.097719,1765391593.055992,8.7890625,-38.0859375,-57.12890625,118.65234375,0.0,0,0
1765391593.097745,1765391593.059886,-74.70703125,-58.59375,-122.0703125,-336.42578125,0.0,0,0
1765391593.097758,1765391593.0637798,-89.35546875,-59.08203125,-71.2890625,-404.78515625,0.0,0,0
1765391593.09777,1765391593.067674,-5.859375,-25.390625,38.0859375,56.15234375,0.0,0,0
1765391593.14334,1765391593.0717287,56.640625,-9.765625,62.01171875,412.109375,0.0,0,0
1765391593.143378,1765391593.0756228,19.04296875,-23.92578125,-36.62109375,185.05859375,0.0,0,0
1765391593.143391,1765391593.0795166,-67.87109375,-44.921875,-115.234375,-270.99609375,0.0,0,0
1765391593.143401,1765391593.0834107,-98.14453125,-53.7109375,-91.796875,-416.9921875,0.0,0,0
1765391593.143413,1765391593.0873048,-22.4609375,-24.4140625,22.94921875,11.71875,0.0,0,0
1765391593.143424,1765391593.0911987,48.828125,-0.9765625,69.3359375,414.0625,0.0,0,0
1765391593.143434,1765391593.0950928,33.69140625,-23.4375,-12.20703125,275.390625,0.0,0,0
1765391593.143446,1765391593.0989869,-56.15234375,-54.19921875,-106.4453125,-206.54296875,0.0,0,0
1765391593.143462,1765391593.1028807,-101.5625,-53.22265625,-113.76953125,-418.45703125,0.0,0,0
1765391593.143473,1765391593.1067748,-17.08984375,-16.6015625,-0.48828125,-27.83203125,0.0,0,0
1765391593.1434839,1765391593.110669,59.5703125,-2.44140625,59.5703125,370.60546875,0.0,0,0
1765391593.143494,1765391593.1145627,31.73828125,-39.0625,-11.23046875,302.24609375,0.0,0,0
1765391593.2312472,1765391593.1188002,-55.6640625,-59.5703125,-87.890625,-182.12890625,0.0,0,0
1765391593.231292,1765391593.122694,-94.23828125,-29.78515625,-91.30859375,-462.40234375,0.0,0,0
1765391593.231311,1765391593.126588,-34.1796875,0.9765625,2.44140625,-117.1875,0.0,0,0
1765391593.231327,1765391593.1304822,37.109375,-0.48828125,71.77734375,292.48046875,0.0,0,0
1765391593.231345,1765391593.1343763,49.31640625,-24.90234375,17.578125,318.359375,0.0,0,0
1765391593.23136,1765391593.1382704,-23.4375,-58.59375,-88.37890625,-153.3203125,0.0,0,0
1765391593.231376,1765391593.1421645,-99.609375,-59.08203125,-107.91015625,-500.48828125,0.0,0,0
1765391593.231464,1765391593.1460586,-66.40625,-27.34375,-11.71875,-215.33203125,0.0,0,0
1765391593.231482,1765391593.1499527,28.3203125,-13.18359375,44.921875,247.55859375,0.0,0,0
1765391593.231497,1765391593.1538467,54.6875,-17.08984375,5.37109375,382.32421875,0.0,0,0
1765391593.231513,1765391593.1577408,-34.1796875,-40.0390625,-95.703125,-79.1015625,0.0,0,0
1765391593.231528,1765391593.161635,-100.09765625,-36.1328125,-120.60546875,-467.7734375,0.0,0,0
1765391593.23293,1765391593.1656764,-53.7109375,-14.6484375,-33.69140625,-235.83984375,0.0,0,0
1765391593.232954,1765391593.1695704,36.1328125,-1.953125,50.29296875,242.67578125,0.0,0,0
1765391593.23297,1765391593.1734645,47.36328125,-9.765625,34.1796875,407.2265625,0.0,0,0
1765391593.232985,1765391593.1773586,-29.78515625,-46.875,-80.56640625,-24.90234375,0.0,0,0
1765391593.233001,1765391593.1812527,-104.00390625,-61.5234375,-110.83984375,-433.59375,0.0,0,0
1765391593.233016,1765391593.1851468,-94.7265625,-37.59765625,-22.94921875,-310.05859375,0.0,0,0
1765391593.2330308,1765391593.189041,1.953125,-23.92578125,64.453125,174.8046875,0.0,0,0
1765391593.233046,1765391593.192935,60.05859375,-12.6953125,81.0546875,430.17578125,0.0,0,0
1765391593.233068,1765391593.196829,-18.5546875,-35.15625,-44.921875,38.57421875,0.0,0,0
1765391593.233085,1765391593.2007232,-99.12109375,-53.7109375,-138.671875,-395.99609375,0.0,0,0
1765391593.2331011,1765391593.2046173,-88.8671875,-32.2265625,-72.265625,-354.98046875,0.0,0,0
1765391593.233116,1765391593.2085114,-15.625,-28.3203125,28.80859375,112.79296875,0.0,0,0
1765391593.307828,1765391593.2127268,35.15625,-36.1328125,43.45703125,407.71484375,0.0,0,0
1765391593.3078861,1765391593.216621,-17.578125,-45.8984375,-29.78515625,87.40234375,0.0,0,0
1765391593.307911,1765391593.220515,-95.21484375,-53.22265625,-86.9140625,-347.16796875,0.0,0,0
1765391593.3079329,1765391593.2244093,-105.46875,-45.41015625,-73.2421875,-401.3671875,0.0,0,0
1765391593.307956,1765391593.2283034,-15.625,-9.27734375,35.15625,77.63671875,0.0,0,0
1765391593.307977,1765391593.2321975,50.29296875,-0.48828125,85.9375,429.19921875,0.0,0,0
1765391593.307998,1765391593.2360916,-0.48828125,-34.1796875,-19.04296875,156.73828125,0.0,0,0
1765391593.308019,1765391593.239986,-90.33203125,-60.05859375,-111.81640625,-308.59375,0.0,0,0
1765391593.30804,1765391593.24388,-108.88671875,-48.33984375,-101.5625,-424.31640625,0.0,0,0
1765391593.30806,1765391593.2477741,-28.3203125,-11.71875,-0.9765625,9.765625,0.0,0,0
1765391593.308081,1765391593.2516682,50.78125,6.34765625,69.82421875,377.9296875,0.0,0,0
1765391593.3081012,1765391593.2555625,32.2265625,-21.484375,13.671875,225.09765625,0.0,0,0
1765391593.352195,1765391593.2597582,-77.63671875,-62.01171875,-70.80078125,-265.625,0.0,0,0
1765391593.352285,1765391593.2636523,-116.2109375,-48.828125,-66.40625,-476.5625,0.0,0,0
1765391593.352318,1765391593.2675467,-39.55078125,-14.6484375,7.8125,-57.6171875,0.0,0,0
1765391593.352361,1765391593.2714407,49.31640625,6.8359375,52.24609375,365.234375,0.0,0,0
1765391593.3524292,1765391593.275335,40.0390625,-9.765625,0.9765625,291.9921875,0.0,0,0
1765391593.35248,1765391593.2792292,-61.03515625,-38.0859375,-78.61328125,-204.1015625,0.0,0,0
1765391593.3525171,1765391593.2831235,-106.4453125,-37.109375,-81.0546875,-469.23828125,0.0,0,0
1765391593.352551,1765391593.2870176,-47.8515625,-26.85546875,30.2734375,-95.703125,0.0,0,0
1765391593.352582,1765391593.290912,37.109375,-16.6015625,103.515625,331.0546875,0.0,0,0
1765391593.3526132,1765391593.294806,52.734375,-16.6015625,50.78125,340.33203125,0.0,0,0
1765391593.3526452,1765391593.2987003,-31.73828125,-40.0390625,-63.4765625,-140.13671875,0.0,0,0
1765391593.352677,1765391593.3025944,-97.16796875,-46.38671875,-91.796875,-457.51953125,0.0,0,0
1765391593.367008,1765391593.3065925,-44.921875,-20.99609375,3.90625,-144.04296875,0.0,0,0
1765391593.3670762,1765391593.3104868,41.9921875,-24.4140625,56.640625,283.69140625,0.0,0,0
1765391593.3671072,1765391593.314381,63.4765625,-35.15625,25.87890625,375.9765625,0.0,0,0
1765391593.3671339,1765391593.3182752,-21.484375,-37.109375,-66.40625,-83.0078125,0.0,0,0
1765391593.36716,1765391593.3221693,-91.30859375,-33.69140625,-108.88671875,-463.37890625,0.0,0,0
1765391593.3671858,1765391593.3260636,-54.19921875,-10.25390625,-12.6953125,-230.46875,0.0,0,0
1765391593.3672252,1765391593.329958,10.7421875,-11.71875,80.078125,219.7265625,0.0,0,0
1765391593.36725,1765391593.333852,41.015625,-22.94921875,71.2890625,379.39453125,0.0,0,0
1765391593.367276,1765391593.3377464,-30.76171875,-43.45703125,-66.89453125,-52.734375,0.0,0,0
1765391593.367306,1765391593.3416405,-107.421875,-57.12890625,-161.62109375,-454.58984375,0.0,0,0
1765391593.367331,1765391593.3455348,-70.3125,-33.69140625,-63.4765625,-289.0625,0.0,0,0
1765391593.3673558,1765391593.349429,20.99609375,-13.18359375,65.4296875,187.98828125,0.0,0,0
1765391593.426782,1765391593.3534129,45.41015625,-20.99609375,78.61328125,398.92578125,0.0,0,0
1765391593.426854,1765391593.357307,-18.5546875,-41.50390625,-50.29296875,13.671875,0.0,0,0
1765391593.4268951,1765391593.3612013,-92.7734375,-47.8515625,-137.6953125,-406.73828125,0.0,0,0
1765391593.426928,1765391593.3650956,-95.703125,-36.1328125,-50.78125,-362.79296875,0.0,0,0
1765391593.426961,1765391593.3689897,-12.6953125,-18.06640625,57.12890625,111.81640625,0.0,0,0
1765391593.426993,1765391593.372884,33.69140625,-28.80859375,41.015625,398.4375,0.0,0,0
1765391593.4270248,1765391593.3767784,-15.625,-42.48046875,-60.05859375,67.3828125,0.0,0,0
1765391593.4270568,1765391593.3806725,-84.47265625,-39.55078125,-117.1875,-356.93359375,0.0,0,0
1765391593.427089,1765391593.3845668,-99.609375,-29.78515625,-109.86328125,-380.37109375,0.0,0,0
1765391593.4271219,1765391593.388461,-17.08984375,-8.30078125,-18.5546875,92.7734375,0.0,0,0
1765391593.4271538,1765391593.3923552,46.875,-9.27734375,45.8984375,428.7109375,0.0,0,0
1765391593.4271848,1765391593.3962495,-3.41796875,-42.48046875,-29.296875,141.6015625,0.0,0,0
1765391593.472477,1765391593.4002287,-89.84375,-51.7578125,-111.328125,-310.05859375,0.0,0,0
1765391593.472608,1765391593.404123,-117.1875,-39.0625,-96.6796875,-420.41015625,0.0,0,0
1765391593.4726589,1765391593.4080174,-25.390625,-4.8828125,15.13671875,22.4609375,0.0,0,0
1765391593.472703,1765391593.4119115,60.546875,8.30078125,70.3125,404.78515625,0.0,0,0
1765391593.472745,1765391593.4158058,20.99609375,-27.83203125,-22.94921875,207.03125,0.0,0,0
1765391593.472791,1765391593.4197001,-73.2421875,-58.59375,-101.5625,-281.73828125,0.0,0,0
1765391593.4728372,1765391593.4235945,-117.67578125,-50.78125,-83.49609375,-463.37890625,0.0,0,0
1765391593.4728801,1765391593.4274886,-42.48046875,-4.8828125,21.484375,-29.78515625,0.0,0,0
1765391593.472926,1765391593.431383,33.69140625,8.30078125,74.21875,364.74609375,0.0,0,0
1765391593.4729788,1765391593.4352772,16.11328125,-13.671875,7.32421875,267.578125,0.0,0,0
1765391593.473069,1765391593.4391713,-73.73046875,-42.48046875,-83.984375,-214.84375,0.0,0,0
1765391593.473131,1765391593.4430656,-112.79296875,-47.36328125,-73.2421875,-461.9140625,0.0,0,0
1765391593.517503,1765391593.447119,-33.69140625,-22.4609375,28.80859375,-70.3125,0.0,0,0
1765391593.517662,1765391593.451013,39.55078125,-6.8359375,48.828125,346.19140625,0.0,0,0
1765391593.517727,1765391593.4549074,35.64453125,-22.4609375,-2.9296875,337.40234375,0.0,0,0
1765391593.517788,1765391593.4588017,-47.36328125,-46.38671875,-90.33203125,-132.8125,0.0,0,0
1765391593.517844,1765391593.462696,-97.16796875,-37.59765625,-113.76953125,-439.453125,0.0,0,0
1765391593.517901,1765391593.4665904,-56.640625,-25.390625,-4.39453125,-147.4609375,0.0,0,0
1765391593.517961,1765391593.4704847,17.08984375,-16.6015625,76.66015625,273.92578125,0.0,0,0
1765391593.518035,1765391593.4743788,41.9921875,-17.08984375,59.08203125,350.09765625,0.0,0,0
1765391593.5181172,1765391593.4782732,-37.59765625,-38.0859375,-71.2890625,-106.4453125,0.0,0,0
1765391593.5182028,1765391593.4821675,-102.05078125,-42.48046875,-124.51171875,-469.23828125,0.0,0,0
1765391593.518306,1765391593.4860618,-54.6875,-19.04296875,-3.90625,-219.7265625,0.0,0,0
1765391593.5186272,1765391593.4899561,29.78515625,-9.765625,75.1953125,228.02734375,0.0,0,0
1765391593.608829,1765391593.4942765,57.6171875,-15.625,51.7578125,358.3984375,0.0,0,0
1765391593.6088681,1765391593.4981709,-15.13671875,-36.62109375,-80.56640625,-73.2421875,0.0,0,0
1765391593.608881,1765391593.5020654,-77.63671875,-34.66796875,-133.30078125,-450.68359375,0.0,0,0
1765391593.608893,1765391593.5059597,-75.1953125,-38.57421875,-45.8984375,-298.33984375,0.0,0,0
1765391593.608903,1765391593.509854,0.0,-21.484375,48.33984375,174.8046875,0.0,0,0
1765391593.608914,1765391593.5137484,47.8515625,-5.37109375,43.45703125,398.4375,0.0,0,0
1765391593.608924,1765391593.5176427,-12.20703125,-38.57421875,-59.5703125,-2.9296875,0.0,0,0
1765391593.608934,1765391593.521537,-84.47265625,-47.36328125,-87.40234375,-426.26953125,0.0,0,0
1765391593.608945,1765391593.5254316,-93.26171875,-31.73828125,-27.83203125,-358.88671875,0.0,0,0
1765391593.608955,1765391593.529326,-7.32421875,-13.18359375,59.5703125,123.046875,0.0,0,0
1765391593.6089652,1765391593.5332203,51.7578125,-7.32421875,62.98828125,395.01953125,0.0,0,0
1765391593.608976,1765391593.5371146,-13.671875,-25.390625,-53.22265625,49.8046875,0.0,0,0
1765391593.620843,1765391593.541238,-95.703125,-48.828125,-135.7421875,-378.41796875,0.0,0,0
1765391593.620876,1765391593.5451324,-111.328125,-48.828125,-95.21484375,-400.390625,0.0,0,0
1765391593.6208892,1765391593.549027,-24.90234375,-20.01953125,23.92578125,77.1484375,0.0,0,0
1765391593.6209002,1765391593.5529213,41.50390625,-9.765625,59.08203125,402.34375,0.0,0,0
1765391593.6209111,1765391593.5568156,-21.484375,-36.62109375,-28.80859375,94.23828125,0.0,0,0
1765391593.620922,1765391593.5607102,-102.05078125,-48.828125,-98.6328125,-349.609375,0.0,0,0
1765391593.620932,1765391593.5646045,-106.4453125,-47.8515625,-115.234375,-432.12890625,0.0,0,0
1765391593.620942,1765391593.5684988,-23.4375,-26.85546875,2.9296875,31.25,0.0,0,0
1765391593.620951,1765391593.5723934,41.015625,-10.7421875,80.56640625,404.296875,0.0,0,0
1765391593.62096,1765391593.5762877,1.46484375,-24.4140625,1.46484375,182.12890625,0.0,0,0
1765391593.62097,1765391593.580182,-90.8203125,-38.0859375,-64.453125,-296.875,0.0,0,0
1765391593.6209788,1765391593.5840766,-116.69921875,-38.0859375,-34.66796875,-462.40234375,0.0,0,0
1765391593.6521149,1765391593.5880852,-37.109375,-19.04296875,62.5,-25.87890625,0.0,0,0
1765391593.652152,1765391593.5919795,32.2265625,-4.8828125,91.796875,368.1640625,0.0,0,0
1765391593.652164,1765391593.5958738,6.34765625,-25.390625,20.99609375,228.515625,0.0,0,0
1765391593.652173,1765391593.5997684,-77.1484375,-54.6875,-62.98828125,-255.859375,0.0,0,0
1765391593.652182,1765391593.6036627,-118.65234375,-53.7109375,-77.63671875,-485.3515625,0.0,0,0
1765391593.652194,1765391593.6075573,-55.17578125,-33.69140625,0.48828125,-88.8671875,0.0,0,0
1765391593.652204,1765391593.6114516,22.94921875,-21.484375,55.17578125,324.70703125,0.0,0,0
1765391593.652213,1765391593.6153462,29.296875,-17.578125,20.5078125,289.0625,0.0,0,0
1765391593.652222,1765391593.6192405,-64.94140625,-39.0625,-81.0546875,-191.40625,0.0,0,0
1765391593.652231,1765391593.6231349,-122.55859375,-49.31640625,-94.23828125,-482.421875,0.0,0,0
1765391593.652318,1765391593.6270294,-46.38671875,-24.4140625,24.90234375,-125.48828125,0.0,0,0
1765391593.652331,1765391593.6309237,42.48046875,-13.18359375,81.0546875,300.29296875,0.0,0,0
1765391593.698238,1765391593.6349244,44.921875,-23.4375,23.92578125,338.8671875,0.0,0,0
1765391593.6982799,1765391593.6388187,-42.48046875,-27.83203125,-66.89453125,-127.9296875,0.0,0,0
1765391593.698294,1765391593.6427133,-108.88671875,-25.87890625,-83.0078125,-477.05078125,0.0,0,0
1765391593.698308,1765391593.6466076,-62.5,-20.01953125,8.30078125,-208.984375,0.0,0,0
1765391593.6983192,1765391593.6505022,24.90234375,-12.6953125,79.58984375,247.55859375,0.0,0,0
1765391593.6983309,1765391593.6543965,51.26953125,-17.08984375,65.4296875,382.8125,0.0,0,0
1765391593.6983418,1765391593.658291,-29.296875,-36.1328125,-35.15625,-72.265625,0.0,0,0
1765391593.6983528,1765391593.6621854,-106.4453125,-39.0625,-90.33203125,-462.890625,0.0,0,0
1765391593.698364,1765391593.66608,-75.68359375,-20.5078125,-16.6015625,-262.6953125,0.0,0,0
1765391593.698375,1765391593.6699743,9.765625,-9.765625,58.10546875,197.265625,0.0,0,0
1765391593.698386,1765391593.673869,48.828125,-18.06640625,40.52734375,384.27734375,0.0,0,0
1765391593.698401,1765391593.6777632,-24.4140625,-41.9921875,-60.546875,-36.62109375,0.0,0,0
1765391593.7408981,1765391593.6817505,-97.16796875,-59.08203125,-107.91015625,-450.1953125,0.0,0,0
1765391593.740934,1765391593.685645,-74.21875,-33.203125,-34.1796875,-332.03125,0.0,0,0
1765391593.74095,1765391593.6895394,17.08984375,-3.90625,63.4765625,152.34375,0.0,0,0
1765391593.7409651,1765391593.693434,67.87109375,-1.953125,76.66015625,404.78515625,0.0,0,0
1765391593.74098,1765391593.6973283,9.27734375,-22.94921875,-46.875,46.875,0.0,0,0
1765391593.740994,1765391593.701223,-81.54296875,-42.48046875,-133.30078125,-384.27734375,0.0,0,0
1765391593.7410078,1765391593.7051172,-104.4921875,-28.80859375,-69.82421875,-391.6015625,0.0,0,0
1765391593.7410219,1765391593.7090118,-18.5546875,1.46484375,41.9921875,93.75,0.0,0,0
1765391593.741035,1765391593.7129061,41.9921875,-11.71875,56.640625,413.0859375,0.0,0,0
1765391593.741049,1765391593.7168007,-13.18359375,-50.29296875,-36.1328125,99.12109375,0.0,0,0
1765391593.741062,1765391593.7206953,-88.37890625,-71.77734375,-97.65625,-336.9140625,0.0,0,0
1765391593.741075,1765391593.7245896,-100.5859375,-54.19921875,-63.4765625,-408.203125,0.0,0,0
1765391593.802114,1765391593.7285607,-31.25,-21.484375,34.1796875,32.71484375,0.0,0,0
1765391593.802164,1765391593.732455,33.203125,-13.18359375,63.4765625,385.7421875,0.0,0,0
1765391593.8021839,1765391593.7363496,5.37109375,-25.87890625,-35.15625,163.0859375,0.0,0,0
1765391593.8022022,1765391593.7402442,-75.1953125,-32.2265625,-108.3984375,-294.43359375,0.0,0,0
1765391593.802222,1765391593.7441385,-114.74609375,-41.9921875,-75.68359375,-445.3125,0.0,0,0
1765391593.80224,1765391593.748033,-38.0859375,-19.53125,34.66796875,-13.671875,0.0,0,0
1765391593.802258,1765391593.7519274,43.45703125,0.0,71.77734375,386.23046875,0.0,0,0
1765391593.8022752,1765391593.755822,22.4609375,-28.3203125,-13.18359375,241.69921875,0.0,0,0
1765391593.8022919,1765391593.7597165,-65.91796875,-50.29296875,-78.61328125,-244.140625,0.0,0,0
1765391593.80231,1765391593.7636108,-105.46875,-44.43359375,-73.2421875,-455.078125,0.0,0,0
1765391593.8023272,1765391593.7675054,-31.25,-30.2734375,8.30078125,-61.03515625,0.0,0,0
1765391593.802345,1765391593.7714,43.9453125,-20.5078125,52.734375,346.19140625,0.0,0,0
1765391593.846733,1765391593.7753806,26.85546875,-22.94921875,-6.8359375,286.1328125,0.0,0,0
1765391593.846785,1765391593.7792752,-66.89453125,-49.31640625,-87.40234375,-208.49609375,0.0,0,0
1765391593.8468108,1765391593.7831695,-109.375,-48.33984375,-82.51953125,-471.6796875,0.0,0,0
1765391593.846839,1765391593.787064,-46.38671875,-22.4609375,5.37109375,-105.46875,0.0,0,0
1765391593.846866,1765391593.7909586,38.57421875,-5.37109375,63.96484375,323.73046875,0.0,0,0
1765391593.846891,1765391593.794853,57.6171875,-17.578125,22.4609375,365.72265625,0.0,0,0
1765391593.846915,1765391593.7987475,-35.15625,-45.41015625,-85.44921875,-106.4453125,0.0,0,0
1765391593.8469398,1765391593.802642,-107.91015625,-42.96875,-117.1875,-464.35546875,0.0,0,0
1765391593.846964,1765391593.8065367,-64.453125,-23.92578125,-15.13671875,-179.19921875,0.0,0,0
1765391593.84699,1765391593.810431,15.13671875,-10.25390625,60.546875,268.06640625,0.0,0,0
1765391593.8470201,1765391593.8143256,56.640625,-12.20703125,36.1328125,391.11328125,0.0,0,0
1765391593.8470452,1765391593.8182201,-26.85546875,-52.24609375,-73.2421875,-62.5,0.0,0,0
1765391593.906703,1765391593.8223624,-108.88671875,-64.453125,-130.859375,-450.1953125,0.0,0,0
1765391593.906788,1765391593.826257,-61.03515625,-25.87890625,-21.484375,-222.16796875,0.0,0,0
1765391593.906815,1765391593.8301516,34.1796875,3.90625,62.98828125,240.234375,0.0,0,0
1765391593.906941,1765391593.834046,63.4765625,8.30078125,31.73828125,403.80859375,0.0,0,0
1765391593.906965,1765391593.8379405,-8.30078125,-25.390625,-57.12890625,-23.4375,0.0,0,0
1765391593.906986,1765391593.841835,-85.9375,-53.7109375,-108.88671875,-439.453125,0.0,0,0
1765391593.907007,1765391593.8457296,-83.0078125,-52.24609375,-46.38671875,-301.26953125,0.0,0,0
1765391593.907027,1765391593.8496242,-1.46484375,-47.8515625,41.50390625,174.8046875,0.0,0,0
1765391593.9070468,1765391593.8535187,62.98828125,-20.5078125,60.05859375,431.15234375,0.0,0,0
1765391593.907068,1765391593.8574133,-2.44140625,-23.4375,-68.359375,69.82421875,0.0,0,0
1765391593.9070878,1765391593.8613079,-99.609375,-54.19921875,-142.08984375,-384.765625,0.0,0,0
1765391593.907109,1765391593.8652022,-111.328125,-42.96875,-48.828125,-363.76953125,0.0,0,0
1765391593.952611,1765391593.8693302,-28.80859375,-16.6015625,54.6875,115.72265625,0.0,0,0
1765391593.952704,1765391593.8732247,33.203125,3.41796875,67.87109375,407.2265625,0.0,0,0
1765391593.952736,1765391593.8771193,-13.18359375,-28.3203125,-36.62109375,80.56640625,0.0,0,0
1765391593.952769,1765391593.8810139,-98.6328125,-70.3125,-99.609375,-347.65625,0.0,0,0
1765391593.9527948,1765391593.8849084,-115.234375,-44.921875,-71.77734375,-390.625,0.0,0,0
1765391593.952832,1765391593.888803,-30.76171875,-20.5078125,8.7890625,71.77734375,0.0,0,0
1765391593.9528599,1765391593.8926976,36.1328125,-27.34375,38.0859375,411.62109375,0.0,0,0
1765391593.952886,1765391593.8965921,-15.13671875,-40.0390625,-39.55078125,141.6015625,0.0,0,0
1765391593.952915,1765391593.9004867,-84.9609375,-42.96875,-111.328125,-304.6875,0.0,0,0
1765391593.95294,1765391593.9043813,-87.40234375,-27.83203125,-82.51953125,-404.78515625,0.0,0,0
1765391593.952975,1765391593.9082758,-23.92578125,-14.6484375,18.06640625,24.4140625,0.0,0,0
1765391593.953006,1765391593.9121704,41.50390625,-3.90625,67.3828125,394.53125,0.0,0,0
1765391593.997942,1765391593.9162045,10.7421875,-70.3125,-42.96875,220.21484375,0.0,0,0
1765391593.998108,1765391593.920099,-67.3828125,-107.421875,-137.20703125,-241.69921875,0.0,0,0
1765391593.998176,1765391593.9239936,-106.4453125,-32.2265625,-68.359375,-434.08203125,0.0,0,0
1765391593.998235,1765391593.9278882,-63.4765625,-13.18359375,30.76171875,-64.453125,0.0,0,0
1765391593.998291,1765391593.931783,17.08984375,-19.53125,54.19921875,326.66015625,0.0,0,0
1765391593.998347,1765391593.9356775,16.6015625,-18.06640625,8.7890625,256.34765625,0.0,0,0
1765391593.998401,1765391593.939572,-77.1484375,-25.390625,-61.03515625,-227.05078125,0.0,0,0
1765391593.998455,1765391593.9434667,-145.99609375,-29.78515625,-80.56640625,-512.6953125,0.0,0,0
1765391593.998513,1765391593.9473612,-87.40234375,-39.55078125,-5.37109375,-147.4609375,0.0,0,0
1765391593.9985678,1765391593.9512558,0.0,-23.92578125,38.57421875,285.15625,0.0,0,0
1765391593.998623,1765391593.9551504,11.23046875,-14.16015625,18.06640625,296.38671875,0.0,0,0
1765391593.998679,1765391593.9590452,-77.1484375,-44.43359375,-83.984375,-185.05859375,0.0,0,0
1765391594.028376,1765391593.9630685,-143.06640625,-48.33984375,-152.34375,-505.859375,0.0,0,1
1765391594.0284858,1765391593.9669633,-64.453125,-9.27734375,-80.078125,-166.50390625,0.0,0,0
1765391594.02853,1765391593.9708579,33.69140625,-6.8359375,11.23046875,264.6484375,0.0,0,0
1765391594.0285661,1765391593.9747524,42.96875,-28.3203125,26.3671875,341.796875,0.0,0,0
1765391594.0286,1765391593.978647,-52.24609375,-33.203125,-57.6171875,-126.953125,0.0,0,0
1765391594.028633,1765391593.9825416,-124.51171875,-24.4140625,-114.2578125,-504.39453125,0.0,0,0
1765391594.028666,1765391593.9864364,-71.2890625,-11.71875,-15.13671875,-250.0,0.0,0,0
1765391594.0286982,1765391593.990331,21.97265625,-10.7421875,65.91796875,205.078125,0.0,0,0
1765391594.0287318,1765391593.9942255,56.640625,-11.23046875,38.57421875,365.234375,0.0,0,0
1765391594.028765,1765391593.99812,-21.484375,-43.9453125,-59.5703125,-49.8046875,0.0,0,0
1765391594.028796,1765391594.0020149,-105.95703125,-45.41015625,-119.62890625,-449.21875,0.0,0,0
1765391594.0288289,1765391594.0059094,-79.58984375,-7.32421875,-52.734375,-301.7578125,0.0,0,0
1765391594.073632,1765391594.0099077,17.08984375,2.44140625,43.9453125,174.8046875,0.0,0,0
1765391594.073729,1765391594.0138023,67.3828125,-4.39453125,58.10546875,413.57421875,0.0,0,0
1765391594.073761,1765391594.0176969,-21.484375,-47.36328125,-46.875,-0.9765625,0.0,0,0
1765391594.073788,1765391594.0215917,-120.60546875,-53.22265625,-115.72265625,-441.89453125,0.0,0,0
1765391594.073815,1765391594.0254862,-104.98046875,-22.4609375,-67.3828125,-363.76953125,0.0,0,0
1765391594.0738409,1765391594.0293808,13.671875,-6.8359375,28.80859375,149.4140625,0.0,0,0
1765391594.073866,1765391594.0332754,70.3125,-12.20703125,43.45703125,435.05859375,0.0,0,0
1765391594.0738912,1765391594.0371702,-24.4140625,-36.62109375,-67.87109375,58.10546875,0.0,0,0
1765391594.073916,1765391594.0410647,-118.65234375,-44.43359375,-120.60546875,-381.34765625,0.0,0,0
1765391594.073941,1765391594.0449593,-114.74609375,-36.1328125,-45.8984375,-394.04296875,0.0,0,0
1765391594.073966,1765391594.048854,-22.4609375,-16.6015625,48.33984375,76.171875,0.0,0,0
1765391594.0739908,1765391594.0527487,39.0625,2.9296875,65.4296875,412.109375,0.0,0,0
1765391594.117182,1765391594.0567315,-3.41796875,-14.16015625,-29.296875,134.765625,0.0,0,0
1765391594.117266,1765391594.060626,-87.890625,-50.78125,-116.2109375,-323.73046875,0.0,0,0
1765391594.1172988,1765391594.0645208,-114.2578125,-55.6640625,-103.02734375,-426.26953125,0.0,0,0
1765391594.117326,1765391594.0684154,-23.92578125,-7.8125,19.04296875,38.0859375,0.0,0,0
1765391594.117353,1765391594.07231,46.875,3.41796875,62.01171875,407.2265625,0.0,0,0
1765391594.1173818,1765391594.0762048,11.23046875,-23.4375,-41.50390625,197.265625,0.0,0,0
1765391594.117409,1765391594.0800993,-89.84375,-42.96875,-131.8359375,-283.69140625,0.0,0,0
1765391594.117434,1765391594.0839942,-135.25390625,-45.41015625,-106.4453125,-455.56640625,0.0,0,0
1765391594.11746,1765391594.0878887,-53.22265625,-24.90234375,16.6015625,-31.25,0.0,0,0
1765391594.117486,1765391594.0917833,26.3671875,-13.18359375,69.82421875,363.28125,0.0,0,0
1765391594.1175108,1765391594.095678,13.18359375,-11.23046875,5.37109375,259.27734375,0.0,0,0
1765391594.1175501,1765391594.0995727,-61.03515625,-17.08984375,-93.26171875,-219.23828125,0.0,0,0
1765391594.207232,1765391594.1038208,-105.46875,-40.0390625,-109.86328125,-465.33203125,0.0,0,0
1765391594.2073002,1765391594.1077156,-52.24609375,-39.55078125,-1.46484375,-88.8671875,0.0,0,0
1765391594.207329,1765391594.1116104,42.48046875,-15.13671875,63.96484375,333.49609375,0.0,0,0
1765391594.20739,1765391594.115505,53.7109375,-11.23046875,6.8359375,319.82421875,0.0,0,0
1765391594.207455,1765391594.1193998,-34.1796875,-33.203125,-92.28515625,-156.73828125,0.0,0,0
1765391594.2074869,1765391594.1232946,-89.84375,-36.62109375,-104.4921875,-454.58984375,0.0,0,0
1765391594.207514,1765391594.1271892,-39.55078125,2.44140625,5.859375,-129.8828125,0.0,0,0
1765391594.20754,1765391594.131084,47.8515625,18.5546875,72.265625,300.78125,0.0,0,0
1765391594.207568,1765391594.1349788,66.40625,-3.41796875,41.9921875,366.2109375,0.0,0,0
1765391594.207593,1765391594.1388733,-34.66796875,-35.64453125,-48.33984375,-122.0703125,0.0,0,0
1765391594.2076192,1765391594.1427681,-110.83984375,-34.66796875,-78.61328125,-475.09765625,0.0,0,0
1765391594.207644,1765391594.146663,-60.05859375,-6.34765625,9.765625,-189.453125,0.0,0,0
1765391594.2090812,1765391594.1506422,31.25,3.90625,69.3359375,269.53125,0.0,0,0
1765391594.209145,1765391594.154537,67.87109375,-1.46484375,4.39453125,407.2265625,0.0,0,0
1765391594.2091782,1765391594.1584315,-18.06640625,-32.2265625,-110.3515625,-51.26953125,0.0,0,0
1765391594.209216,1765391594.1623263,-109.375,-43.45703125,-94.23828125,-459.47265625,0.0,0,0
1765391594.209244,1765391594.1662211,-82.03125,-35.64453125,-16.6015625,-281.73828125,0.0,0,0
1765391594.209269,1765391594.1701157,14.6484375,-23.92578125,44.43359375,179.6875,0.0,0,0
1765391594.209294,1765391594.1740105,55.17578125,-5.37109375,69.3359375,384.765625,0.0,0,0
1765391594.2094238,1765391594.1779053,-24.4140625,-19.53125,-25.390625,-23.4375,0.0,0,0
1765391594.209454,1765391594.1818001,-100.09765625,-42.96875,-88.8671875,-448.2421875,0.0,0,0
1765391594.209482,1765391594.1856947,-81.0546875,-38.57421875,-21.484375,-345.21484375,0.0,0,0
1765391594.2095082,1765391594.1895895,13.671875,-9.765625,63.96484375,161.1328125,0.0,0,0
1765391594.209533,1765391594.1934843,64.94140625,-1.953125,45.41015625,424.8046875,0.0,0,0
1765391594.266777,1765391594.1975226,2.9296875,-22.94921875,-53.7109375,48.828125,0.0,0,0
1765391594.266835,1765391594.2014172,-84.9609375,-40.52734375,-86.42578125,-392.08984375,0.0,0,0
1765391594.266869,1765391594.205312,-89.35546875,-42.96875,-42.48046875,-387.6953125,0.0,0,0
1765391594.266902,1765391594.2092068,5.859375,-14.6484375,55.17578125,95.703125,0.0,0,0
1765391594.266935,1765391594.2131016,58.59375,-1.953125,80.56640625,417.48046875,0.0,0,0
1765391594.266967,1765391594.2169964,-5.859375,-26.85546875,-24.90234375,109.375,0.0,0,0
1765391594.266999,1765391594.220891,-88.37890625,-49.31640625,-79.1015625,-340.8203125,0.0,0,0
1765391594.267078,1765391594.2247858,-95.21484375,-41.015625,-33.69140625,-404.78515625,0.0,0,0
1765391594.2671402,1765391594.2286806,-16.6015625,-17.08984375,37.59765625,51.26953125,0.0,0,0
1765391594.267176,1765391594.2325754,44.921875,-10.7421875,43.45703125,399.90234375,0.0,0,0
1765391594.267212,1765391594.2364702,8.7890625,-27.34375,-32.71484375,176.26953125,0.0,0,0
1765391594.267257,1765391594.2403648,-81.0546875,-47.8515625,-92.28515625,-297.8515625,0.0,0,0
1765391594.311231,1765391594.2443907,-107.421875,-44.921875,-34.1796875,-452.63671875,0.0,0,0
1765391594.311285,1765391594.2482855,-5.37109375,-23.92578125,59.5703125,-0.48828125,0.0,0,0
1765391594.311319,1765391594.2521803,67.3828125,-17.08984375,77.63671875,389.16015625,0.0,0,0
1765391594.311351,1765391594.2560751,19.04296875,-33.203125,22.4609375,226.5625,0.0,0,0
1765391594.311383,1765391594.25997,-83.984375,-33.203125,-55.17578125,-262.6953125,0.0,0,0
1765391594.311417,1765391594.2638648,-120.1171875,-25.390625,-68.84765625,-467.7734375,0.0,0,0
1765391594.311448,1765391594.2677596,-36.62109375,-5.37109375,10.25390625,-56.15234375,0.0,0,0
1765391594.31148,1765391594.2716544,42.48046875,0.9765625,48.828125,348.14453125,0.0,0,0
1765391594.3115132,1765391594.2755492,29.78515625,-17.08984375,-1.46484375,286.62109375,0.0,0,0
1765391594.3115451,1765391594.2794437,-66.89453125,-42.96875,-96.6796875,-191.89453125,0.0,0,0
1765391594.3116229,1765391594.2833385,-105.46875,-44.921875,-123.53515625,-464.84375,0.0,0,0
1765391594.311733,1765391594.2872334,-31.73828125,-26.85546875,-15.625,-116.69921875,0.0,0,0
1765391594.356926,1765391594.2912507,48.33984375,-32.71484375,55.17578125,305.6640625,0.0,0,0
1765391594.357045,1765391594.2951455,57.12890625,-25.87890625,29.296875,347.16796875,0.0,0,0
1765391594.357095,1765391594.2990403,-33.69140625,-14.6484375,-52.734375,-134.27734375,0.0,0,0
1765391594.357145,1765391594.3029351,-118.1640625,-30.2734375,-84.9609375,-498.53515625,0.0,0,0
1765391594.357193,1765391594.30683,-74.21875,-19.04296875,11.71875,-204.58984375,0.0,0,0
1765391594.35724,1765391594.3107247,28.80859375,-3.90625,55.17578125,265.625,0.0,0,0
1765391594.357285,1765391594.3146195,54.6875,-14.16015625,18.5546875,389.6484375,0.0,0,0
1765391594.357326,1765391594.3185143,-36.62109375,-44.43359375,-61.5234375,-76.66015625,0.0,0,0
1765391594.357367,1765391594.3224092,-110.3515625,-46.38671875,-129.8828125,-474.12109375,0.0,0,0
1765391594.357407,1765391594.326304,-76.66015625,-7.8125,-62.98828125,-262.20703125,0.0,0,0
1765391594.357446,1765391594.3301988,13.671875,5.859375,12.6953125,208.49609375,0.0,0,0
1765391594.357496,1765391594.3340936,51.26953125,-14.16015625,11.71875,390.625,0.0,0,0
1765391594.4021928,1765391594.3380978,-20.99609375,-39.0625,-82.03125,-32.2265625,0.0,0,0
1765391594.402258,1765391594.3419926,-94.23828125,-43.9453125,-152.34375,-444.3359375,0.0,0,0
1765391594.402292,1765391594.3458874,-85.44921875,-26.85546875,-81.54296875,-323.73046875,0.0,0,0
1765391594.402325,1765391594.3497822,6.8359375,-14.16015625,13.671875,162.109375,0.0,0,0
1765391594.402396,1765391594.353677,62.98828125,-19.53125,-6.8359375,417.48046875,0.0,0,0
1765391594.402488,1765391594.3575718,-20.5078125,-45.8984375,-101.07421875,30.2734375,0.0,0,0
1765391594.402527,1765391594.3614666,-113.28125,-58.59375,-125.9765625,-401.3671875,0.0,0,0
1765391594.402561,1765391594.3653617,-100.5859375,-37.109375,-64.94140625,-363.76953125,0.0,0,0
1765391594.4025931,1765391594.3692565,-4.39453125,-22.94921875,19.53125,112.3046875,0.0,0,0
1765391594.402626,1765391594.3731513,78.125,-21.484375,43.45703125,437.5,0.0,0,0
1765391594.402658,1765391594.377046,20.01953125,-37.109375,-61.5234375,113.76953125,0.0,0,0
1765391594.40269,1765391594.380941,-89.84375,-52.734375,-148.92578125,-353.515625,0.0,0,0
1765391594.446416,1765391594.3849347,-95.703125,-39.0625,-115.72265625,-401.85546875,0.0,0,0
1765391594.446537,1765391594.3888295,-3.41796875,-17.578125,-19.04296875,69.82421875,0.0,0,0
1765391594.4465852,1765391594.3927243,60.546875,-16.6015625,14.16015625,413.0859375,0.0,0,0
1765391594.4466271,1765391594.396619,11.23046875,-40.52734375,-54.19921875,157.71484375,0.0,0,0
1765391594.446659,1765391594.400514,-79.58984375,-62.01171875,-118.1640625,-298.828125,0.0,0,0
1765391594.446691,1765391594.4044087,-99.609375,-65.4296875,-112.3046875,-422.36328125,0.0,0,0
1765391594.4467251,1765391594.4083037,-21.97265625,-26.3671875,1.953125,22.94921875,0.0,0,0
1765391594.446757,1765391594.4121985,54.19921875,3.41796875,62.98828125,409.1796875,0.0,0,0
1765391594.446789,1765391594.4160933,30.2734375,-12.20703125,-20.01953125,244.140625,0.0,0,0
1765391594.4468212,1765391594.4199882,-49.31640625,-32.2265625,-102.5390625,-221.6796875,0.0,0,0
1765391594.4468522,1765391594.423883,-76.66015625,-30.76171875,-95.703125,-421.38671875,0.0,0,0
1765391594.446883,1765391594.4277778,-15.13671875,-21.484375,-10.7421875,-34.66796875,0.0,0,0
1765391594.507048,1765391594.431852,58.59375,-17.08984375,34.66796875,366.2109375,0.0,0,0
1765391594.507187,1765391594.4357471,43.45703125,-22.4609375,-24.90234375,270.99609375,0.0,0,0
1765391594.507235,1765391594.439642,-60.05859375,-42.96875,-112.3046875,-233.88671875,0.0,0,0
1765391594.507304,1765391594.4435368,-116.69921875,-55.17578125,-106.4453125,-483.88671875,0.0,0,0
1765391594.507403,1765391594.4474318,-50.29296875,-20.01953125,-2.44140625,-109.375,0.0,0,0
1765391594.5075488,1765391594.4513266,33.203125,15.13671875,58.10546875,305.6640625,0.0,0,0
1765391594.507604,1765391594.4552214,38.57421875,6.34765625,22.4609375,322.75390625,0.0,0,0
1765391594.507649,1765391594.4591162,-50.78125,-27.83203125,-83.0078125,-169.921875,0.0,0,0
1765391594.50769,1765391594.4630113,-119.140625,-43.45703125,-120.60546875,-511.23046875,0.0,0,0
1765391594.50773,1765391594.466906,-60.546875,-19.53125,-14.6484375,-192.3828125,0.0,0,0
1765391594.50777,1765391594.4708009,26.85546875,-0.48828125,64.453125,257.8125,0.0,0,0
1765391594.5078132,1765391594.474696,34.66796875,-37.59765625,23.92578125,347.65625,0.0,0,0
1765391594.5498781,1765391594.4786663,-55.17578125,-78.61328125,-86.9140625,-119.140625,0.0,0,0
1765391594.549948,1765391594.4825613,-126.953125,-58.10546875,-115.234375,-493.65234375,0.0,0,0
1765391594.549982,1765391594.4864562,-93.26171875,-34.66796875,-32.2265625,-266.6015625,0.0,0,0
1765391594.55002,1765391594.490351,6.8359375,-5.859375,46.38671875,210.9375,0.0,0,0
1765391594.550111,1765391594.494246,41.9921875,4.8828125,39.55078125,381.34765625,0.0,0,0
1765391594.550177,1765391594.4981408,-37.59765625,-28.80859375,-65.91796875,-57.6171875,0.0,0,0
1765391594.550209,1765391594.5020356,-108.3984375,-44.921875,-105.46875,-462.890625,0.0,0,0
1765391594.550238,1765391594.5059307,-93.26171875,-39.55078125,-30.76171875,-323.2421875,0.0,0,0
1765391594.5502641,1765391594.5098255,0.9765625,-18.06640625,32.2265625,161.62109375,0.0,0,0
1765391594.5502899,1765391594.5137203,44.43359375,-6.34765625,17.578125,392.08984375,0.0,0,0
1765391594.550316,1765391594.5176153,-28.3203125,-41.9921875,-70.3125,3.41796875,0.0,0,0
1765391594.550422,1765391594.5215101,-113.28125,-68.359375,-108.88671875,-425.78125,0.0,0,0
1765391594.596617,1765391594.5254683,-114.74609375,-37.59765625,-49.8046875,-380.859375,0.0,0,0
1765391594.596724,1765391594.5293632,-15.625,-15.13671875,38.57421875,110.3515625,0.0,0,0
1765391594.596763,1765391594.5332582,34.66796875,-20.99609375,46.875,392.578125,0.0,0,0
1765391594.596797,1765391594.537153,-23.92578125,-35.64453125,-53.22265625,55.6640625,0.0,0,0
1765391594.59683,1765391594.541048,-93.26171875,-47.36328125,-116.69921875,-379.39453125,0.0,0,0
1765391594.596863,1765391594.5449429,-97.16796875,-35.15625,-79.58984375,-410.64453125,0.0,0,0
1765391594.596899,1765391594.5488377,-12.6953125,-19.53125,15.625,56.15234375,0.0,0,0
1765391594.5969331,1765391594.5527327,41.50390625,-21.97265625,41.9921875,380.37109375,0.0,0,0
1765391594.5969658,1765391594.5566275,-6.8359375,-47.8515625,-44.921875,101.5625,0.0,0,0
1765391594.597003,1765391594.5605223,-83.0078125,-58.59375,-118.65234375,-351.5625,0.0,0,0
1765391594.597035,1765391594.5644174,-98.14453125,-60.546875,-124.51171875,-449.21875,0.0,0,0
1765391594.597068,1765391594.5683122,-8.30078125,-28.3203125,-17.08984375,21.484375,0.0,0,0
1765391594.642069,1765391594.5723524,62.01171875,-6.8359375,57.12890625,397.4609375,0.0,0,0
1765391594.6421928,1765391594.5762475,28.3203125,-58.59375,-19.53125,186.5234375,0.0,0,0
1765391594.642241,1765391594.5801423,-59.08203125,-65.4296875,-109.86328125,-295.8984375,0.0,0,0
1765391594.642286,1765391594.5840373,-93.26171875,-33.203125,-109.375,-473.14453125,0.0,0,0
1765391594.6423411,1765391594.587932,-11.23046875,-14.16015625,-2.44140625,-47.36328125,0.0,0,0
1765391594.6423821,1765391594.5918272,74.21875,3.90625,60.05859375,364.74609375,0.0,0,0
1765391594.642425,1765391594.595722,53.22265625,-11.71875,-13.671875,269.04296875,0.0,0,0
1765391594.642464,1765391594.599617,-40.52734375,-45.41015625,-103.02734375,-214.35546875,0.0,0,0
1765391594.642544,1765391594.6035118,-94.23828125,-58.10546875,-127.44140625,-468.26171875,0.0,0,0
1765391594.642601,1765391594.6074069,-28.3203125,-20.5078125,-62.98828125,-86.42578125,0.0,0,0
1765391594.6426408,1765391594.6113017,62.98828125,-0.9765625,31.73828125,343.75,0.0,0,0
1765391594.642685,1765391594.6151967,43.45703125,-38.57421875,36.62109375,311.5234375,0.0,0,0
1765391594.687468,1765391594.6192248,-67.3828125,-52.24609375,-50.78125,-189.94140625,0.0,0,0
1765391594.687587,1765391594.6231198,-127.44140625,-39.55078125,-84.9609375,-500.0,0.0,0,0
1765391594.687625,1765391594.6270146,-70.3125,-22.4609375,0.0,-165.0390625,0.0,0,0
1765391594.68766,1765391594.6309097,19.04296875,-21.484375,48.33984375,262.20703125,0.0,0,0
1765391594.687693,1765391594.6348047,32.71484375,-28.3203125,6.8359375,336.9140625,0.0,0,0
1765391594.687725,1765391594.6386995,-54.6875,-37.109375,-97.16796875,-110.83984375,0.0,0,0
1765391594.687757,1765391594.6425946,-107.421875,-46.38671875,-137.20703125,-474.609375,0.0,0,0
1765391594.687789,1765391594.6464894,-81.0546875,-41.015625,-57.12890625,-237.79296875,0.0,0,0
1765391594.687823,1765391594.6503844,-12.20703125,-20.5078125,16.6015625,210.44921875,0.0,0,0
1765391594.687855,1765391594.6542792,29.78515625,-18.5546875,20.01953125,371.58203125,0.0,0,0
1765391594.687886,1765391594.6581743,-40.0390625,-43.45703125,-66.89453125,-55.6640625,0.0,0,0
1765391594.687917,1765391594.6620693,-119.140625,-50.29296875,-108.88671875,-448.2421875,0.0,0,0
1765391594.7317781,1765391594.6660864,-93.26171875,-44.921875,-34.1796875,-281.25,0.0,0,0
1765391594.731981,1765391594.6699815,-1.46484375,-20.99609375,51.26953125,192.87109375,0.0,0,0
1765391594.732039,1765391594.6738765,44.43359375,-3.90625,49.31640625,421.38671875,0.0,0,0
1765391594.732086,1765391594.6777713,-24.4140625,-46.38671875,-65.91796875,11.71875,0.0,0,0
1765391594.7321332,1765391594.6816664,-96.19140625,-71.2890625,-114.74609375,-410.15625,0.0,0,0
1765391594.7321742,1765391594.6855612,-94.7265625,-39.55078125,-52.24609375,-331.0546875,0.0,0,0
1765391594.732214,1765391594.6894562,-12.20703125,-14.16015625,38.57421875,131.34765625,0.0,0,0
1765391594.732256,1765391594.6933513,45.8984375,-7.32421875,63.4765625,405.2734375,0.0,0,0
1765391594.732296,1765391594.697246,-19.04296875,-25.87890625,-50.29296875,54.6875,0.0,0,0
1765391594.732337,1765391594.701141,-97.65625,-48.828125,-118.1640625,-378.90625,0.0,0,0
1765391594.732405,1765391594.7050362,-103.515625,-33.203125,-55.6640625,-385.25390625,0.0,0,0
1765391594.732445,1765391594.708931,-26.85546875,-22.94921875,32.2265625,79.1015625,0.0,0,0
1765391594.8066041,1765391594.7131147,43.45703125,-20.01953125,52.24609375,414.55078125,0.0,0,0
1765391594.806754,1765391594.7170098,1.953125,-36.62109375,-47.8515625,131.34765625,0.0,0,0
1765391594.806806,1765391594.7209048,-72.265625,-53.22265625,-112.3046875,-306.15234375,0.0,0,0
1765391594.806849,1765391594.7247999,-90.33203125,-47.36328125,-89.35546875,-394.53125,0.0,0,0
1765391594.806921,1765391594.728695,-20.99609375,-22.94921875,0.9765625,45.41015625,0.0,0,0
1765391594.8069649,1765391594.73259,48.828125,6.34765625,62.5,417.48046875,0.0,0,0
1765391594.807006,1765391594.736485,13.18359375,-17.578125,-28.3203125,198.73046875,0.0,0,0
1765391594.807046,1765391594.7403798,-81.54296875,-57.6171875,-111.81640625,-274.90234375,0.0,0,0
1765391594.807086,1765391594.7442749,-113.76953125,-49.8046875,-79.1015625,-438.96484375,0.0,0,0
1765391594.807117,1765391594.74817,-33.69140625,-23.4375,33.69140625,-27.83203125,0.0,0,0
1765391594.807148,1765391594.752065,37.109375,-16.6015625,60.546875,358.88671875,0.0,0,0
1765391594.807178,1765391594.75596,13.671875,-35.15625,-9.27734375,238.76953125,0.0,0,0
1765391594.822345,1765391594.7599578,-70.80078125,-57.6171875,-67.87109375,-242.67578125,0.0,0,0
1765391594.822444,1765391594.7638528,-119.62890625,-53.7109375,-73.73046875,-482.421875,0.0,0,0
1765391594.8224928,1765391594.7677479,-52.24609375,-22.4609375,24.90234375,-90.8203125,0.0,0,0
1765391594.8225348,1765391594.771643,36.1328125,-4.8828125,83.49609375,336.42578125,0.0,0,0
1765391594.822578,1765391594.775538,36.62109375,-19.53125,19.53125,304.6875,0.0,0,0
1765391594.82262,1765391594.779433,-56.640625,-49.8046875,-98.14453125,-177.24609375,0.0,0,0
1765391594.8226602,1765391594.783328,-107.91015625,-53.7109375,-119.62890625,-463.8671875,0.0,0,0
1765391594.8227,1765391594.787223,-44.921875,-20.99609375,-4.39453125,-129.39453125,0.0,0,0
1765391594.82274,1765391594.7911181,45.41015625,-1.953125,59.08203125,287.59765625,0.0,0,0
1765391594.822779,1765391594.7950132,60.546875,-16.11328125,19.04296875,345.703125,0.0,0,0
1765391594.822818,1765391594.7989082,-38.57421875,-44.921875,-74.70703125,-131.34765625,0.0,0,0
1765391594.822858,1765391594.802803,-107.421875,-53.22265625,-106.93359375,-490.234375,0.0,0,0
1765391594.88154,1765391594.8067856,-58.59375,-28.3203125,-21.97265625,-196.2890625,0.0,0,0
1765391594.881719,1765391594.8106806,28.3203125,-18.5546875,50.78125,259.765625,0.0,0,0
1765391594.881758,1765391594.8145757,53.7109375,-21.97265625,35.15625,375.48828125,0.0,0,0
1765391594.881792,1765391594.8184707,-34.1796875,-43.9453125,-70.3125,-80.56640625,0.0,0,0
1765391594.881829,1765391594.8223658,-105.95703125,-53.7109375,-129.39453125,-455.078125,0.0,0,0
1765391594.881862,1765391594.8262608,-70.3125,-34.66796875,-57.12890625,-250.0,0.0,0,0
1765391594.8818939,1765391594.8301558,24.4140625,-9.27734375,48.33984375,221.6796875,0.0,0,0
1765391594.8819258,1765391594.834051,60.05859375,3.90625,37.59765625,411.62109375,0.0,0,0
1765391594.881957,1765391594.837946,-14.16015625,-20.01953125,-62.01171875,-6.8359375,0.0,0,0
1765391594.881988,1765391594.841841,-85.44921875,-45.41015625,-107.421875,-420.8984375,0.0,0,0
1765391594.88202,1765391594.845736,-69.3359375,-38.0859375,-52.24609375,-311.03515625,0.0,0,0
1765391594.882051,1765391594.849631,6.34765625,-14.6484375,23.4375,166.015625,0.0,0,0
1765391594.911436,1765391594.8536012,52.734375,-10.7421875,29.78515625,406.25,0.0,0,0
1765391594.911545,1765391594.8574963,1.46484375,-31.25,-68.359375,28.3203125,0.0,0,0
1765391594.911585,1765391594.8613913,-69.82421875,-38.0859375,-121.58203125,-399.90234375,0.0,0,0
1765391594.9117188,1765391594.8652864,-72.75390625,-31.25,-67.3828125,-381.8359375,0.0,0,0
1765391594.911756,1765391594.8691814,10.25390625,-17.578125,17.578125,102.05078125,0.0,0,0
1765391594.911789,1765391594.8730764,71.2890625,-0.9765625,35.15625,414.0625,0.0,0,0
1765391594.911822,1765391594.8769715,-1.953125,-35.64453125,-55.6640625,70.80078125,0.0,0,0
1765391594.911854,1765391594.8808665,-100.5859375,-61.03515625,-110.3515625,-382.32421875,0.0,0,0
1765391594.911886,1765391594.8847616,-107.421875,-36.62109375,-76.66015625,-430.6640625,0.0,0,0
1765391594.9119182,1765391594.8886566,-13.18359375,-15.625,25.87890625,39.0625,0.0,0,0
1765391594.911951,1765391594.8925517,54.6875,-20.99609375,51.7578125,397.4609375,0.0,0,0
1765391594.911983,1765391594.8964467,11.71875,-31.25,-42.96875,157.71484375,0.0,0,0
1765391594.9727192,1765391594.9004066,-74.21875,-39.0625,-96.19140625,-316.40625,0.0,0,0
1765391594.972873,1765391594.9043016,-99.609375,-35.15625,-69.82421875,-461.42578125,0.0,0,0
1765391594.9729888,1765391594.9081967,-21.97265625,-17.578125,19.53125,-20.99609375,0.0,0,0
1765391594.973085,1765391594.9120917,48.828125,-22.4609375,50.78125,378.41796875,0.0,0,0
1765391594.973152,1765391594.9159868,17.08984375,-37.59765625,-20.01953125,218.75,0.0,0,0
1765391594.973212,1765391594.9198818,-91.30859375,-46.38671875,-99.12109375,-281.25,0.0,0,0
1765391594.97327,1765391594.9237769,-136.71875,-44.921875,-92.28515625,-491.2109375,0.0,0,0
1765391594.973326,1765391594.927672,-54.19921875,-26.3671875,7.32421875,-83.984375,0.0,0,0
1765391594.973366,1765391594.931567,28.3203125,-27.83203125,56.640625,330.078125,0.0,0,0
1765391594.973407,1765391594.935462,21.484375,-39.0625,7.32421875,272.94921875,0.0,0,0
1765391594.9734468,1765391594.9393573,-67.3828125,-44.43359375,-84.9609375,-208.984375,0.0,0,0
1765391594.9734871,1765391594.9432523,-125.0,-46.875,-106.4453125,-483.3984375,0.0,0,0
1765391595.016931,1765391594.94729,-62.98828125,-24.4140625,-22.94921875,-123.046875,0.0,0,0
1765391595.017073,1765391594.951185,26.85546875,-5.37109375,27.34375,308.10546875,0.0,0,0
1765391595.017123,1765391594.95508,40.0390625,-20.01953125,4.8828125,334.9609375,0.0,0,0
1765391595.017167,1765391594.9589753,-55.6640625,-62.98828125,-87.890625,-148.4375,0.0,0,0
1765391595.01721,1765391594.9628704,-124.51171875,-67.3828125,-125.9765625,-481.93359375,0.0,0,0
1765391595.0172539,1765391594.9667654,-69.82421875,-29.296875,-19.04296875,-182.12890625,0.0,0,0
1765391595.0172951,1765391594.9706604,22.4609375,-20.99609375,52.734375,258.7890625,0.0,0,0
1765391595.017335,1765391594.9745555,46.38671875,-25.390625,15.625,368.1640625,0.0,0,0
1765391595.0173771,1765391594.9784508,-48.33984375,-48.828125,-82.51953125,-82.51953125,0.0,0,0
1765391595.017419,1765391594.9823458,-120.60546875,-58.10546875,-119.62890625,-463.37890625,0.0,0,0
1765391595.017459,1765391594.9862409,-85.9375,-31.73828125,-28.80859375,-250.9765625,0.0,0,0
1765391595.017502,1765391594.990136,0.48828125,-21.484375,57.6171875,215.33203125,0.0,0,0
1765391595.106069,1765391594.9944248,39.55078125,-20.01953125,55.17578125,396.97265625,0.0,0,0
1765391595.1061141,1765391594.99832,-30.2734375,-32.2265625,-44.921875,-19.53125,0.0,0,0
1765391595.10613,1765391595.0022151,-105.95703125,-54.19921875,-105.95703125,-430.6640625,0.0,0,0
1765391595.106143,1765391595.0061104,-93.75,-48.828125,-46.38671875,-308.10546875,0.0,0,0
1765391595.106155,1765391595.0100055,0.48828125,-23.4375,47.8515625,174.8046875,0.0,0,0
1765391595.106173,1765391595.0139008,53.7109375,-10.7421875,59.5703125,414.0625,0.0,0,0
1765391595.106188,1765391595.0177958,-20.01953125,-34.66796875,-54.19921875,22.94921875,0.0,0,0
1765391595.1062,1765391595.021691,-100.5859375,-54.6875,-122.55859375,-400.390625,0.0,0,0
1765391595.1062121,1765391595.0255861,-87.890625,-40.52734375,-72.75390625,-361.328125,0.0,0,0
1765391595.106224,1765391595.0294814,5.859375,-9.27734375,36.1328125,117.67578125,0.0,0,0
1765391595.106236,1765391595.0333765,61.5234375,-13.18359375,72.265625,424.31640625,0.0,0,0
1765391595.106248,1765391595.0372717,6.8359375,-43.9453125,-30.76171875,90.33203125,0.0,0,0
1765391595.109076,1765391595.0412967,-73.73046875,-48.33984375,-105.95703125,-351.5625,0.0,0,0
1765391595.109097,1765391595.0451918,-89.84375,-41.9921875,-83.0078125,-398.92578125,0.0,0,0
1765391595.109113,1765391595.049087,-11.71875,-26.85546875,21.484375,57.12890625,0.0,0,0
1765391595.1091268,1765391595.052982,60.05859375,-16.11328125,71.2890625,404.296875,0.0,0,0
1765391595.109139,1765391595.0568774,22.94921875,-46.875,-17.578125,147.4609375,0.0,0,0
1765391595.109151,1765391595.0607727,-69.3359375,-57.6171875,-92.7734375,-312.01171875,0.0,0,0
1765391595.109165,1765391595.0646677,-96.19140625,-36.62109375,-75.1953125,-424.31640625,0.0,0,0
1765391595.109177,1765391595.068563,-11.23046875,-8.7890625,18.06640625,32.71484375,0.0,0,0
1765391595.109189,1765391595.072458,62.01171875,7.32421875,56.15234375,416.015625,0.0,0,0
1765391595.109201,1765391595.0763533,18.5546875,-21.484375,-24.4140625,224.609375,0.0,0,0
1765391595.1092129,1765391595.0802484,-69.3359375,-40.0390625,-102.5390625,-251.46484375,0.0,0,0
1765391595.109225,1765391595.0841436,-101.07421875,-28.80859375,-97.16796875,-437.5,0.0,0,0
1765391595.151037,1765391595.0881429,-32.2265625,-17.08984375,-6.34765625,-28.3203125,0.0,0,0
1765391595.1510668,1765391595.092038,43.45703125,-11.71875,61.5234375,382.8125,0.0,0,0
1765391595.151089,1765391595.0959332,26.85546875,-20.99609375,2.44140625,314.453125,0.0,0,0
1765391595.151105,1765391595.0998285,-62.01171875,-57.6171875,-98.14453125,-169.921875,0.0,0,0
1765391595.15112,1765391595.1037235,-110.3515625,-70.80078125,-99.12109375,-446.2890625,0.0,0,0
1765391595.151136,1765391595.1076188,-45.8984375,-21.484375,-1.46484375,-73.2421875,0.0,0,0
1765391595.1511528,1765391595.1115139,38.0859375,3.41796875,46.38671875,339.84375,0.0,0,0
1765391595.151168,1765391595.1154091,42.96875,-13.18359375,1.46484375,320.80078125,0.0,0,0
1765391595.1511838,1765391595.1193044,-43.45703125,-14.6484375,-90.33203125,-151.85546875,0.0,0,0
1765391595.1512,1765391595.1231995,-109.375,-20.99609375,-107.91015625,-466.796875,0.0,0,0
1765391595.151215,1765391595.1270947,-42.48046875,-22.4609375,-15.13671875,-141.6015625,0.0,0,0
1765391595.1512299,1765391595.13099,51.26953125,-12.20703125,32.2265625,312.98828125,0.0,0,0
1765391595.196584,1765391595.134978,54.6875,-12.6953125,11.71875,382.32421875,0.0,0,0
1765391595.196618,1765391595.138873,-30.76171875,-29.78515625,-68.84765625,-92.7734375,0.0,0,0
1765391595.196636,1765391595.1427684,-94.7265625,-48.33984375,-102.5390625,-464.35546875,0.0,0,0
1765391595.196654,1765391595.1466637,-62.98828125,-24.90234375,-14.16015625,-220.21484375,0.0,0,0
1765391595.196672,1765391595.1505587,25.390625,-0.48828125,41.50390625,241.2109375,0.0,0,0
1765391595.1966898,1765391595.154454,52.734375,-14.6484375,3.41796875,380.859375,0.0,0,0
1765391595.196707,1765391595.1583493,-29.296875,-44.43359375,-87.40234375,-55.6640625,0.0,0,0
1765391595.1967528,1765391595.1622446,-95.21484375,-47.36328125,-114.74609375,-451.66015625,0.0,0,0
1765391595.196796,1765391595.1661396,-73.2421875,-31.25,-36.62109375,-308.59375,0.0,0,0
1765391595.196816,1765391595.170035,14.6484375,-17.578125,47.36328125,174.8046875,0.0,0,0
1765391595.196835,1765391595.1739302,53.7109375,-17.578125,42.48046875,385.25390625,0.0,0,0
1765391595.196853,1765391595.1778252,-18.06640625,-38.57421875,-64.94140625,-17.08984375,0.0,0,0
1765391595.287447,1765391595.1820748,-93.26171875,-56.640625,-128.90625,-416.50390625,0.0,0,1
1765391595.287519,1765391595.18597,-87.40234375,-52.24609375,-60.546875,-353.02734375,0.0,0,0
1765391595.287541,1765391595.1898654,4.39453125,-12.6953125,50.78125,134.765625,0.0,0,0
1765391595.287562,1765391595.1937606,61.03515625,3.90625,60.05859375,420.41015625,0.0,0,0
1765391595.2875829,1765391595.197656,-4.8828125,-28.3203125,-48.33984375,72.265625,0.0,0,0
1765391595.2876039,1765391595.2015512,-85.44921875,-43.45703125,-106.4453125,-370.1171875,0.0,0,0
1765391595.287624,1765391595.2054465,-91.796875,-31.73828125,-55.6640625,-389.16015625,0.0,0,0
1765391595.28773,1765391595.2093418,-12.6953125,-10.7421875,28.80859375,79.1015625,0.0,0,0
1765391595.2877529,1765391595.213237,47.8515625,-8.7890625,44.921875,404.296875,0.0,0,0
1765391595.2877738,1765391595.2171323,2.44140625,-45.8984375,-47.36328125,123.53515625,0.0,0,0
1765391595.2877948,1765391595.2210276,-74.70703125,-70.3125,-101.07421875,-325.68359375,0.0,0,0
1765391595.2878442,1765391595.224923,-93.26171875,-46.875,-67.3828125,-429.19921875,0.0,0,0
1765391595.288459,1765391595.2289107,-6.8359375,-14.16015625,28.3203125,22.4609375,0.0,0,0
1765391595.2885141,1765391595.232806,68.359375,-1.46484375,77.1484375,411.62109375,0.0,0,0
1765391595.2885408,1765391595.2367013,28.80859375,-13.18359375,-19.53125,210.9375,0.0,0,0
1765391595.288564,1765391595.2405965,-63.4765625,-36.1328125,-125.9765625,-270.5078125,0.0,0,0
1765391595.288586,1765391595.2444918,-87.40234375,-39.0625,-117.1875,-443.359375,0.0,0,0
1765391595.288607,1765391595.248387,-16.6015625,-19.53125,-2.9296875,-22.4609375,0.0,0,0
1765391595.288627,1765391595.2522824,35.15625,-13.671875,51.26953125,369.140625,0.0,0,0
1765391595.288648,1765391595.2561777,17.08984375,-26.3671875,-12.20703125,245.1171875,0.0,0,0
1765391595.288668,1765391595.260073,-66.89453125,-49.31640625,-100.09765625,-244.140625,0.0,0,0
1765391595.288689,1765391595.2639682,-119.140625,-54.6875,-114.2578125,-479.00390625,0.0,0,0
1765391595.2887092,1765391595.2678635,-47.8515625,-25.390625,-11.23046875,-100.09765625,0.0,0,0
1765391595.2887301,1765391595.2717588,33.203125,-12.6953125,37.109375,317.3828125,0.0,0,0
1765391595.3459551,1765391595.275714,33.69140625,-33.69140625,-14.6484375,302.734375,0.0,0,0
1765391595.3460531,1765391595.2796092,-56.15234375,-45.41015625,-100.09765625,-188.4765625,0.0,0,0
1765391595.346093,1765391595.2835045,-119.62890625,-38.57421875,-114.74609375,-497.55859375,0.0,0,0
1765391595.3461308,1765391595.2873998,-66.40625,-16.11328125,-22.94921875,-162.109375,0.0,0,0
1765391595.346165,1765391595.291295,20.99609375,-10.25390625,3.90625,272.4609375,0.0,0,0
1765391595.346197,1765391595.2951903,48.828125,-14.6484375,-28.3203125,349.12109375,0.0,0,0
1765391595.346247,1765391595.2990856,-30.76171875,-13.18359375,-97.16796875,-122.0703125,0.0,0,0
1765391595.346282,1765391595.302981,-107.421875,-37.109375,-121.58203125,-495.60546875,0.0,0,0
1765391595.346315,1765391595.3068762,-72.75390625,-32.71484375,-33.69140625,-230.95703125,0.0,0,0
1765391595.346348,1765391595.3107715,9.27734375,-1.953125,35.64453125,229.4921875,0.0,0,0
1765391595.34638,1765391595.314667,48.33984375,-6.8359375,18.06640625,377.44140625,0.0,0,0
1765391595.346412,1765391595.3185623,-12.6953125,-32.71484375,-80.56640625,-59.08203125,0.0,0,0
1765391595.3921652,1765391595.3225932,-97.16796875,-51.7578125,-137.6953125,-451.66015625,0.0,0,0
1765391595.392258,1765391595.3264885,-87.40234375,-44.43359375,-71.77734375,-280.2734375,0.0,0,0
1765391595.392297,1765391595.330384,6.34765625,-11.23046875,14.6484375,187.5,0.0,0,0
1765391595.3923311,1765391595.3342793,55.17578125,-0.9765625,23.4375,400.87890625,0.0,0,0
1765391595.392365,1765391595.3381746,-20.5078125,-30.2734375,-77.1484375,-6.8359375,0.0,0,0
1765391595.3923972,1765391595.3420699,-103.02734375,-53.22265625,-141.6015625,-421.875,0.0,0,0
1765391595.392429,1765391595.3459651,-93.75,-50.29296875,-77.63671875,-331.54296875,0.0,0,0
1765391595.392461,1765391595.3498604,-1.953125,-22.94921875,22.4609375,142.08984375,0.0,0,0
1765391595.392493,1765391595.353756,54.19921875,-12.6953125,43.9453125,410.15625,0.0,0,0
1765391595.392524,1765391595.3576512,-16.6015625,-32.71484375,-56.640625,45.8984375,0.0,0,0
1765391595.392556,1765391595.3615465,-91.30859375,-51.26953125,-126.46484375,-392.578125,0.0,0,0
1765391595.3925881,1765391595.3654418,-91.796875,-43.45703125,-84.47265625,-388.18359375,0.0,0,0
1765391595.436264,1765391595.3694637,-19.04296875,-27.83203125,15.13671875,85.44921875,0.0,0,0
1765391595.436357,1765391595.373359,40.0390625,-21.97265625,35.64453125,399.4140625,0.0,0,0
1765391595.436387,1765391595.3772545,-1.953125,-34.1796875,-64.453125,98.14453125,0.0,0,0
1765391595.436417,1765391595.3811498,-87.890625,-53.7109375,-121.09375,-347.65625,0.0,0,0
1765391595.436445,1765391595.385045,-114.74609375,-47.36328125,-99.609375,-432.12890625,0.0,0,0
1765391595.436491,1765391595.3889403,-30.76171875,-20.99609375,-2.44140625,33.203125,0.0,0,0
1765391595.4365172,1765391595.3928359,36.1328125,-2.9296875,50.29296875,390.625,0.0,0,0
1765391595.436543,1765391595.3967311,-6.8359375,-29.296875,-31.73828125,150.390625,0.0,0,0
1765391595.436568,1765391595.4006264,-85.44921875,-43.9453125,-108.88671875,-313.96484375,0.0,0,0
1765391595.436594,1765391595.4045217,-110.3515625,-23.4375,-89.35546875,-458.49609375,0.0,0,0
1765391595.436619,1765391595.4084172,-31.25,-10.7421875,8.7890625,-17.08984375,0.0,0,0
1765391595.436644,1765391595.4123125,44.921875,-13.671875,52.24609375,377.9296875,0.0,0,0
1765391595.4817228,1765391595.4163234,26.85546875,-31.25,-21.484375,239.2578125,0.0,0,0
1765391595.481909,1765391595.4202187,-69.3359375,-50.29296875,-112.3046875,-240.72265625,0.0,0,0
1765391595.481981,1765391595.424114,-125.48828125,-51.26953125,-128.41796875,-469.23828125,0.0,0,0
1765391595.482028,1765391595.4280095,-59.08203125,-27.83203125,-31.73828125,-88.37890625,0.0,0,0
1765391595.482071,1765391595.4319048,29.296875,-8.7890625,43.45703125,322.75390625,0.0,0,0
1765391595.482112,1765391595.4358,24.90234375,-20.5078125,-6.34765625,283.203125,0.0,0,0
1765391595.482153,1765391595.4396956,-59.08203125,-48.828125,-102.05078125,-190.4296875,0.0,0,0
1765391595.482194,1765391595.4435909,-102.5390625,-48.33984375,-123.046875,-476.07421875,0.0,0,0
1765391595.482243,1765391595.4474862,-46.875,-14.16015625,-25.390625,-127.9296875,0.0,0,0
1765391595.4822872,1765391595.4513817,37.59765625,6.34765625,46.38671875,305.17578125,0.0,0,0
1765391595.482333,1765391595.455277,57.6171875,-7.8125,14.6484375,357.421875,0.0,0,0
1765391595.482378,1765391595.4591722,-36.1328125,-39.0625,-99.609375,-122.55859375,0.0,0,0
1765391595.52806,1765391595.4631739,-113.28125,-50.78125,-140.625,-475.5859375,0.0,0,0
1765391595.528308,1765391595.4670691,-58.10546875,-34.66796875,-27.34375,-185.05859375,0.0,0,0
1765391595.528385,1765391595.4709647,41.50390625,-8.7890625,54.19921875,266.6015625,0.0,0,0
1765391595.528446,1765391595.47486,58.59375,-12.20703125,23.4375,380.37109375,0.0,0,0
1765391595.528588,1765391595.4787552,-30.2734375,-46.875,-77.1484375,-78.61328125,0.0,0,0
1765391595.5286322,1765391595.4826508,-91.796875,-58.10546875,-121.09375,-452.63671875,0.0,0,0
1765391595.5286741,1765391595.486546,-58.59375,-42.96875,-55.17578125,-239.74609375,0.0,0,0
1765391595.528715,1765391595.4904416,30.76171875,-15.13671875,20.01953125,225.09765625,0.0,0,0
1765391595.528756,1765391595.4943368,68.359375,-9.27734375,16.11328125,405.2734375,0.0,0,0
1765391595.528804,1765391595.4982321,-15.625,-34.1796875,-73.2421875,-15.625,0.0,0,0
1765391595.528845,1765391595.5021276,-98.14453125,-40.0390625,-109.86328125,-418.45703125,0.0,0,0
1765391595.5289679,1765391595.506023,-78.61328125,-30.2734375,-41.015625,-291.015625,0.0,0,0
1765391595.587975,1765391595.5101082,20.01953125,-24.4140625,42.96875,188.4765625,0.0,0,0
1765391595.58812,1765391595.5140038,64.94140625,-24.90234375,41.015625,426.26953125,0.0,0,0
1765391595.588159,1765391595.517899,-17.578125,-40.52734375,-55.17578125,37.59765625,0.0,0,0
1765391595.588193,1765391595.5217946,-102.05078125,-50.78125,-99.609375,-398.4375,0.0,0,0
1765391595.588226,1765391595.5256898,-96.6796875,-41.015625,-54.6875,-358.3984375,0.0,0,0
1765391595.58828,1765391595.5295854,-6.8359375,-17.08984375,36.1328125,120.60546875,0.0,0,0
1765391595.5883389,1765391595.5334806,53.7109375,-15.13671875,59.08203125,415.0390625,0.0,0,0
1765391595.5884101,1765391595.5373762,-1.46484375,-42.48046875,-50.78125,89.84375,0.0,0,0
1765391595.588449,1765391595.5412714,-84.9609375,-51.7578125,-119.62890625,-354.00390625,0.0,0,0
1765391595.588525,1765391595.545167,-93.75,-34.1796875,-79.58984375,-403.3203125,0.0,0,0
1765391595.5886111,1765391595.5490623,-15.625,-2.44140625,20.99609375,66.89453125,0.0,0,0
1765391595.5888371,1765391595.5529578,46.38671875,10.7421875,62.01171875,424.31640625,0.0,0,0
1765391595.618712,1765391595.5569456,19.53125,-16.11328125,-24.4140625,176.7578125,0.0,0,0
1765391595.618848,1765391595.560841,-68.84765625,-49.8046875,-106.4453125,-291.50390625,0.0,0,0
1765391595.618888,1765391595.5647364,-108.3984375,-52.24609375,-93.75,-429.6875,0.0,0,0
1765391595.618922,1765391595.568632,-17.08984375,-24.4140625,7.32421875,12.20703125,0.0,0,0
1765391595.618955,1765391595.5725272,60.546875,-10.25390625,48.33984375,392.08984375,0.0,0,0
1765391595.618987,1765391595.5764227,22.94921875,-28.3203125,-22.4609375,217.7734375,0.0,0,0
1765391595.619019,1765391595.5803182,-72.75390625,-51.7578125,-114.2578125,-268.06640625,0.0,0,0
1765391595.6190689,1765391595.5842135,-114.2578125,-55.17578125,-118.65234375,-479.00390625,0.0,0,0
1765391595.619104,1765391595.588109,-37.109375,-24.90234375,-10.7421875,-63.96484375,0.0,0,0
1765391595.619136,1765391595.5920043,49.8046875,-10.25390625,49.31640625,350.09765625,0.0,0,0
1765391595.619173,1765391595.5958998,45.41015625,-31.25,-2.44140625,278.3203125,0.0,0,0
1765391595.6192052,1765391595.5997953,-59.08203125,-61.03515625,-108.3984375,-215.8203125,0.0,0,0
1765391595.661907,1765391595.6037614,-122.0703125,-66.40625,-120.60546875,-495.60546875,0.0,0,0
1765391595.6621199,1765391595.607657,-61.5234375,-35.15625,-17.08984375,-131.8359375,0.0,0,0
1765391595.662187,1765391595.6115525,22.4609375,-14.6484375,41.9921875,291.50390625,0.0,0,0
1765391595.662245,1765391595.6154478,41.9921875,-24.90234375,10.25390625,312.01171875,0.0,0,0
1765391595.662303,1765391595.6193433,-46.875,-54.19921875,-96.6796875,-171.875,0.0,0,0
1765391595.66236,1765391595.6232388,-111.328125,-63.4765625,-129.8828125,-500.9765625,0.0,0,0
1765391595.662414,1765391595.627134,-48.828125,-23.4375,-18.06640625,-174.31640625,0.0,0,0
1765391595.6624691,1765391595.6310296,28.80859375,-2.9296875,54.19921875,266.6015625,0.0,0,0
1765391595.662524,1765391595.6349251,49.8046875,-17.578125,27.34375,354.4921875,0.0,0,0
1765391595.662577,1765391595.6388204,-31.25,-47.36328125,-79.1015625,-105.95703125,0.0,0,0
1765391595.662632,1765391595.642716,-107.421875,-61.03515625,-119.140625,-478.515625,0.0,0,0
1765391595.662685,1765391595.6466112,-73.73046875,-28.80859375,-16.11328125,-233.3984375,0.0,0,0
1765391595.721239,1765391595.650575,6.8359375,-10.25390625,62.5,224.609375,0.0,0,0
1765391595.721452,1765391595.6544702,48.828125,-18.5546875,41.9921875,387.6953125,0.0,0,0
1765391595.721492,1765391595.6583657,-22.4609375,-53.22265625,-96.19140625,-40.0390625,0.0,0,0
1765391595.721523,1765391595.6622612,-97.65625,-55.6640625,-149.90234375,-453.61328125,0.0,0,0
1765391595.7215512,1765391595.6661565,-79.58984375,-23.92578125,-32.2265625,-313.4765625,0.0,0,0
1765391595.721578,1765391595.670052,2.44140625,-5.859375,77.1484375,172.36328125,0.0,0,0
1765391595.721605,1765391595.6739476,45.8984375,-1.953125,79.1015625,402.83203125,0.0,0,0
1765391595.721631,1765391595.677843,-26.85546875,-42.96875,-58.10546875,-15.625,0.0,0,0
1765391595.721659,1765391595.6817384,-104.4921875,-63.96484375,-124.51171875,-441.40625,0.0,0,0
1765391595.721685,1765391595.685634,-94.23828125,-36.62109375,-47.8515625,-355.46875,0.0,0,0
1765391595.7217112,1765391595.6895294,-2.44140625,-13.671875,39.0625,142.578125,0.0,0,0
1765391595.721737,1765391595.6934247,53.22265625,-6.34765625,44.43359375,424.8046875,0.0,0,0
1765391595.766531,1765391595.697458,-1.46484375,-29.296875,-49.31640625,69.3359375,0.0,0,0
1765391595.766666,1765391595.7013535,-87.40234375,-51.26953125,-100.5859375,-370.1171875,0.0,0,0
1765391595.766697,1765391595.705249,-103.515625,-34.66796875,-53.7109375,-388.18359375,0.0,0,0
1765391595.766725,1765391595.7091444,-17.08984375,-12.20703125,42.96875,90.8203125,0.0,0,0
1765391595.766755,1765391595.7130399,61.5234375,-3.41796875,63.4765625,437.01171875,0.0,0,0
1765391595.766783,1765391595.7169354,12.20703125,-21.97265625,-32.71484375,157.71484375,0.0,0,0
1765391595.7668102,1765391595.720831,-87.40234375,-49.8046875,-99.609375,-310.546875,0.0,0,0
1765391595.766837,1765391595.7247262,-109.375,-46.38671875,-65.4296875,-419.921875,0.0,0,0
1765391595.766863,1765391595.7286217,-18.06640625,-17.08984375,39.0625,39.0625,0.0,0,0
1765391595.766926,1765391595.7325172,58.59375,-12.20703125,63.4765625,418.9453125,0.0,0,0
1765391595.766953,1765391595.7364128,30.76171875,-32.2265625,-37.59765625,227.05078125,0.0,0,0
1765391595.766979,1765391595.7403083,-55.6640625,-42.96875,-121.09375,-254.8828125,0.0,0,0
1765391595.812922,1765391595.7443314,-102.05078125,-40.0390625,-108.3984375,-449.70703125,0.0,0,0
1765391595.81314,1765391595.748227,-29.78515625,-20.01953125,0.9765625,-31.25,0.0,0,0
1765391595.81321,1765391595.7521224,51.26953125,-0.9765625,60.546875,374.51171875,0.0,0,0
1765391595.81327,1765391595.7560177,20.99609375,-18.06640625,-12.20703125,262.6953125,0.0,0,0
1765391595.813343,1765391595.7599132,-71.2890625,-40.52734375,-101.5625,-220.21484375,0.0,0,0
1765391595.813399,1765391595.7638087,-106.93359375,-44.43359375,-84.47265625,-459.9609375,0.0,0,0
1765391595.813461,1765391595.7677042,-41.9921875,-33.69140625,16.6015625,-91.30859375,0.0,0,0
1765391595.813519,1765391595.7715998,32.2265625,-24.4140625,65.91796875,319.82421875,0.0,0,0
1765391595.813575,1765391595.7754953,41.50390625,-32.71484375,28.3203125,315.4296875,0.0,0,0
1765391595.813629,1765391595.7793908,-46.875,-41.015625,-69.82421875,-168.45703125,0.0,0,0
1765391595.813684,1765391595.783286,-116.2109375,-34.66796875,-89.35546875,-482.91015625,0.0,0,0
1765391595.8137379,1765391595.7871816,-61.03515625,-14.16015625,-3.90625,-137.20703125,0.0,0,0
1765391595.902025,1765391595.7914488,41.015625,0.0,38.57421875,309.08203125,0.0,0,0
1765391595.902109,1765391595.7953444,57.12890625,-8.30078125,17.578125,363.28125,0.0,0,0
1765391595.90214,1765391595.7992399,-49.8046875,-46.38671875,-84.9609375,-119.62890625,0.0,0,0
1765391595.902167,1765391595.8031354,-119.62890625,-53.7109375,-123.046875,-474.12109375,0.0,0,0
1765391595.902194,1765391595.807031,-63.4765625,-31.25,-24.4140625,-205.56640625,0.0,0,0
1765391595.902221,1765391595.8109267,22.94921875,-13.18359375,42.48046875,247.0703125,0.0,0,0
1765391595.902247,1765391595.8148222,47.36328125,-16.6015625,20.5078125,386.71875,0.0,0,0
1765391595.902272,1765391595.8187177,-26.85546875,-47.36328125,-68.359375,-60.05859375,0.0,0,0
1765391595.902337,1765391595.8226132,-102.5390625,-53.7109375,-128.41796875,-456.54296875,0.0,0,0
1765391595.902368,1765391595.8265088,-74.21875,-34.1796875,-66.40625,-274.90234375,0.0,0,0
1765391595.902393,1765391595.8304043,21.97265625,-26.85546875,39.55078125,201.66015625,0.0,0,0
1765391595.902418,1765391595.8342998,66.89453125,-32.2265625,45.8984375,406.25,0.0,0,0
1765391595.9042099,1765391595.8383155,-10.7421875,-44.921875,-58.59375,-9.27734375,0.0,0,0
1765391595.904274,1765391595.842211,-97.65625,-54.19921875,-116.2109375,-426.7578125,0.0,0,0
1765391595.904307,1765391595.8461065,-88.37890625,-32.71484375,-49.31640625,-327.63671875,0.0,0,0
1765391595.904334,1765391595.8500023,8.7890625,3.41796875,49.8046875,161.62109375,0.0,0,0
1765391595.904363,1765391595.8538978,67.3828125,10.25390625,52.734375,439.94140625,0.0,0,0
1765391595.9043891,1765391595.8577933,3.41796875,-21.484375,-69.82421875,74.70703125,0.0,0,0
1765391595.904414,1765391595.8616889,-88.8671875,-47.36328125,-121.09375,-369.140625,0.0,0,0
1765391595.904442,1765391595.8655846,-105.46875,-43.9453125,-52.24609375,-383.30078125,0.0,0,0
1765391595.9044778,1765391595.8694801,-15.13671875,-27.34375,47.8515625,98.14453125,0.0,0,0
1765391595.904505,1765391595.8733757,47.8515625,-17.578125,62.5,435.05859375,0.0,0,0
1765391595.9045298,1765391595.8772712,-0.9765625,-25.390625,-28.80859375,131.34765625,0.0,0,0
1765391595.904556,1765391595.8811667,-85.9375,-45.8984375,-92.28515625,-312.5,0.0,0,0
1765391595.947152,1765391595.885154,-112.3046875,-34.66796875,-78.125,-383.30078125,0.0,0,0
1765391595.947325,1765391595.8890495,-28.3203125,1.953125,-17.08984375,73.73046875,0.0,0,0
1765391595.947392,1765391595.8929453,43.45703125,8.7890625,25.87890625,416.9921875,0.0,0,0
1765391595.9476259,1765391595.8968408,4.39453125,-23.4375,-14.16015625,178.7109375,0.0,0,0
1765391595.947689,1765391595.9007363,-81.0546875,-36.62109375,-74.70703125,-293.45703125,0.0,0,0
1765391595.947747,1765391595.9046319,-110.83984375,-21.97265625,-55.6640625,-452.63671875,0.0,0,0
1765391595.9478028,1765391595.9085276,-37.109375,-4.39453125,42.48046875,-17.578125,0.0,0,0
1765391595.9478579,1765391595.9124231,32.2265625,0.9765625,65.91796875,366.69921875,0.0,0,0
1765391595.947914,1765391595.9163187,3.90625,-7.32421875,-23.92578125,219.7265625,0.0,0,0
1765391595.947971,1765391595.9202142,-88.37890625,-32.2265625,-96.19140625,-264.6484375,0.0,0,0
1765391595.948025,1765391595.92411,-136.71875,-49.8046875,-78.61328125,-492.67578125,0.0,0,0
1765391595.948079,1765391595.9280055,-62.5,-15.13671875,34.66796875,-97.65625,0.0,0,0
1765391595.9924421,1765391595.9319828,9.27734375,-5.859375,86.9140625,313.96484375,0.0,0,0
1765391595.992649,1765391595.9358783,-21.484375,-30.2734375,18.06640625,242.1875,0.0,0,0
1765391595.992741,1765391595.939774,-122.55859375,-30.76171875,-68.84765625,-255.37109375,0.0,0,0
1765391595.992805,1765391595.9436696,-170.8984375,-4.8828125,-79.58984375,-540.52734375,0.0,0,0
1765391595.992864,1765391595.947565,-114.2578125,10.7421875,23.92578125,-206.54296875,0.0,0,0
1765391595.992922,1765391595.9514608,-34.66796875,-4.8828125,92.7734375,219.7265625,0.0,0,0
1765391595.9929779,1765391595.9553564,-31.25,-22.94921875,55.17578125,263.18359375,0.0,0,0
1765391595.993034,1765391595.9592519,-133.7890625,-36.62109375,-63.96484375,-238.76953125,0.0,0,0
1765391595.993092,1765391595.9631476,-206.54296875,-42.48046875,-157.71484375,-604.98046875,0.0,0,0
1765391595.99315,1765391595.9670432,-157.2265625,-9.765625,-34.1796875,-292.48046875,0.0,0,0
1765391595.993205,1765391595.9709387,-71.77734375,21.97265625,110.83984375,173.33984375,0.0,0,0
1765391595.993269,1765391595.9748344,-45.41015625,9.765625,96.6796875,294.43359375,0.0,0,0
1765391596.050538,1765391595.9787996,-127.44140625,-16.6015625,-24.90234375,-152.83203125,0.0,0,0
1765391596.050674,1765391595.9826953,-199.70703125,-12.6953125,-86.42578125,-541.9921875,0.0,0,0
1765391596.050714,1765391595.9865909,-137.6953125,9.27734375,0.48828125,-308.59375,0.0,0,0
1765391596.050751,1765391595.9904866,-48.33984375,12.20703125,92.7734375,179.19921875,0.0,0,0
1765391596.050786,1765391595.9943821,-24.4140625,1.46484375,81.54296875,354.98046875,0.0,0,0
1765391596.0508192,1765391595.9982777,-88.37890625,-47.8515625,-34.66796875,-56.15234375,0.0,0,0
1765391596.050854,1765391596.0021734,-155.2734375,-53.22265625,-93.75,-452.63671875,0.0,0,0
1765391596.0508852,1765391596.006069,-132.32421875,-8.7890625,-48.828125,-329.58984375,0.0,0,0
1765391596.0509162,1765391596.0099645,-33.203125,1.46484375,51.26953125,153.3203125,0.0,0,0
1765391596.0509472,1765391596.0138602,14.6484375,-2.44140625,85.9375,393.06640625,0.0,0,0
1765391596.050982,1765391596.0177557,-62.98828125,-26.3671875,-14.6484375,14.6484375,0.0,0,0
1765391596.0510132,1765391596.0216515,-127.44140625,-50.29296875,-102.5390625,-388.18359375,0.0,0,0
1765391596.096108,1765391596.0256069,-110.3515625,-34.66796875,-72.265625,-351.07421875,0.0,0,0
1765391596.096169,1765391596.0295024,-11.23046875,4.39453125,41.015625,127.9296875,0.0,0,0
1765391596.096201,1765391596.0333982,62.01171875,4.39453125,71.2890625,458.49609375,0.0,0,0
1765391596.096233,1765391596.0372937,1.953125,-20.5078125,-20.01953125,130.37109375,0.0,0,0
1765391596.096265,1765391596.0411894,-88.8671875,-41.9921875,-75.1953125,-335.44921875,0.0,0,0
1765391596.0962958,1765391596.045085,-80.078125,-26.85546875,-37.59765625,-362.3046875,0.0,0,0
1765391596.0963268,1765391596.0489805,27.34375,10.7421875,49.8046875,129.39453125,0.0,0,0
1765391596.0963578,1765391596.0528762,93.26171875,-6.34765625,56.640625,481.4453125,0.0,0,0
1765391596.096391,1765391596.0567718,50.78125,-34.1796875,-31.25,242.67578125,0.0,0,0
1765391596.096422,1765391596.0606675,-23.92578125,-40.52734375,-103.515625,-226.07421875,0.0,0,0
1765391596.0964549,1765391596.064563,-52.734375,-68.359375,-104.98046875,-373.53515625,0.0,0,0
1765391596.0964868,1765391596.0684586,3.41796875,-88.8671875,-18.5546875,48.828125,0.0,0,0
1765391596.186764,1765391596.0727491,77.1484375,-57.6171875,26.3671875,440.4296875,0.0,0,0
1765391596.186849,1765391596.076645,76.66015625,-23.4375,-40.0390625,305.17578125,0.0,0,0
1765391596.186888,1765391596.0805407,-14.6484375,-35.64453125,-92.7734375,-187.5,0.0,0,0
1765391596.186922,1765391596.0844364,-76.66015625,-56.15234375,-78.61328125,-408.203125,0.0,0,0
1765391596.186971,1765391596.088332,-2.9296875,-39.55078125,17.578125,16.11328125,0.0,0,0
1765391596.1870039,1765391596.0922277,99.609375,-20.01953125,67.3828125,443.84765625,0.0,0,0
1765391596.187037,1765391596.0961235,96.6796875,-34.66796875,-10.25390625,372.55859375,0.0,0,0
1765391596.1870642,1765391596.100019,-12.6953125,-52.24609375,-95.21484375,-134.765625,0.0,0,0
1765391596.187089,1765391596.1039147,-67.3828125,-51.26953125,-96.19140625,-423.33984375,0.0,0,0
1765391596.187115,1765391596.1078105,13.18359375,-32.71484375,6.34765625,-60.546875,0.0,0,0
1765391596.187139,1765391596.111706,100.5859375,-11.71875,61.5234375,367.1875,0.0,0,0
1765391596.1871629,1765391596.1156018,89.35546875,-18.06640625,5.859375,383.30078125,0.0,0,0
1765391596.189232,1765391596.1196418,-14.6484375,-38.0859375,-92.7734375,-110.83984375,0.0,0,0
1765391596.189306,1765391596.1235375,-81.54296875,-39.0625,-110.83984375,-463.37890625,0.0,0,0
1765391596.189337,1765391596.1274333,-31.73828125,-19.53125,-5.859375,-154.78515625,0.0,0,0
1765391596.189363,1765391596.1313288,54.19921875,-12.6953125,57.6171875,291.9921875,0.0,0,0
1765391596.189388,1765391596.1352246,71.77734375,-14.6484375,28.3203125,387.6953125,0.0,0,0
1765391596.189413,1765391596.1391203,-14.16015625,-30.76171875,-77.63671875,-73.2421875,0.0,0,0
1765391596.1894379,1765391596.143016,-79.1015625,-38.57421875,-125.9765625,-442.3828125,0.0,0,0
1765391596.189464,1765391596.1469116,-50.78125,-16.6015625,-36.62109375,-204.58984375,0.0,0,0
1765391596.189493,1765391596.1508074,36.62109375,-9.765625,29.78515625,245.60546875,0.0,0,0
1765391596.189527,1765391596.1547031,64.94140625,-20.01953125,12.6953125,394.53125,0.0,0,0
1765391596.1895528,1765391596.158599,-23.4375,-37.59765625,-90.33203125,-36.1328125,0.0,0,0
1765391596.189579,1765391596.1624947,-102.5390625,-43.9453125,-145.01953125,-445.3125,0.0,0,0
1765391596.2323499,1765391596.1665008,-72.75390625,-17.578125,-52.734375,-296.875,0.0,0,0
1765391596.232401,1765391596.1703966,23.92578125,-16.6015625,53.7109375,202.63671875,0.0,0,0
1765391596.232434,1765391596.1742923,50.78125,-43.45703125,31.25,428.22265625,0.0,0,0
1765391596.2324648,1765391596.1781878,-25.390625,-46.875,-88.8671875,33.203125,0.0,0,0
1765391596.232584,1765391596.1820836,-101.5625,-36.62109375,-131.8359375,-389.16015625,0.0,0,0
1765391596.2326558,1765391596.1859794,-87.40234375,-16.6015625,-81.0546875,-329.1015625,0.0,0,0
1765391596.232694,1765391596.1898751,6.34765625,0.48828125,9.27734375,147.4609375,0.0,0,0
1765391596.2327292,1765391596.193771,49.8046875,-10.25390625,39.55078125,414.55078125,0.0,0,0
1765391596.232764,1765391596.1976666,-8.7890625,-33.203125,-65.91796875,85.9375,0.0,0,0
1765391596.232797,1765391596.2015624,-80.078125,-39.0625,-147.94921875,-333.49609375,0.0,0,0
1765391596.232832,1765391596.205458,-78.125,-35.15625,-100.5859375,-375.9765625,0.0,0,0
1765391596.232864,1765391596.2093537,7.8125,-24.4140625,12.6953125,95.21484375,0.0,0,0
1765391596.2761111,1765391596.2133477,69.3359375,-6.34765625,33.203125,438.4765625,0.0,0,0
1765391596.276176,1765391596.2172434,20.5078125,-19.04296875,-66.89453125,174.8046875,0.0,0,0
1765391596.276206,1765391596.2211392,-60.05859375,-36.62109375,-119.62890625,-267.08984375,0.0,0,0
1765391596.2762291,1765391596.225035,-77.1484375,-24.90234375,-79.58984375,-389.16015625,0.0,0,0
1765391596.276247,1765391596.2289307,-9.27734375,-14.6484375,14.6484375,36.62109375,0.0,0,0
1765391596.276266,1765391596.2328265,57.6171875,-10.25390625,51.26953125,412.109375,0.0,0,0
1765391596.2762828,1765391596.2367222,33.203125,-16.6015625,-21.484375,237.79296875,0.0,0,0
1765391596.2763462,1765391596.240618,-49.8046875,-46.38671875,-128.41796875,-238.76953125,0.0,0,0
1765391596.2763672,1765391596.2445135,-83.49609375,-48.33984375,-144.04296875,-430.17578125,0.0,0,0
1765391596.276385,1765391596.2484093,-16.6015625,-21.484375,8.30078125,-16.6015625,0.0,0,0
1765391596.276403,1765391596.252305,55.6640625,-5.859375,92.7734375,382.32421875,0.0,0,0
1765391596.276421,1765391596.2562008,54.19921875,-13.18359375,22.94921875,311.03515625,0.0,0,0
1765391596.321079,1765391596.2601848,-33.69140625,-48.828125,-101.5625,-165.0390625,0.0,0,0
1765391596.3211231,1765391596.2640805,-99.609375,-51.26953125,-111.81640625,-451.66015625,0.0,0,0
1765391596.321138,1765391596.2679763,-47.8515625,-17.578125,20.01953125,-92.28515625,0.0,0,0
1765391596.321151,1765391596.271872,30.2734375,-4.8828125,81.54296875,326.171875,0.0,0,0
1765391596.3211641,1765391596.2757678,31.25,-22.4609375,23.4375,325.1953125,0.0,0,0
1765391596.321176,1765391596.2796636,-47.8515625,-34.1796875,-86.42578125,-145.99609375,0.0,0,0
1765391596.3211882,1765391596.2835593,-111.328125,-41.50390625,-125.0,-469.23828125,0.0,0,0
1765391596.3212001,1765391596.2874548,-70.3125,-43.45703125,-19.53125,-161.62109375,0.0,0,0
1765391596.3212118,1765391596.2913506,27.83203125,-23.4375,70.80078125,285.15625,0.0,0,0
1765391596.321224,1765391596.2952464,56.15234375,-15.13671875,21.484375,372.55859375,0.0,0,0
1765391596.321236,1765391596.2991421,-42.48046875,-32.71484375,-96.6796875,-99.609375,0.0,0,0
1765391596.321248,1765391596.303038,-111.81640625,-47.36328125,-127.9296875,-476.07421875,0.0,0,0
1765391596.366807,1765391596.3070104,-64.453125,-33.203125,-38.57421875,-220.703125,0.0,0,0
1765391596.366834,1765391596.3109062,20.5078125,-15.13671875,36.62109375,232.91015625,0.0,0,0
1765391596.366848,1765391596.314802,57.12890625,-26.3671875,31.25,379.39453125,0.0,0,0
1765391596.366861,1765391596.3186977,-24.90234375,-52.24609375,-55.17578125,-59.08203125,0.0,0,0
1765391596.366875,1765391596.3225935,-105.46875,-41.015625,-105.46875,-459.47265625,0.0,0,0
1765391596.366888,1765391596.3264892,-77.63671875,-26.85546875,-53.22265625,-295.41015625,0.0,0,0
1765391596.366902,1765391596.330385,13.18359375,-15.13671875,30.2734375,183.59375,0.0,0,0
1765391596.366915,1765391596.3342807,47.36328125,-1.46484375,50.29296875,400.390625,0.0,0,0
1765391596.3669288,1765391596.3381765,-39.55078125,-35.64453125,-62.01171875,-7.8125,0.0,0,0
1765391596.366956,1765391596.3420722,-111.81640625,-48.33984375,-136.23046875,-419.43359375,0.0,0,0
1765391596.366981,1765391596.345968,-108.88671875,-38.0859375,-84.9609375,-353.515625,0.0,0,0
1765391596.366996,1765391596.3498638,-29.296875,-24.90234375,17.578125,120.1171875,0.0,0,0
1765391596.411616,1765391596.3538268,41.9921875,-28.3203125,50.29296875,414.55078125,0.0,0,0
1765391596.411646,1765391596.3577225,-10.25390625,-53.7109375,-51.7578125,53.7109375,0.0,0,0
1765391596.411663,1765391596.3616183,-78.125,-56.640625,-123.53515625,-385.7421875,0.0,0,0
1765391596.411681,1765391596.365514,-84.9609375,-44.43359375,-77.63671875,-399.4140625,0.0,0,0
1765391596.411702,1765391596.3694098,-4.39453125,-11.23046875,32.2265625,72.265625,0.0,0,0
1765391596.4117188,1765391596.3733056,61.5234375,0.48828125,63.4765625,408.203125,0.0,0,0
1765391596.4117372,1765391596.3772013,12.6953125,-23.4375,-23.4375,125.9765625,0.0,0,0
1765391596.411754,1765391596.381097,-74.70703125,-40.52734375,-91.30859375,-329.58984375,0.0,0,0
1765391596.411799,1765391596.384993,-92.7734375,-34.1796875,-76.171875,-428.22265625,0.0,0,0
1765391596.4118452,1765391596.3888888,1.46484375,-15.13671875,30.76171875,40.52734375,0.0,0,0
1765391596.4118679,1765391596.3927846,72.265625,-11.71875,74.70703125,419.43359375,0.0,0,0
1765391596.4118872,1765391596.3966804,40.0390625,-22.4609375,-13.18359375,210.9375,0.0,0,0
1765391596.4863439,1765391596.400801,-59.5703125,-47.8515625,-110.83984375,-268.06640625,0.0,0,0
1765391596.486392,1765391596.4046967,-112.3046875,-50.29296875,-100.09765625,-436.5234375,0.0,0,0
1765391596.486424,1765391596.4085925,-35.64453125,-16.6015625,34.66796875,-9.27734375,0.0,0,0
1765391596.4864562,1765391596.4124882,41.9921875,-13.671875,97.16796875,382.8125,0.0,0,0
1765391596.486488,1765391596.4163842,11.71875,-56.15234375,3.41796875,241.2109375,0.0,0,0
1765391596.48652,1765391596.42028,-81.54296875,-56.15234375,-83.49609375,-235.83984375,0.0,0,0
1765391596.486552,1765391596.4241757,-116.2109375,-19.53125,-92.28515625,-454.1015625,0.0,0,0
1765391596.486583,1765391596.4280715,-52.24609375,-10.7421875,-9.27734375,-73.2421875,0.0,0,0
1765391596.486615,1765391596.4319675,23.4375,-15.13671875,66.40625,330.078125,0.0,0,0
