timestamp,lsl_timestamp,TP9,AF7,AF8,TP10,Right AUX,keypress_A,keypress_B
1771940280.488469,1771940280.4105494,-1000.0,-1000.0,-130.37109375,-1000.0,0.0,0,0
1771940280.4886122,1771940280.4144444,157.71484375,-206.0546875,732.91015625,179.6875,0.0,0,0
1771940280.4886389,1771940280.4183397,-764.16015625,-945.80078125,684.5703125,-765.625,0.0,0,0
1771940280.4886599,1771940280.422235,213.8671875,883.7890625,-484.86328125,172.8515625,0.0,0,0
1771940280.488681,1771940280.42613,-1000.0,-430.6640625,-927.734375,-1000.0,0.0,0,0
1771940280.4887009,1771940280.4300253,-1000.0,-1000.0,-261.23046875,-1000.0,0.0,0,0
1771940280.48872,1771940280.4339204,-48.33984375,-177.734375,651.85546875,-41.015625,0.0,0,0
1771940280.4887412,1771940280.4378157,-791.50390625,-991.2109375,736.81640625,-785.64453125,0.0,0,0
1771940280.488767,1771940280.441711,410.15625,-975.5859375,-341.30859375,343.75,0.0,0,0
1771940280.488787,1771940280.445606,-908.203125,-142.08984375,-968.75,-939.453125,0.0,0,0
1771940280.488807,1771940280.4495013,-1000.0,-1000.0,-415.52734375,-1000.0,0.0,0,0
1771940280.488826,1771940280.4533963,-230.95703125,-309.08203125,559.5703125,-227.5390625,0.0,0,0
1771940280.5345469,1771940280.4574785,-877.44140625,942.3828125,759.765625,-853.02734375,0.0,0,0
1771940280.534715,1771940280.4613738,642.578125,-917.96875,-185.546875,534.66796875,0.0,0,0
1771940280.534754,1771940280.465269,-748.046875,54.19921875,-958.0078125,-839.35546875,0.0,0,0
1771940280.534792,1771940280.4691644,-1000.0,-1000.0,-534.1796875,-1000.0,0.0,0,0
1771940280.534826,1771940280.4730594,-204.58984375,-497.55859375,538.0859375,-221.6796875,0.0,0,0
1771940280.534865,1771940280.4769547,-947.265625,848.6328125,808.10546875,-913.0859375,0.0,0,0
1771940280.5349,1771940280.48085,884.765625,-869.62890625,15.625,767.08984375,0.0,0,0
1771940280.534942,1771940280.484745,-426.7578125,196.2890625,-856.93359375,-584.9609375,0.0,0,0
1771940280.534985,1771940280.4886403,-1000.0,-1000.0,-687.98828125,-1000.0,0.0,0,0
1771940280.535017,1771940280.4925356,-176.26953125,-768.5546875,472.65625,-187.98828125,0.0,0,0
1771940280.535051,1771940280.4964309,-995.1171875,607.91015625,874.0234375,-975.5859375,0.0,0,0
1771940280.535085,1771940280.500326,-973.14453125,-817.3828125,163.57421875,968.26171875,0.0,0,0
1771940280.579603,1771940280.504396,-114.74609375,160.15625,-746.58203125,-241.69921875,0.0,0,0
1771940280.579766,1771940280.5082912,-1000.0,-1000.0,-735.3515625,-1000.0,0.0,0,0
1771940280.579802,1771940280.5121863,-350.09765625,-979.98046875,374.51171875,-337.40234375,0.0,0,0
1771940280.579839,1771940280.5160816,922.8515625,282.2265625,928.22265625,937.5,0.0,0,0
1771940280.579874,1771940280.5199769,-908.69140625,-772.4609375,304.6875,-931.15234375,0.0,0,0
1771940280.579909,1771940280.5238721,82.51953125,198.73046875,-664.55078125,-18.5546875,0.0,0,0
1771940280.579944,1771940280.5277674,-1000.0,-1000.0,-795.41015625,-1000.0,0.0,0,0
1771940280.5799758,1771940280.5316627,-546.38671875,-1000.0,206.54296875,-527.34375,0.0,0,0
1771940280.580031,1771940280.5355577,822.75390625,7.8125,944.3359375,829.1015625,0.0,0,0
1771940280.580071,1771940280.539453,-861.81640625,-777.83203125,424.8046875,-867.67578125,0.0,0,0
1771940280.580106,1771940280.5433483,182.12890625,337.890625,-606.4453125,131.34765625,0.0,0,0
1771940280.580141,1771940280.5472436,-1000.0,-948.2421875,-794.921875,-1000.0,0.0,0,0
1771940280.6254349,1771940280.5513053,-814.453125,-1000.0,44.43359375,-786.62109375,0.0,0,0
1771940280.6256099,1771940280.5552006,545.8984375,-167.48046875,879.39453125,570.80078125,0.0,0,0
1771940280.625661,1771940280.5590959,-807.12890625,-833.984375,574.21875,-810.546875,0.0,0,0
1771940280.625707,1771940280.5629911,151.85546875,545.41015625,-586.42578125,149.4140625,0.0,0,0
1771940280.6257799,1771940280.5668864,-1000.0,-839.35546875,-849.609375,-1000.0,0.0,0,0
1771940280.625833,1771940280.5707817,-1000.0,-1000.0,-117.1875,-1000.0,0.0,0,0
1771940280.6258729,1771940280.574677,196.77734375,-216.30859375,753.41796875,230.46875,0.0,0,0
1771940280.625925,1771940280.5785723,-767.08984375,-924.31640625,661.1328125,-769.53125,0.0,0,0
1771940280.625977,1771940280.5824676,196.77734375,812.5,-516.11328125,147.4609375,0.0,0,0
1771940280.626032,1771940280.5863626,-1000.0,-540.52734375,-917.96875,-1000.0,0.0,0,0
1771940280.6260731,1771940280.590258,-1000.0,-1000.0,-253.41796875,-1000.0,0.0,0,0
1771940280.626112,1771940280.5941532,-27.34375,-180.17578125,657.2265625,-7.32421875,0.0,0,0
1771940280.699757,1771940280.5983784,-786.1328125,-989.2578125,729.98046875,-777.34375,0.0,0,0
1771940280.699923,1771940280.6022737,378.41796875,-982.91015625,-376.46484375,276.85546875,0.0,0,0
1771940280.6999621,1771940280.606169,-923.828125,-178.7109375,-973.6328125,-970.21484375,0.0,0,0
1771940280.700008,1771940280.6100645,-1000.0,-1000.0,-395.99609375,-1000.0,0.0,0,0
1771940280.700043,1771940280.6139598,-214.84375,-269.04296875,567.87109375,-207.03125,0.0,0,0
1771940280.700076,1771940280.617855,-862.79296875,960.9375,755.37109375,-833.0078125,0.0,0,0
1771940280.700118,1771940280.6217504,604.00390625,-928.7109375,-201.66015625,476.5625,0.0,0,0
1771940280.700162,1771940280.6256456,-783.69140625,23.4375,-972.65625,-889.16015625,0.0,0,0
1771940280.7002041,1771940280.629541,-1000.0,-1000.0,-553.22265625,-1000.0,0.0,0,0
1771940280.700253,1771940280.6334364,-208.984375,-476.07421875,528.3203125,-227.5390625,0.0,0,0
1771940280.700295,1771940280.6373317,-940.4296875,857.421875,805.6640625,-905.76171875,0.0,0,0
1771940280.70034,1771940280.641227,861.328125,-873.53515625,-16.6015625,742.67578125,0.0,0,0
1771940280.714549,1771940280.6452672,-462.40234375,201.66015625,-882.32421875,-624.51171875,0.0,0,0
1771940280.714698,1771940280.6491628,-1000.0,-1000.0,-662.109375,-1000.0,0.0,0,0
1771940280.714758,1771940280.653058,-177.734375,-719.7265625,492.67578125,-189.94140625,0.0,0,0
1771940280.714797,1771940280.6569533,-993.65234375,671.875,870.60546875,-972.65625,0.0,0,0
1771940280.7148318,1771940280.6608486,-977.5390625,-827.63671875,169.43359375,962.890625,0.0,0,0
1771940280.714868,1771940280.6647441,-133.7890625,164.55078125,-738.28125,-269.04296875,0.0,0,0
1771940280.714903,1771940280.6686394,-1000.0,-1000.0,-759.765625,-1000.0,0.0,0,0
1771940280.714933,1771940280.6725347,-326.171875,-960.44921875,360.3515625,-299.31640625,0.0,0,0
1771940280.714967,1771940280.6764302,935.546875,329.1015625,926.26953125,957.03125,0.0,0,0
1771940280.7150111,1771940280.6803255,-916.015625,-777.83203125,279.78515625,-943.359375,0.0,0,0
1771940280.715063,1771940280.6842208,55.6640625,141.11328125,-685.546875,-51.7578125,0.0,0,0
1771940280.715106,1771940280.688116,-1000.0,-1000.0,-774.4140625,-1000.0,0.0,0,0
1771940280.76027,1771940280.692141,-514.16015625,-1000.0,254.8828125,-465.8203125,0.0,0,0
1771940280.760414,1771940280.6960363,838.8671875,53.22265625,953.61328125,861.81640625,0.0,0,0
1771940280.76048,1771940280.6999319,-867.67578125,-770.99609375,435.546875,-879.8828125,0.0,0,0
1771940280.760541,1771940280.7038271,188.4765625,341.30859375,-600.09765625,148.4375,0.0,0,0
1771940280.760604,1771940280.7077224,-1000.0,-946.2890625,-792.96875,-1000.0,0.0,0,0
1771940280.760661,1771940280.711618,-777.83203125,-1000.0,87.40234375,-719.23828125,0.0,0,0
1771940280.7607172,1771940280.7155132,594.23828125,-121.09375,892.578125,660.15625,0.0,0,0
1771940280.76076,1771940280.7194085,-814.94140625,-820.3125,549.31640625,-825.68359375,0.0,0,0
1771940280.760802,1771940280.723304,156.73828125,518.06640625,-578.125,154.296875,0.0,0,0
1771940280.760844,1771940280.7271993,-1000.0,-853.515625,-855.46875,-1000.0,0.0,0,0
1771940280.760891,1771940280.7310948,-1000.0,-1000.0,-118.1640625,-965.8203125,0.0,0,0
1771940280.760952,1771940280.7349901,245.1171875,-219.23828125,768.06640625,315.4296875,0.0,0,0
1771940280.818725,1771940280.739005,-771.484375,-919.43359375,662.59765625,-776.3671875,0.0,0,0
1771940280.81893,1771940280.7429006,172.36328125,794.921875,-517.08984375,140.625,0.0,0,0
1771940280.818998,1771940280.746796,-1000.0,-563.4765625,-916.9921875,-1000.0,0.0,0,0
1771940280.819058,1771940280.7506914,-1000.0,-1000.0,-233.88671875,-1000.0,0.0,0,0
1771940280.8196301,1771940280.7545867,-0.48828125,-182.6171875,677.734375,41.9921875,0.0,0,0
1771940280.81968,1771940280.7584822,-780.2734375,-984.86328125,719.23828125,-770.5078125,0.0,0,0
1771940280.819724,1771940280.7623775,350.5859375,-996.09375,-395.5078125,262.20703125,0.0,0,0
1771940280.819766,1771940280.766273,-937.98828125,-204.58984375,-968.75,-976.5625,0.0,0,0
1771940280.819808,1771940280.7701683,-1000.0,-1000.0,-385.25390625,-1000.0,0.0,0,0
1771940280.8198469,1771940280.7740638,-185.546875,-257.8125,582.03125,-155.76171875,0.0,0,0
1771940280.8198888,1771940280.777959,-847.65625,965.8203125,762.6953125,-818.84765625,0.0,0,0
1771940280.8199308,1771940280.7818544,574.21875,-932.6171875,-218.26171875,464.35546875,0.0,0,0
1771940280.864955,1771940280.7858582,-808.59375,9.27734375,-976.07421875,-887.6953125,0.0,0,0
1771940280.865111,1771940280.7897534,-1000.0,-1000.0,-522.4609375,-1000.0,0.0,0,0
1771940280.8651578,1771940280.793649,-213.37890625,-457.03125,541.9921875,-229.00390625,0.0,0,0
1771940280.865203,1771940280.7975442,-930.6640625,866.69921875,794.43359375,-901.3671875,0.0,0,0
1771940280.865248,1771940280.8014398,829.58984375,-876.953125,-34.1796875,725.09765625,0.0,0,0
1771940280.865293,1771940280.805335,-510.25390625,204.1015625,-882.8125,-644.53125,0.0,0,0
1771940280.8653362,1771940280.8092306,-1000.0,-1000.0,-657.71484375,-1000.0,0.0,0,0
1771940280.865422,1771940280.813126,-181.640625,-707.51953125,490.72265625,-195.80078125,0.0,0,0
1771940280.8654678,1771940280.8170214,-986.81640625,685.05859375,862.3046875,-958.984375,0.0,0,0
1771940280.865514,1771940280.820917,-995.1171875,-831.0546875,123.046875,918.9453125,0.0,0,0
1771940280.865556,1771940280.8248122,-184.08203125,168.45703125,-779.78515625,-340.33203125,0.0,0,0
1771940280.8656,1771940280.8287077,-1000.0,-1000.0,-714.84375,-1000.0,0.0,0,0
1771940280.9101079,1771940280.8327868,-298.33984375,-932.12890625,409.1796875,-274.4140625,0.0,0,0
1771940280.910246,1771940280.8366823,948.73046875,374.0234375,916.015625,969.23828125,0.0,0,0
1771940280.910295,1771940280.8405776,-925.29296875,-782.71484375,273.4375,-954.58984375,0.0,0,0
1771940280.9103382,1771940280.8444731,23.92578125,143.06640625,-693.359375,-69.82421875,0.0,0,0
1771940280.910383,1771940280.8483686,-1000.0,-1000.0,-757.8125,-1000.0,0.0,0,0
1771940280.910424,1771940280.852264,-487.79296875,-1000.0,290.52734375,-458.0078125,0.0,0,0
1771940280.910466,1771940280.8561594,852.05078125,76.66015625,947.75390625,871.09375,0.0,0,0
1771940280.91051,1771940280.860055,-873.53515625,-768.06640625,417.96875,-886.23046875,0.0,0,0
1771940280.910561,1771940280.8639503,181.640625,310.05859375,-599.12109375,109.375,0.0,0,0
1771940280.910604,1771940280.8678458,-1000.0,-957.51953125,-795.41015625,-1000.0,0.0,0,0
1771940280.910645,1771940280.8717413,-747.55859375,-1000.0,68.84765625,-708.0078125,0.0,0,0
1771940280.9107049,1771940280.8756366,630.859375,-130.37109375,893.5546875,665.52734375,0.0,0,0
1771940281.000756,1771940280.8797066,-821.77734375,-819.82421875,554.19921875,-826.66015625,0.0,0,0
1771940281.000916,1771940280.8836021,161.1328125,511.71875,-578.61328125,154.78515625,0.0,0,0
1771940281.0009658,1771940280.8874974,-1000.0,-858.3984375,-837.40234375,-1000.0,0.0,0,0
1771940281.00101,1771940280.891393,-974.609375,-1000.0,-87.40234375,-955.56640625,0.0,0,0
1771940281.001054,1771940280.8952885,299.8046875,-221.6796875,784.1796875,333.984375,0.0,0,0
1771940281.001098,1771940280.899184,-775.87890625,-914.0625,645.01953125,-777.34375,0.0,0,0
1771940281.001141,1771940280.9030795,150.87890625,775.390625,-539.0625,141.11328125,0.0,0,0
1771940281.001184,1771940280.9069748,-1000.0,-588.8671875,-914.55078125,-1000.0,0.0,0,0
1771940281.001225,1771940280.9108703,-1000.0,-1000.0,-239.2578125,-1000.0,0.0,0,0
1771940281.0013041,1771940280.9147658,31.25,-186.5234375,676.26953125,51.26953125,0.0,0,0
1771940281.0013702,1771940280.9186614,-773.92578125,-977.05078125,714.35546875,-769.53125,0.0,0,0
1771940281.0014179,1771940280.9225566,331.0546875,981.93359375,-406.25,263.18359375,0.0,0,0
1771940281.002624,1771940280.9266343,-948.2421875,-250.0,-959.47265625,-976.07421875,0.0,0,0
1771940281.0026722,1771940280.9305298,-1000.0,-1000.0,-383.30078125,-1000.0,0.0,0,0
1771940281.0027049,1771940280.934425,-159.1796875,-235.83984375,578.125,-147.4609375,0.0,0,0
1771940281.002752,1771940280.9383206,-828.61328125,973.6328125,749.51171875,-814.453125,0.0,0,0
1771940281.002785,1771940280.9422162,517.578125,-938.4765625,-265.13671875,427.734375,0.0,0,0
1771940281.0028212,1771940280.9461117,-856.93359375,-5.859375,-984.86328125,-906.25,0.0,0,0
1771940281.0028539,1771940280.9500072,-1000.0,-1000.0,-511.71875,-1000.0,0.0,0,0
1771940281.002885,1771940280.9539027,-220.703125,-428.7109375,527.34375,-234.86328125,0.0,0,0
1771940281.002919,1771940280.9577982,-917.48046875,883.7890625,787.109375,-890.625,0.0,0,0
1771940281.002954,1771940280.9616938,783.69140625,-885.25390625,-63.96484375,680.17578125,0.0,0,0
1771940281.002988,1771940280.9655893,-576.171875,171.38671875,-907.71484375,-693.359375,0.0,0,0
1771940281.003031,1771940280.9694848,-1000.0,-1000.0,-635.25390625,-1000.0,0.0,0,0
1771940281.045096,1771940280.9735308,-185.546875,-649.4140625,500.48828125,-203.125,0.0,0,0
1771940281.045274,1771940280.9774263,-980.46875,739.2578125,848.6328125,-944.82421875,0.0,0,0
1771940281.045323,1771940280.9813218,986.328125,-842.7734375,105.46875,872.0703125,0.0,0,0
1771940281.045368,1771940280.9852173,-232.91015625,177.734375,-799.31640625,-416.015625,0.0,0,0
1771940281.045419,1771940280.9891129,-1000.0,-1000.0,-710.9375,-1000.0,0.0,0,0
1771940281.045461,1771940280.9930084,-269.04296875,-872.0703125,445.3125,-262.6953125,0.0,0,0
1771940281.045522,1771940280.996904,961.42578125,466.30859375,905.76171875,975.5859375,0.0,0,0
1771940281.045577,1771940281.0007994,-933.10546875,-793.45703125,237.79296875,-966.30859375,0.0,0,0
1771940281.0456388,1771940281.004695,1.953125,143.06640625,-696.2890625,-93.75,0.0,0,0
1771940281.045682,1771940281.0085905,-1000.0,-1000.0,-776.85546875,-1000.0,0.0,0,0
1771940281.045723,1771940281.012486,-456.54296875,-1000.0,275.87890625,-448.73046875,0.0,0,0
1771940281.0457642,1771940281.0163815,868.1640625,83.49609375,945.80078125,875.0,0.0,0,0
1771940281.090061,1771940281.0204158,-879.8828125,-767.08984375,384.765625,-889.16015625,0.0,0,0
1771940281.090243,1771940281.0243113,181.15234375,277.83203125,-619.62890625,101.07421875,0.0,0,0
1771940281.090292,1771940281.0282068,-1000.0,-976.5625,-789.55078125,-1000.0,0.0,0,0
1771940281.090336,1771940281.0321026,-703.61328125,-1000.0,135.25390625,-678.7109375,0.0,0,0
1771940281.090379,1771940281.035998,683.59375,-88.8671875,928.7109375,697.265625,0.0,0,0
1771940281.0904498,1771940281.0398936,-831.0546875,-806.640625,513.671875,-834.47265625,0.0,0,0
1771940281.090503,1771940281.0437891,166.9921875,474.12109375,-593.75,147.4609375,0.0,0,0
1771940281.0905569,1771940281.0476847,-1000.0,-875.48828125,-836.9140625,-1000.0,0.0,0,0
1771940281.0906172,1771940281.0515802,-941.40625,-1000.0,-64.94140625,-922.8515625,0.0,0,0
1771940281.090661,1771940281.0554757,358.3984375,-227.5390625,812.5,381.34765625,0.0,0,0
1771940281.0907142,1771940281.0593712,-781.73828125,-903.80859375,634.27734375,-783.203125,0.0,0,0
1771940281.0907772,1771940281.0632668,141.11328125,740.234375,-549.31640625,142.578125,0.0,0,0
1771940281.148606,1771940281.06729,-1000.0,-635.25390625,-895.99609375,-1000.0,0.0,0,0
1771940281.148799,1771940281.0711856,-1000.0,-1000.0,-205.56640625,-1000.0,0.0,0,0
1771940281.148861,1771940281.0750813,55.6640625,-190.4296875,690.91796875,71.77734375,0.0,0,0
1771940281.148923,1771940281.0789769,-770.5078125,-971.19140625,715.8203125,-768.06640625,0.0,0,0
1771940281.148986,1771940281.0828724,298.828125,964.35546875,-421.875,228.515625,0.0,0,0
1771940281.149056,1771940281.086768,-962.40234375,-287.109375,-954.58984375,-990.72265625,0.0,0,0
1771940281.149135,1771940281.0906634,-1000.0,-1000.0,-325.1953125,-1000.0,0.0,0,0
1771940281.149207,1771940281.0945592,-140.625,-213.8671875,617.1875,-131.34765625,0.0,0,0
1771940281.149269,1771940281.0984547,-820.80078125,987.79296875,759.765625,-808.59375,0.0,0,0
1771940281.149642,1771940281.1023502,498.53515625,-951.171875,-259.27734375,414.0625,0.0,0,0
1771940281.149706,1771940281.1062458,-867.67578125,-60.05859375,-987.3046875,-912.59765625,0.0,0,0
1771940281.149766,1771940281.1101413,-1000.0,-1000.0,-484.86328125,-1000.0,0.0,0,0
1771940281.1936588,1771940281.114152,-224.609375,-368.1640625,547.36328125,-239.2578125,0.0,0,0
1771940281.193831,1771940281.1180477,-910.15625,914.0625,782.71484375,-877.44140625,0.0,0,0
1771940281.1938932,1771940281.1219432,756.8359375,-898.92578125,-88.37890625,627.9296875,0.0,0,0
1771940281.1939719,1771940281.1258388,-610.3515625,135.25390625,-927.734375,-754.8828125,0.0,0,0
1771940281.194041,1771940281.1297343,-1000.0,-1000.0,-625.48828125,-1000.0,0.0,0,0
1771940281.194096,1771940281.13363,-187.5,-565.4296875,517.578125,-206.0546875,0.0,0,0
1771940281.194156,1771940281.1375256,-977.5390625,818.84765625,826.171875,-942.87109375,0.0,0,0
1771940281.1942332,1771940281.141421,978.515625,-856.93359375,67.87109375,866.2109375,0.0,0,0
1771940281.1943092,1771940281.1453166,-251.46484375,178.7109375,-797.8515625,-434.08203125,0.0,0,0
1771940281.194387,1771940281.1492124,-1000.0,-1000.0,-707.03125,-1000.0,0.0,0,0
1771940281.194439,1771940281.153108,-243.65234375,-897.94921875,449.70703125,-232.421875,0.0,0,0
1771940281.194516,1771940281.1570034,973.14453125,425.78125,903.80859375,995.1171875,0.0,0,0
1771940281.240221,1771940281.1610017,-941.89453125,-790.52734375,199.21875,-987.79296875,0.0,0,0
1771940281.240445,1771940281.1648974,-21.97265625,148.4375,-726.07421875,-150.390625,0.0,0,0
1771940281.240514,1771940281.168793,-1000.0,-1000.0,-762.20703125,-1000.0,0.0,0,0
1771940281.24057,1771940281.1726885,-433.59375,-1000.0,304.6875,-402.83203125,0.0,0,0
1771940281.2406259,1771940281.1765842,880.37109375,148.92578125,942.3828125,898.92578125,0.0,0,0
1771940281.2406778,1771940281.1804798,-885.7421875,-763.18359375,372.55859375,-902.34375,0.0,0,0
1771940281.2407308,1771940281.1843753,160.15625,278.80859375,-625.0,59.08203125,0.0,0,0
1771940281.2407732,1771940281.188271,-1000.0,-972.65625,-777.83203125,-1000.0,0.0,0,0
1771940281.240813,1771940281.1921666,-673.828125,-1000.0,152.34375,-633.30078125,0.0,0,0
1771940281.240855,1771940281.196062,710.44921875,-70.3125,923.828125,735.3515625,0.0,0,0
1771940281.240911,1771940281.1999578,-836.9140625,-799.8046875,490.72265625,-841.796875,0.0,0,0
1771940281.240972,1771940281.2038534,170.41015625,444.3359375,-605.95703125,156.73828125,0.0,0,0
1771940281.299958,1771940281.2080152,-1000.0,-892.08984375,-818.84765625,-1000.0,0.0,0,0
1771940281.30012,1771940281.211911,-922.8515625,-1000.0,-33.203125,-895.01953125,0.0,0,0
1771940281.300169,1771940281.2158067,387.20703125,-233.3984375,819.3359375,425.78125,0.0,0,0
1771940281.300215,1771940281.2197022,-785.15625,-892.08984375,625.0,-789.0625,0.0,0,0
1771940281.3002582,1771940281.223598,142.578125,699.70703125,-550.78125,144.53125,0.0,0,0
1771940281.300302,1771940281.2274935,-1000.0,-687.98828125,-893.5546875,-1000.0,0.0,0,0
1771940281.300363,1771940281.2313893,-1000.0,-1000.0,-222.65625,-1000.0,0.0,0,0
1771940281.30042,1771940281.2352848,78.125,-197.265625,682.12890625,107.421875,0.0,0,0
1771940281.300471,1771940281.2391806,-768.5546875,-958.0078125,709.47265625,-765.625,0.0,0,0
1771940281.300514,1771940281.243076,275.390625,924.8046875,-437.5,192.87109375,0.0,0,0
1771940281.300555,1771940281.2469718,-974.12109375,-367.1875,-951.66015625,-1000.0,0.0,0,0
1771940281.300597,1771940281.2508674,-1000.0,-1000.0,-335.44921875,-1000.0,0.0,0,0
1771940281.33037,1771940281.2549303,-112.3046875,-173.33984375,618.1640625,-86.9140625,0.0,0,0
1771940281.3305018,1771940281.2588258,-811.5234375,-998.046875,733.3984375,-794.43359375,0.0,0,0
1771940281.330571,1771940281.2627215,470.21484375,-961.42578125,-312.5,359.375,0.0,0,0
1771940281.330632,1771940281.2666173,-880.37109375,-80.078125,-980.95703125,-935.546875,0.0,0,0
1771940281.330692,1771940281.2705128,-1000.0,-1000.0,-464.84375,-1000.0,0.0,0,0
1771940281.330754,1771940281.2744086,-229.00390625,-350.5859375,558.10546875,-243.65234375,0.0,0,0
1771940281.330816,1771940281.2783043,-901.3671875,922.8515625,759.27734375,-869.62890625,0.0,0,0
1771940281.330884,1771940281.2821999,726.5625,-904.78515625,-134.27734375,602.05078125,0.0,0,0
1771940281.3309429,1771940281.2860956,-649.4140625,109.375,-931.640625,-784.1796875,0.0,0,0
1771940281.331021,1771940281.2899911,-1000.0,-1000.0,-592.7734375,-1000.0,0.0,0,0
1771940281.331093,1771940281.293887,-192.87109375,-564.94140625,529.296875,-210.44921875,0.0,0,0
1771940281.331171,1771940281.2977827,-967.7734375,814.94140625,819.3359375,-934.5703125,0.0,0,0
1771940281.375626,1771940281.3018363,948.73046875,-857.421875,32.71484375,843.26171875,0.0,0,0
1771940281.375796,1771940281.3057318,-310.05859375,185.546875,-834.47265625,-481.4453125,0.0,0,0
1771940281.3758469,1771940281.3096275,-1000.0,-1000.0,-687.5,-1000.0,0.0,0,0
1771940281.3758888,1771940281.3135233,-220.703125,-834.47265625,462.890625,-191.40625,0.0,0,0
1771940281.375934,1771940281.3174188,981.93359375,521.97265625,902.83203125,-991.2109375,0.0,0,0
1771940281.375981,1771940281.3213146,-949.70703125,-801.7578125,237.79296875,-995.1171875,0.0,0,0
1771940281.376035,1771940281.3252103,-45.8984375,149.4140625,-709.9609375,-159.1796875,0.0,0,0
1771940281.3760982,1771940281.329106,-1000.0,-1000.0,-752.9296875,-1000.0,0.0,0,0
1771940281.3761559,1771940281.3330016,-411.62109375,-1000.0,333.49609375,-374.51171875,0.0,0,0
1771940281.3762078,1771940281.3368974,892.578125,162.109375,933.59375,916.015625,0.0,0,0
1771940281.37625,1771940281.3407931,-892.578125,-763.671875,355.46875,-911.1328125,0.0,0,0
1771940281.376301,1771940281.344689,131.34765625,225.09765625,-629.8828125,42.48046875,0.0,0,0
1771940281.420396,1771940281.3487322,-1000.0,-999.51171875,-782.2265625,-1000.0,0.0,0,0
1771940281.4205801,1771940281.3526278,-631.8359375,-1000.0,172.8515625,-568.359375,0.0,0,0
1771940281.420628,1771940281.3565235,749.51171875,-36.62109375,934.5703125,806.640625,0.0,0,0
1771940281.420674,1771940281.3604193,-844.7265625,-789.55078125,486.81640625,-859.375,0.0,0,0
1771940281.420735,1771940281.364315,172.8515625,407.2265625,-602.5390625,134.27734375,0.0,0,0
1771940281.4208078,1771940281.3682108,-1000.0,-908.69140625,-805.17578125,-1000.0,0.0,0,0
1771940281.4208581,1771940281.3721066,-890.13671875,-1000.0,-22.94921875,-838.37890625,0.0,0,0
1771940281.4209,1771940281.3760023,436.5234375,-229.98046875,820.3125,503.90625,0.0,0,0
1771940281.4209511,1771940281.3798978,-791.50390625,-879.8828125,613.76953125,-798.33984375,0.0,0,0
1771940281.421021,1771940281.3837936,145.01953125,661.62109375,-565.4296875,147.94921875,0.0,0,0
1771940281.421084,1771940281.3876894,-1000.0,-729.98046875,-880.37109375,-1000.0,0.0,0,0
1771940281.421124,1771940281.391585,-1000.0,-1000.0,-176.7578125,-1000.0,0.0,0,0
1771940281.4646971,1771940281.3956134,114.2578125,-203.61328125,710.44921875,149.4140625,0.0,0,0
1771940281.46477,1771940281.3995092,-765.625,-945.3125,697.265625,-763.18359375,0.0,0,0
1771940281.4648,1771940281.403405,248.53515625,882.32421875,-447.75390625,186.5234375,0.0,0,0
1771940281.4648252,1771940281.4073007,-986.81640625,-433.10546875,-940.4296875,-1000.0,0.0,0,0
1771940281.46485,1771940281.4111965,-1000.0,-1000.0,-316.89453125,-1000.0,0.0,0,0
1771940281.464873,1771940281.4150922,-79.1015625,-174.31640625,625.9765625,-53.22265625,0.0,0,0
1771940281.464897,1771940281.418988,-801.26953125,-997.55859375,731.93359375,-788.0859375,0.0,0,0
1771940281.464921,1771940281.4228837,440.4296875,-965.33203125,-332.03125,347.16796875,0.0,0,0
1771940281.4649441,1771940281.4267795,-893.5546875,-96.6796875,-979.4921875,-936.5234375,0.0,0,0
1771940281.464967,1771940281.4306753,-1000.0,-1000.0,-443.84765625,-1000.0,0.0,0,0
1771940281.464989,1771940281.4345708,-233.88671875,-343.75,553.7109375,-242.67578125,0.0,0,0
1771940281.465012,1771940281.4384665,-892.08984375,925.29296875,769.53125,-867.67578125,0.0,0,0
1771940281.523061,1771940281.4424872,694.3359375,-905.76171875,-129.8828125,594.23828125,0.0,0,0
1771940281.523117,1771940281.446383,-690.91796875,98.6328125,-948.2421875,-790.0390625,0.0,0,0
1771940281.523197,1771940281.4502788,-1000.0,-1000.0,-575.68359375,-1000.0,0.0,0,0
1771940281.523212,1771940281.4541745,-198.73046875,-514.16015625,538.57421875,-214.35546875,0.0,0,0
1771940281.523227,1771940281.4580703,-956.0546875,845.21484375,819.3359375,-924.8046875,0.0,0,0
1771940281.523241,1771940281.461966,914.0625,-867.67578125,58.59375,807.6171875,0.0,0,0
1771940281.523255,1771940281.4658618,-376.46484375,190.4296875,-831.0546875,-528.80859375,0.0,0,0
1771940281.5232692,1771940281.4697576,-1000.0,-1000.0,-676.26953125,-1000.0,0.0,0,0
1771940281.5232818,1771940281.4736533,-191.89453125,-820.3125,493.1640625,-185.546875,0.0,0,0
1771940281.523296,1771940281.477549,997.0703125,540.0390625,893.06640625,-977.5390625,0.0,0,0
1771940281.5233102,1771940281.4814448,-965.33203125,-805.6640625,195.3125,974.12109375,0.0,0,0
1771940281.523324,1771940281.4853406,-89.35546875,152.83203125,-735.3515625,-216.796875,0.0,0,0
1771940281.598009,1771940281.4893484,-1000.0,-1000.0,-736.328125,-1000.0,0.0,0,0
1771940281.598057,1771940281.4932442,-379.8828125,-1000.0,355.46875,-363.76953125,0.0,0,0
1771940281.598081,1771940281.49714,909.1796875,203.125,929.19921875,924.8046875,0.0,0,0
1771940281.598101,1771940281.501036,-901.85546875,-767.08984375,336.9140625,-923.33984375,0.0,0,0
1771940281.598123,1771940281.5049317,96.6796875,195.80078125,-646.484375,1.46484375,0.0,0,0
1771940281.598144,1771940281.5088274,-1000.0,-1000.0,-768.06640625,-1000.0,0.0,0,0
1771940281.598162,1771940281.5127232,-573.73046875,-1000.0,215.8203125,-555.6640625,0.0,0,0
1771940281.598182,1771940281.516619,803.7109375,-26.85546875,943.84765625,811.03515625,0.0,0,0
1771940281.598204,1771940281.5205147,-855.95703125,-786.62109375,462.890625,-859.375,0.0,0,0
1771940281.598224,1771940281.5244105,179.6875,402.83203125,-599.609375,148.92578125,0.0,0,0
1771940281.5982442,1771940281.5283062,-1000.0,-913.57421875,-812.01171875,-1000.0,0.0,0,0
1771940281.598263,1771940281.532202,-847.65625,-1000.0,23.4375,-821.77734375,0.0,0,0
1771940281.601042,1771940281.5362086,502.44140625,-199.70703125,868.1640625,529.296875,0.0,0,0
1771940281.601088,1771940281.5401044,-799.8046875,-855.95703125,581.0546875,-803.22265625,0.0,0,0
1771940281.601114,1771940281.5440001,146.97265625,592.28515625,-581.0546875,145.01953125,0.0,0,0
1771940281.601137,1771940281.5478961,-1000.0,-797.36328125,-854.4921875,-1000.0,0.0,0,0
1771940281.6011572,1771940281.551792,-1000.0,-1000.0,-138.671875,-1000.0,0.0,0,0
1771940281.601176,1771940281.5556877,144.53125,-206.54296875,729.98046875,173.33984375,0.0,0,0
1771940281.6011982,1771940281.5595834,-763.18359375,-945.80078125,658.69140625,-764.6484375,0.0,0,0
1771940281.6012192,1771940281.5634792,223.14453125,882.8125,-506.8359375,194.3359375,0.0,0,0
1771940281.601239,1771940281.567375,-998.046875,-432.12890625,-930.17578125,-1000.0,0.0,0,0
1771940281.601258,1771940281.571271,-1000.0,-1000.0,-277.83203125,-1000.0,0.0,0,0
1771940281.6012769,1771940281.5751667,-57.6171875,-179.19921875,644.04296875,-43.45703125,0.0,0,0
1771940281.6012979,1771940281.5790625,-792.96875,-988.28125,729.00390625,-786.62109375,0.0,0,0
1771940281.659283,1771940281.5831318,410.15625,-981.4453125,-346.6796875,335.44921875,0.0,0,0
1771940281.659339,1771940281.5870275,-909.1796875,-162.109375,-968.26171875,-943.359375,0.0,0,0
1771940281.659368,1771940281.5909233,-1000.0,-1000.0,-415.0390625,-1000.0,0.0,0,0
1771940281.659395,1771940281.594819,-230.95703125,-313.4765625,554.19921875,-229.4921875,0.0,0,0
1771940281.659425,1771940281.598715,-877.9296875,937.98828125,768.06640625,-853.515625,0.0,0,0
1771940281.6594539,1771940281.6026108,645.5078125,-916.50390625,-163.0859375,537.109375,0.0,0,0
1771940281.659484,1771940281.6065066,-744.62890625,60.546875,-959.9609375,-836.9140625,0.0,0,0
1771940281.659513,1771940281.6104026,-1000.0,-1000.0,-554.6875,-1000.0,0.0,0,0
1771940281.65954,1771940281.6142983,-204.1015625,-531.73828125,531.73828125,-221.19140625,0.0,0,0
1771940281.659568,1771940281.618194,-947.75390625,828.125,813.96484375,-914.55078125,0.0,0,0
1771940281.6595998,1771940281.6220899,886.71875,-862.79296875,6.34765625,770.5078125,0.0,0,0
1771940281.659628,1771940281.6259859,-423.33984375,193.359375,-866.69921875,-580.078125,0.0,0,0
1771940281.794891,1771940281.6305494,-1000.0,-1000.0,-665.52734375,-1000.0,0.0,0,0
1771940281.79501,1771940281.6344454,-176.26953125,-770.5078125,493.65234375,-188.4765625,0.0,0,0
1771940281.79506,1771940281.6383414,-995.1171875,605.46875,878.90625,-973.14453125,0.0,0,0
1771940281.795143,1771940281.6422372,-974.12109375,-817.3828125,172.8515625,961.42578125,0.0,0,0
1771940281.7952168,1771940281.6461332,-114.74609375,161.62109375,-749.0234375,-251.46484375,0.0,0,0
1771940281.795267,1771940281.6500292,-1000.0,-1000.0,-741.2109375,-1000.0,0.0,0,0
1771940281.7953112,1771940281.6539252,-349.609375,-972.65625,374.0234375,-333.0078125,0.0,0,0
1771940281.7953558,1771940281.657821,923.33984375,305.17578125,928.7109375,937.98828125,0.0,0,0
1771940281.7954,1771940281.661717,-908.69140625,-774.90234375,305.17578125,-930.17578125,0.0,0,0
1771940281.795446,1771940281.665613,83.0078125,145.99609375,-666.50390625,-11.23046875,0.0,0,0
1771940281.795489,1771940281.669509,-1000.0,-1000.0,-780.76171875,-1000.0,0.0,0,0
1771940281.795528,1771940281.6734047,-547.36328125,-1000.0,218.26171875,-530.2734375,0.0,0,0
1771940281.797183,1771940281.6777196,822.265625,10.7421875,944.82421875,828.125,0.0,0,0
1771940281.797249,1771940281.6816156,-861.328125,-776.3671875,457.03125,-867.1875,0.0,0,0
1771940281.797293,1771940281.6855116,181.15234375,352.05078125,-594.23828125,130.859375,0.0,0,0
1771940281.797337,1771940281.6894076,-1000.0,-941.89453125,-795.8984375,-1000.0,0.0,0,0
1771940281.797379,1771940281.6933036,-819.3359375,-1000.0,59.08203125,-792.96875,0.0,0,0
1771940281.797455,1771940281.6971996,539.55078125,-145.99609375,877.44140625,562.5,0.0,0,0
1771940281.7975302,1771940281.7010956,-805.6640625,-838.37890625,563.4765625,-809.08203125,0.0,0,0
1771940281.79758,1771940281.7049916,150.87890625,580.078125,-583.0078125,145.99609375,0.0,0,0
1771940281.797628,1771940281.7088876,-1000.0,-796.875,-854.00390625,-1000.0,0.0,0,0
1771940281.7976708,1771940281.7127836,-1000.0,-1000.0,-148.4375,-1000.0,0.0,0,0
1771940281.7977111,1771940281.7166796,184.08203125,-212.40234375,733.3984375,213.37890625,0.0,0,0
1771940281.7977548,1771940281.7205756,-766.6015625,-930.17578125,663.0859375,-768.5546875,0.0,0,0
1771940281.808864,1771940281.7246397,198.73046875,831.54296875,-514.6484375,151.3671875,0.0,0,0
1771940281.808943,1771940281.7285357,-1000.0,-510.7421875,-920.8984375,-1000.0,0.0,0,0
1771940281.809002,1771940281.7324317,-1000.0,-1000.0,-279.296875,-1000.0,0.0,0,0
1771940281.809056,1771940281.7363276,10.25390625,-178.7109375,668.45703125,36.1328125,0.0,0,0
1771940281.8091142,1771940281.7402236,-891.6015625,-991.2109375,676.26953125,-881.8359375,0.0,0,0
1771940281.809172,1771940281.7441196,206.0546875,-979.00390625,-453.125,117.67578125,0.0,0,0
1771940281.80923,1771940281.7480156,-901.3671875,-155.76171875,-960.44921875,-941.89453125,0.0,0,0
1771940281.809294,1771940281.7519116,-1000.0,-1000.0,-422.8515625,-1000.0,0.0,0,0
1771940281.8093498,1771940281.7558079,-219.23828125,-301.26953125,551.7578125,-208.984375,0.0,0,0
1771940281.809412,1771940281.7597039,-865.72265625,947.265625,762.20703125,-837.40234375,0.0,0,0
1771940281.80947,1771940281.7635999,616.2109375,-921.38671875,-200.1953125,505.37109375,0.0,0,0
1771940281.809531,1771940281.7674959,-771.97265625,33.203125,-968.75,-867.67578125,0.0,0,0
1771940281.839662,1771940281.7715182,-1000.0,-1000.0,-554.19921875,-1000.0,0.0,0,0
1771940281.839766,1771940281.7754142,-207.51953125,-466.796875,519.04296875,-225.5859375,0.0,0,0
1771940281.839818,1771940281.7793102,-941.40625,865.234375,798.828125,-904.78515625,0.0,0,0
1771940281.839863,1771940281.7832062,864.74609375,-875.48828125,-7.32421875,737.3046875,0.0,0,0
1771940281.8399072,1771940281.7871022,-458.0078125,200.68359375,-866.2109375,-629.39453125,0.0,0,0
1771940281.839951,1771940281.7909985,-1000.0,-1000.0,-664.55078125,-1000.0,0.0,0,0
1771940281.83999,1771940281.7948945,-178.22265625,-746.58203125,489.2578125,-191.89453125,0.0,0,0
1771940281.840246,1771940281.7987905,-991.69921875,636.71875,863.28125,-968.26171875,0.0,0,0
1771940281.8402932,1771940281.8026865,-981.4453125,-822.75390625,126.953125,947.75390625,0.0,0,0
1771940281.840339,1771940281.8065825,-143.5546875,164.55078125,-768.06640625,-292.96875,0.0,0,0
1771940281.840381,1771940281.8104787,-1000.0,-1000.0,-742.67578125,-1000.0,0.0,0,0
1771940281.8404212,1771940281.8143747,-326.66015625,-957.51953125,371.09375,-299.8046875,0.0,0,0
1771940281.885185,1771940281.8183863,933.10546875,334.9609375,926.7578125,952.1484375,0.0,0,0
1771940281.885322,1771940281.8222826,-914.55078125,-778.3203125,283.69140625,-937.01171875,0.0,0,0
1771940281.885389,1771940281.8261786,65.4296875,142.08984375,-677.734375,-30.2734375,0.0,0,0
1771940281.88545,1771940281.8300745,-1000.0,-1000.0,-785.64453125,-1000.0,0.0,0,0
1771940281.8855329,1771940281.8339705,-521.484375,-1000.0,222.65625,-488.76953125,0.0,0,0
1771940281.885599,1771940281.8378668,836.42578125,62.98828125,947.265625,854.98046875,0.0,0,0
1771940281.88565,1771940281.8417628,-866.69921875,-769.04296875,420.41015625,-879.8828125,0.0,0,0
1771940281.885698,1771940281.8456588,182.12890625,318.84765625,-612.79296875,112.79296875,0.0,0,0
1771940281.8857448,1771940281.849555,-1000.0,-952.1484375,-794.43359375,-1000.0,0.0,0,0
1771940281.885793,1771940281.853451,-784.1796875,-1000.0,69.82421875,-730.95703125,0.0,0,0
1771940281.885847,1771940281.857347,584.47265625,-151.85546875,892.578125,637.20703125,0.0,0,0
1771940281.8858938,1771940281.861243,-813.96484375,-825.68359375,565.4296875,-822.265625,0.0,0,0
1771940281.930398,1771940281.8652499,156.73828125,525.87890625,-577.1484375,155.2734375,0.0,0,0
1771940281.930561,1771940281.8691459,-1000.0,-853.02734375,-854.4921875,-1000.0,0.0,0,0
1771940281.930611,1771940281.873042,-998.53515625,-1000.0,-105.95703125,-958.984375,0.0,0,0
1771940281.930655,1771940281.876938,251.46484375,-217.28515625,774.4140625,327.63671875,0.0,0,0
1771940281.9307,1771940281.880834,-771.484375,-924.31640625,670.8984375,-777.34375,0.0,0,0
1771940281.9307442,1771940281.8847303,174.8046875,812.5,-503.41796875,140.625,0.0,0,0
1771940281.9307861,1771940281.8886263,-1000.0,-540.52734375,-925.29296875,-1000.0,0.0,0,0
1771940281.930828,1771940281.8925223,-1000.0,-1000.0,-274.4140625,-1000.0,0.0,0,0
1771940281.930872,1771940281.8964186,0.0,-182.12890625,650.87890625,41.50390625,0.0,0,0
1771940281.930916,1771940281.9003146,-780.2734375,-985.3515625,730.95703125,-770.5078125,0.0,0,0
1771940281.930968,1771940281.9042106,356.4453125,-994.62890625,-375.0,269.53125,0.0,0,0
1771940281.931021,1771940281.9081068,-935.546875,-200.68359375,-967.7734375,-973.14453125,0.0,0,0
1771940281.989943,1771940281.912098,-1000.0,-1000.0,-390.13671875,-1000.0,0.0,0,0
1771940281.99006,1771940281.915994,-187.5,-260.7421875,577.1484375,-154.78515625,0.0,0,0
1771940281.9901068,1771940281.91989,-848.14453125,962.890625,765.625,-818.84765625,0.0,0,0
1771940281.990155,1771940281.9237862,573.2421875,-929.6875,-206.0546875,465.8203125,0.0,0,0
1771940281.9902,1771940281.9276822,-810.05859375,22.4609375,-970.21484375,-886.71875,0.0,0,0
1771940281.990243,1771940281.9315784,-1000.0,-1000.0,-523.4375,-1000.0,0.0,0,0
1771940281.990284,1771940281.9354744,-213.8671875,-457.03125,523.4375,-230.46875,0.0,0,0
1771940281.990328,1771940281.9393706,-929.6875,870.1171875,803.7109375,-894.04296875,0.0,0,0
1771940281.990379,1771940281.9432666,826.171875,-878.41796875,-28.80859375,692.3828125,0.0,0,0
1771940281.990429,1771940281.9471626,-514.6484375,189.453125,-899.4140625,-678.7109375,0.0,0,0
1771940281.990471,1771940281.9510589,-1000.0,-1000.0,-644.04296875,-1000.0,0.0,0,0
1771940281.990529,1771940281.9549549,-180.6640625,-706.0546875,505.859375,-195.3125,0.0,0,0
1771940282.035331,1771940281.959019,-989.2578125,683.10546875,861.328125,-964.35546875,0.0,0,0
1771940282.035485,1771940281.962915,-987.79296875,-831.0546875,134.765625,935.546875,0.0,0,0
1771940282.035549,1771940281.9668112,-170.8984375,170.41015625,-768.06640625,-315.4296875,0.0,0,0
1771940282.035677,1771940281.9707072,-1000.0,-1000.0,-734.86328125,-1000.0,0.0,0,0
1771940282.035744,1771940281.9746034,-298.33984375,-913.0859375,399.4140625,-273.92578125,0.0,0,0
1771940282.035809,1771940281.9784997,949.70703125,402.83203125,914.0625,973.14453125,0.0,0,0
1771940282.035872,1771940281.9823956,-926.26953125,-785.64453125,254.39453125,-960.44921875,0.0,0,0
1771940282.035935,1771940281.986292,19.53125,141.6015625,-691.40625,-87.40234375,0.0,0,0
1771940282.036006,1771940281.990188,-1000.0,-1000.0,-777.34375,-1000.0,0.0,0,0
1771940282.036063,1771940281.9940841,-486.328125,-1000.0,254.8828125,-459.9609375,0.0,0,0
1771940282.036148,1771940281.99798,852.5390625,56.15234375,940.4296875,868.65234375,0.0,0,0
1771940282.036206,1771940282.0018764,-873.53515625,-770.01953125,407.71484375,-886.23046875,0.0,0,0
1771940282.0945332,1771940282.0060122,184.5703125,319.3359375,-603.02734375,106.93359375,0.0,0,0
1771940282.094662,1771940282.0099084,-1000.0,-956.54296875,-801.26953125,-1000.0,0.0,0,0
1771940282.094709,1771940282.0138044,-742.67578125,-1000.0,89.35546875,-704.58984375,0.0,0,0
1771940282.094763,1771940282.0177007,637.20703125,-121.58203125,903.3203125,668.45703125,0.0,0,0
1771940282.0948071,1771940282.021597,-822.75390625,-819.82421875,534.1796875,-827.1484375,0.0,0,0
1771940282.0948522,1771940282.025493,161.62109375,521.97265625,-576.66015625,157.2265625,0.0,0,0
1771940282.094896,1771940282.0293891,-1000.0,-850.5859375,-850.09765625,-1000.0,0.0,0,0
1771940282.094938,1771940282.0332854,-974.609375,-1000.0,-112.3046875,-952.1484375,0.0,0,0
1771940282.094988,1771940282.0371816,300.78125,-224.609375,782.71484375,339.84375,0.0,0,0
1771940282.0950432,1771940282.0410776,-775.87890625,-902.83203125,641.11328125,-778.3203125,0.0,0,0
1771940282.095098,1771940282.0449739,147.94921875,732.91015625,-548.828125,140.625,0.0,0,0
1771940282.095142,1771940282.04887,-1000.0,-645.01953125,-911.62109375,-1000.0,0.0,0,0
1771940282.1247559,1771940282.052911,-1000.0,-1000.0,-218.26171875,-1000.0,0.0,0,0
1771940282.1249018,1771940282.0568073,26.85546875,-186.5234375,687.01171875,49.31640625,0.0,0,0
1771940282.124964,1771940282.0607035,-774.4140625,-981.4453125,714.84375,-770.01953125,0.0,0,0
1771940282.125024,1771940282.0645998,323.73046875,991.69921875,-405.76171875,256.34765625,0.0,0,0
1771940282.125083,1771940282.0684958,-951.66015625,-233.3984375,-966.796875,-979.4921875,0.0,0,0
1771940282.125154,1771940282.072392,-1000.0,-1000.0,-376.46484375,-1000.0,0.0,0,0
1771940282.1252081,1771940282.0762882,-157.71484375,-224.12109375,595.21484375,-142.08984375,0.0,0,0
1771940282.125267,1771940282.0801845,-828.61328125,979.98046875,752.44140625,-813.4765625,0.0,0,0
1771940282.125334,1771940282.0840807,520.5078125,-942.3828125,-259.27734375,430.6640625,0.0,0,0
1771940282.1253881,1771940282.0879767,-854.00390625,-14.16015625,-986.81640625,-903.80859375,0.0,0,0
1771940282.125431,1771940282.091873,-1000.0,-1000.0,-518.06640625,-1000.0,0.0,0,0
1771940282.125481,1771940282.0957692,-221.19140625,-425.78125,538.0859375,-235.3515625,0.0,0,0
1771940282.170243,1771940282.0998,-916.50390625,885.25390625,785.15625,-887.6953125,0.0,0,0
1771940282.1703942,1771940282.1036963,778.80859375,-886.23046875,-82.51953125,667.96875,0.0,0,0
1771940282.17046,1771940282.1075926,-582.03125,160.64453125,-910.15625,-706.54296875,0.0,0,0
1771940282.1705222,1771940282.1114888,-1000.0,-1000.0,-628.90625,-1000.0,0.0,0,0
1771940282.1705768,1771940282.115385,-185.05859375,-675.78125,499.0234375,-201.171875,0.0,0,0
1771940282.170648,1771940282.119281,-981.93359375,708.49609375,842.7734375,-952.1484375,0.0,0,0
1771940282.1707149,1771940282.1231773,991.69921875,-835.44921875,97.65625,896.484375,0.0,0,0
1771940282.1707761,1771940282.1270735,-224.12109375,171.38671875,-795.8984375,-379.39453125,0.0,0,0
1771940282.170835,1771940282.1309698,-1000.0,-1000.0,-716.30859375,-1000.0,0.0,0,0
1771940282.170908,1771940282.134866,-264.6484375,-917.48046875,430.17578125,-261.71875,0.0,0,0
1771940282.170979,1771940282.1387622,963.8671875,395.99609375,913.57421875,979.00390625,0.0,0,0
1771940282.171287,1771940282.1426585,-935.05859375,-785.64453125,233.3984375,-970.21484375,0.0,0,0
1771940282.214549,1771940282.1466784,-1.953125,144.53125,-719.23828125,-105.46875,0.0,0,0
1771940282.2146728,1771940282.1505747,-1000.0,-1000.0,-751.953125,-1000.0,0.0,0,0
1771940282.214721,1771940282.154471,-464.35546875,-1000.0,305.6640625,-450.1953125,0.0,0,0
1771940282.214766,1771940282.1583672,863.28125,94.23828125,941.40625,871.09375,0.0,0,0
1771940282.214814,1771940282.1622634,-877.44140625,-768.06640625,386.71875,-886.23046875,0.0,0,0
1771940282.214858,1771940282.1661596,184.5703125,319.82421875,-608.88671875,114.74609375,0.0,0,0
1771940282.214901,1771940282.1700559,-1000.0,-961.9140625,-802.24609375,-1000.0,0.0,0,0
1771940282.214942,1771940282.173952,-701.66015625,-1000.0,100.5859375,-674.31640625,0.0,0,0
1771940282.214985,1771940282.1778483,687.01171875,-51.26953125,919.921875,705.078125,0.0,0,0
1771940282.215032,1771940282.1817446,-831.54296875,-799.31640625,517.578125,-835.9375,0.0,0,0
1771940282.2150831,1771940282.1856406,166.9921875,453.125,-592.7734375,144.04296875,0.0,0,0
1771940282.215137,1771940282.1895368,-1000.0,-883.7890625,-836.42578125,-1000.0,0.0,0,0
1771940282.2591739,1771940282.1935456,-944.82421875,-1000.0,-67.87109375,-929.6875,0.0,0,0
1771940282.2592251,1771940282.1974418,353.02734375,-226.5625,808.10546875,370.1171875,0.0,0,0
1771940282.259246,1771940282.201338,-780.76171875,-909.66796875,624.51171875,-781.73828125,0.0,0,0
1771940282.259268,1771940282.2052343,141.11328125,763.671875,-555.6640625,142.08984375,0.0,0,0
1771940282.259299,1771940282.2091305,-1000.0,-604.4921875,-903.80859375,-1000.0,0.0,0,0
1771940282.25932,1771940282.2130268,-1000.0,-1000.0,-217.7734375,-1000.0,0.0,0,0
1771940282.259338,1771940282.216923,56.15234375,-191.40625,689.94140625,72.265625,0.0,0,0
1771940282.259358,1771940282.2208192,-770.5078125,-966.30859375,710.9375,-768.06640625,0.0,0,0
1771940282.259409,1771940282.2247155,300.78125,952.63671875,-417.48046875,226.07421875,0.0,0,0
1771940282.2594728,1771940282.2286117,-961.9140625,-311.5234375,-959.9609375,-992.67578125,0.0,0,0
1771940282.259495,1771940282.232508,-1000.0,-1000.0,-359.375,-1000.0,0.0,0,0
1771940282.2595131,1771940282.2364042,-136.23046875,-194.3359375,602.5390625,-124.0234375,0.0,0,0
1771940282.317409,1771940282.2404006,-819.82421875,992.67578125,763.671875,-805.6640625,0.0,0,0
1771940282.31744,1771940282.244297,495.60546875,-954.1015625,-264.16015625,396.484375,0.0,0,0
1771940282.317452,1771940282.2481933,-868.65234375,-51.7578125,-983.3984375,-920.41015625,0.0,0,0
1771940282.317465,1771940282.2520895,-1000.0,-1000.0,-476.07421875,-1000.0,0.0,0,0
1771940282.317476,1771940282.2559857,-225.09765625,-405.76171875,543.9453125,-241.69921875,0.0,0,0
1771940282.317487,1771940282.259882,-908.69140625,895.99609375,782.2265625,-874.51171875,0.0,0,0
1771940282.3174982,1771940282.2637782,752.9296875,-892.578125,-97.65625,615.234375,0.0,0,0
1771940282.3175092,1771940282.2676744,-615.72265625,122.0703125,-929.6875,-768.06640625,0.0,0,0
1771940282.31752,1771940282.2715707,-1000.0,-1000.0,-602.05078125,-1000.0,0.0,0,0
1771940282.3175302,1771940282.275467,-188.4765625,-605.46875,522.94921875,-207.03125,0.0,0,0
1771940282.3175411,1771940282.2793632,-976.07421875,774.90234375,836.42578125,-942.3828125,0.0,0,0
1771940282.3175528,1771940282.2832594,973.6328125,-848.14453125,82.51953125,866.2109375,0.0,0,0
1771940282.3938382,1771940282.2874908,-260.25390625,175.78125,-812.98828125,-436.5234375,0.0,0,0
1771940282.393873,1771940282.291387,-1000.0,-1000.0,-689.453125,-1000.0,0.0,0,0
1771940282.393885,1771940282.2952836,-248.53515625,-905.76171875,461.9140625,-240.72265625,0.0,0,0
1771940282.3938959,1771940282.2991798,970.703125,414.55078125,904.296875,990.72265625,0.0,0,0
1771940282.3939068,1771940282.303076,-940.91796875,-788.57421875,239.2578125,-983.88671875,0.0,0,0
1771940282.3939168,1771940282.3069725,-21.97265625,145.99609375,-701.66015625,-145.5078125,0.0,0,0
1771940282.393928,1771940282.3108687,-1000.0,-1000.0,-768.06640625,-1000.0,0.0,0,0
1771940282.3939378,1771940282.314765,-435.546875,-1000.0,305.17578125,-412.59765625,0.0,0,0
1771940282.3939478,1771940282.3186615,880.37109375,117.67578125,940.91796875,897.94921875,0.0,0,0
1771940282.3939579,1771940282.3225577,-886.23046875,-764.16015625,350.5859375,-904.296875,0.0,0,0
1771940282.393968,1771940282.326454,152.34375,239.2578125,-639.6484375,34.66796875,0.0,0,0
1771940282.393986,1771940282.3303502,-1000.0,-995.1171875,-772.4609375,-1000.0,0.0,0,0
1771940282.407576,1771940282.3343434,-667.48046875,-1000.0,163.0859375,-620.1171875,0.0,0,0
1771940282.407609,1771940282.3382397,715.33203125,-56.15234375,933.10546875,743.65234375,0.0,0,0
1771940282.4076211,1771940282.342136,-837.890625,-794.43359375,497.55859375,-842.7734375,0.0,0,0
1771940282.4076312,1771940282.3460324,170.8984375,433.10546875,-611.328125,162.109375,0.0,0,0
1771940282.4076421,1771940282.3499286,-1000.0,-897.4609375,-791.015625,-1000.0,0.0,0,0
1771940282.4076521,1771940282.353825,-919.921875,-1000.0,11.23046875,-892.578125,0.0,0,0
1771940282.4076622,1771940282.3577213,392.08984375,-228.02734375,822.75390625,430.6640625,0.0,0,0
1771940282.4076722,1771940282.3616176,-786.1328125,-881.8359375,609.86328125,-790.0390625,0.0,0,0
1771940282.407682,1771940282.365514,142.578125,666.015625,-569.3359375,145.5078125,0.0,0,0
1771940282.407692,1771940282.3694103,-1000.0,-725.09765625,-862.79296875,-1000.0,0.0,0,0
1771940282.407702,1771940282.3733065,-1000.0,-1000.0,-157.71484375,-1000.0,0.0,0,0
1771940282.407711,1771940282.377203,81.0546875,-198.2421875,704.1015625,114.74609375,0.0,0,0
1771940282.4541929,1771940282.3812494,-768.06640625,-958.49609375,694.3359375,-764.6484375,0.0,0,0
1771940282.454216,1771940282.3851457,271.484375,924.8046875,-468.26171875,195.80078125,0.0,0,0
1771940282.45423,1771940282.3890421,-974.609375,-367.1875,-936.03515625,-1000.0,0.0,0,0
1771940282.4542432,1771940282.3929384,-1000.0,-1000.0,-285.64453125,-1000.0,0.0,0,0
1771940282.454257,1771940282.3968349,-121.09375,-174.31640625,618.1640625,-102.5390625,0.0,0,0
1771940282.454271,1771940282.400731,-812.5,-996.09375,747.0703125,-797.8515625,0.0,0,0
1771940282.4542851,1771940282.4046276,463.8671875,-966.30859375,-297.8515625,361.81640625,0.0,0,0
1771940282.454299,1771940282.4085238,-885.7421875,-94.23828125,-966.30859375,-936.03515625,0.0,0,0
1771940282.4543118,1771940282.4124203,-1000.0,-1000.0,-443.359375,-1000.0,0.0,0,0
1771940282.454325,1771940282.4163165,-229.4921875,-366.2109375,537.109375,-245.1171875,0.0,0,0
1771940282.454338,1771940282.4202127,-901.85546875,914.0625,762.20703125,-870.1171875,0.0,0,0
1771940282.454352,1771940282.4241092,728.515625,-901.3671875,-123.046875,600.09765625,0.0,0,0
1771940282.499106,1771940282.428144,-646.97265625,108.3984375,-932.12890625,-785.15625,0.0,0,0
1771940282.4991271,1771940282.4320402,-1000.0,-1000.0,-599.609375,-1000.0,0.0,0,0
1771940282.4991412,1771940282.4359367,-191.40625,-564.94140625,527.83203125,-209.47265625,0.0,0,0
1771940282.499156,1771940282.4398332,-970.703125,814.94140625,823.73046875,-937.98828125,0.0,0,0
1771940282.4991732,1771940282.4437294,958.49609375,-857.421875,61.03515625,855.95703125,0.0,0,0
1771940282.499189,1771940282.4476259,-293.9453125,185.546875,-809.08203125,-464.35546875,0.0,0,0
1771940282.499205,1771940282.451522,-1000.0,-1000.0,-705.56640625,-1000.0,0.0,0,0
1771940282.499218,1771940282.4554186,-218.75,-835.44921875,451.171875,-188.4765625,0.0,0,0
1771940282.499233,1771940282.4593148,985.83984375,520.5078125,903.80859375,-983.3984375,0.0,0,0
1771940282.499249,1771940282.4632113,-954.1015625,-801.7578125,203.61328125,989.2578125,0.0,0,0
1771940282.499271,1771940282.4671075,-55.6640625,149.4140625,-728.515625,-189.453125,0.0,0,0
1771940282.499286,1771940282.471004,-1000.0,-1000.0,-756.34765625,-1000.0,0.0,0,0
1771940282.544221,1771940282.4750297,-409.66796875,-1000.0,324.21875,-371.58203125,0.0,0,0
1771940282.5442681,1771940282.4789262,893.06640625,161.62109375,941.40625,916.9921875,0.0,0,0
1771940282.5442848,1771940282.4828227,-893.06640625,-763.18359375,343.26171875,-912.59765625,0.0,0,0
1771940282.5443819,1771940282.486719,130.37109375,237.79296875,-654.296875,36.62109375,0.0,0,0
1771940282.544399,1771940282.4906154,-1000.0,-995.60546875,-778.80859375,-1000.0,0.0,0,0
1771940282.544414,1771940282.4945116,-629.39453125,-1000.0,180.17578125,-558.59375,0.0,0,0
1771940282.544429,1771940282.498408,750.9765625,-33.69140625,930.6640625,812.5,0.0,0,0
1771940282.5444438,1771940282.5023046,-845.21484375,-789.55078125,488.76953125,-859.375,0.0,0,0
1771940282.544459,1771940282.5062008,175.78125,411.1328125,-591.30859375,149.90234375,0.0,0,0
1771940282.5444741,1771940282.5100973,-1000.0,-907.2265625,-810.05859375,-1000.0,0.0,0,0
1771940282.544489,1771940282.5139937,-889.16015625,-1000.0,-1.953125,-840.33203125,0.0,0,0
1771940282.5445042,1771940282.51789,439.453125,-223.14453125,838.8671875,505.37109375,0.0,0,0
1771940282.5895061,1771940282.5219061,-791.9921875,-884.27734375,616.69921875,-798.828125,0.0,0,0
1771940282.589591,1771940282.5258026,145.01953125,685.05859375,-557.12890625,147.94921875,0.0,0,0
1771940282.5896142,1771940282.529699,-1000.0,-703.125,-887.6953125,-1000.0,0.0,0,0
1771940282.5896351,1771940282.5335953,-1000.0,-1000.0,-177.734375,-1000.0,0.0,0,0
1771940282.589654,1771940282.5374918,112.3046875,-201.171875,716.796875,150.87890625,0.0,0,0
1771940282.589674,1771940282.5413883,-765.625,-948.2421875,696.77734375,-763.18359375,0.0,0,0
1771940282.589694,1771940282.5452845,243.65234375,893.06640625,-459.9609375,180.6640625,0.0,0,0
1771940282.589715,1771940282.549181,-988.76953125,-416.015625,-935.05859375,-1000.0,0.0,0,0
1771940282.589735,1771940282.5530775,-1000.0,-1000.0,-298.828125,-1000.0,0.0,0,0
1771940282.5897532,1771940282.556974,-81.0546875,-174.31640625,624.51171875,-57.6171875,0.0,0,0
1771940282.589773,1771940282.5608702,-801.7578125,-997.0703125,750.0,-788.57421875,0.0,0,0
1771940282.589793,1771940282.5647666,444.3359375,-965.8203125,-311.03515625,354.98046875,0.0,0,0
1771940282.635884,1771940282.5687752,-891.6015625,-97.16796875,-974.609375,-933.59375,0.0,0,0
1771940282.635941,1771940282.5726717,-1000.0,-1000.0,-459.47265625,-1000.0,0.0,0,0
1771940282.63599,1771940282.5765681,-233.3984375,-344.23828125,531.25,-242.67578125,0.0,0,0
1771940282.636022,1771940282.5804644,-893.06640625,923.33984375,770.01953125,-867.1875,0.0,0,0
1771940282.6360462,1771940282.5843608,697.75390625,-904.78515625,-135.7421875,587.890625,0.0,0,0
1771940282.6360698,1771940282.5882573,-686.5234375,111.81640625,-937.01171875,-794.921875,0.0,0,0
1771940282.6360939,1771940282.5921538,-1000.0,-1000.0,-588.37890625,-1000.0,0.0,0,0
1771940282.636116,1771940282.59605,-198.2421875,-551.26953125,509.27734375,-213.8671875,0.0,0,0
1771940282.636141,1771940282.5999465,-957.03125,823.73046875,816.40625,-928.22265625,0.0,0,0
1771940282.6361651,1771940282.603843,917.48046875,-860.83984375,30.76171875,820.3125,0.0,0,0
1771940282.6362398,1771940282.6077394,-370.60546875,188.96484375,-846.19140625,-513.18359375,0.0,0,0
1771940282.636273,1771940282.611636,-1000.0,-1000.0,-668.45703125,-1000.0,0.0,0,0
1771940282.709644,1771940282.6157196,-193.84765625,-808.10546875,499.51171875,-187.98828125,0.0,0,0
1771940282.709717,1771940282.619616,998.046875,556.640625,887.20703125,-970.703125,0.0,0,0
1771940282.709756,1771940282.6235123,-969.23828125,-809.5703125,173.828125,955.078125,0.0,0,0
1771940282.709794,1771940282.6274087,-100.5859375,158.69140625,-749.0234375,-254.8828125,0.0,0,0
1771940282.709831,1771940282.6313052,-1000.0,-1000.0,-745.60546875,-1000.0,0.0,0,0
1771940282.70993,1771940282.6352017,-378.41796875,-982.91015625,356.4453125,-355.46875,0.0,0,0
1771940282.7099898,1771940282.6390982,907.2265625,276.3671875,924.31640625,919.921875,0.0,0,0
1771940282.710031,1771940282.6429946,-899.90234375,-771.484375,319.82421875,-914.0625,0.0,0,0
1771940282.7100701,1771940282.646891,108.88671875,198.73046875,-645.01953125,41.9921875,0.0,0,0
1771940282.710109,1771940282.6507876,-1000.0,-1000.0,-782.71484375,-1000.0,0.0,0,0
1771940282.710142,1771940282.654684,-581.54296875,-1000.0,196.77734375,-554.6875,0.0,0,0
1771940282.7101781,1771940282.6585805,797.8515625,-21.97265625,945.80078125,818.359375,0.0,0,0
1771940282.73999,1771940282.6625824,-854.98046875,-785.15625,466.30859375,-862.79296875,0.0,0,0
1771940282.740056,1771940282.6664789,177.734375,388.671875,-605.46875,134.27734375,0.0,0,0
1771940282.7400808,1771940282.6703753,-1000.0,-920.8984375,-809.08203125,-1000.0,0.0,0,0
1771940282.7401018,1771940282.6742718,-850.09765625,-1000.0,21.484375,-824.21875,0.0,0,0
1771940282.7401228,1771940282.6781683,498.046875,-198.2421875,862.79296875,522.4609375,0.0,0,0
1771940282.740144,1771940282.6820648,-799.8046875,-858.3984375,587.40234375,-801.7578125,0.0,0,0
1771940282.7401652,1771940282.6859612,147.94921875,606.93359375,-575.68359375,147.4609375,0.0,0,0
1771940282.740185,1771940282.6898577,-1000.0,-780.76171875,-870.60546875,-1000.0,0.0,0,0
1771940282.740205,1771940282.6937542,-1000.0,-1000.0,-150.87890625,-1000.0,0.0,0,0
1771940282.740224,1771940282.6976507,155.76171875,-207.03125,736.81640625,174.31640625,0.0,0,0
1771940282.740245,1771940282.7015471,-764.16015625,-942.3828125,686.03515625,-765.13671875,0.0,0,0
1771940282.740265,1771940282.7054436,213.37890625,872.0703125,-475.5859375,168.9453125,0.0,0,0
1771940282.7846022,1771940282.7095015,-1000.0,-448.2421875,-937.98828125,-1000.0,0.0,0,0
1771940282.784647,1771940282.713398,-1000.0,-1000.0,-292.48046875,-1000.0,0.0,0,0
1771940282.784665,1771940282.7172945,-49.8046875,-175.29296875,647.4609375,-42.48046875,0.0,0,0
1771940282.784683,1771940282.721191,-791.9921875,-996.58203125,728.02734375,-785.15625,0.0,0,0
1771940282.7847009,1771940282.7250874,411.62109375,-966.796875,-357.421875,338.37890625,0.0,0,0
1771940282.784718,1771940282.7289839,-907.2265625,-106.4453125,-972.16796875,-940.91796875,0.0,0,0
1771940282.784736,1771940282.7328804,-1000.0,-1000.0,-461.9140625,-1000.0,0.0,0,0
1771940282.7847521,1771940282.7367768,-230.95703125,-325.1953125,517.578125,-232.91015625,0.0,0,0
1771940282.784771,1771940282.7406735,-876.46484375,939.453125,770.5078125,-851.07421875,0.0,0,0
1771940282.784789,1771940282.74457,639.16015625,-916.50390625,-174.31640625,517.08984375,0.0,0,0
1771940282.784807,1771940282.7484665,-750.9765625,49.8046875,-960.9375,-854.98046875,0.0,0,0
1771940282.7848241,1771940282.752363,-1000.0,-1000.0,-541.015625,-1000.0,0.0,0,0
1771940282.828945,1771940282.75641,-204.58984375,-501.46484375,535.64453125,-223.14453125,0.0,0,0
1771940282.8289878,1771940282.7603064,-947.265625,845.703125,812.01171875,-912.109375,0.0,0,0
1771940282.829014,1771940282.764203,885.25390625,-869.140625,6.34765625,760.7421875,0.0,0,0
1771940282.829039,1771940282.7680995,-425.78125,199.21875,-870.1171875,-591.796875,0.0,0,0
1771940282.8290648,1771940282.771996,-1000.0,-1000.0,-658.203125,-1000.0,0.0,0,0
1771940282.829087,1771940282.7758925,-176.26953125,-731.93359375,507.32421875,-189.453125,0.0,0,0
1771940282.82911,1771940282.779789,-995.1171875,655.76171875,873.046875,-972.65625,0.0,0,0
1771940282.829134,1771940282.7836854,-973.6328125,-823.2421875,149.4140625,958.49609375,0.0,0,0
1771940282.82916,1771940282.7875822,-113.28125,157.71484375,-756.34765625,-255.859375,0.0,0,0
1771940282.829184,1771940282.7914786,-1000.0,-1000.0,-730.46875,-1000.0,0.0,0,0
1771940282.829205,1771940282.795375,-352.05078125,-1000.0,381.34765625,-342.7734375,0.0,0,0
1771940282.829228,1771940282.7992716,922.8515625,239.2578125,928.22265625,935.05859375,0.0,0,0
1771940282.875814,1771940282.8033102,-909.1796875,-770.5078125,328.61328125,-930.17578125,0.0,0,0
1771940282.875871,1771940282.8072066,79.58984375,170.41015625,-645.5078125,-22.4609375,0.0,0,0
1771940282.875896,1771940282.811103,-1000.0,-1000.0,-789.0625,-1000.0,0.0,0,0
1771940282.875917,1771940282.8149998,-544.921875,-1000.0,222.65625,-523.4375,0.0,0,0
1771940282.87594,1771940282.8188963,823.2421875,21.484375,953.61328125,832.03125,0.0,0,0
1771940282.875963,1771940282.8227928,-861.81640625,-775.87890625,425.78125,-869.140625,0.0,0,0
1771940282.875987,1771940282.8266892,180.6640625,348.6328125,-621.58203125,125.9765625,0.0,0,0
1771940282.876011,1771940282.830586,-1000.0,-938.4765625,-803.22265625,-1000.0,0.0,0,0
1771940282.8761191,1771940282.8344824,-814.94140625,-1000.0,41.9921875,-785.64453125,0.0,0,0
1771940282.876145,1771940282.838379,544.921875,-182.12890625,878.41796875,570.3125,0.0,0,0
1771940282.876168,1771940282.8422754,-806.640625,-837.890625,566.40625,-810.05859375,0.0,0,0
1771940282.876191,1771940282.846172,151.85546875,545.41015625,-581.54296875,150.87890625,0.0,0,0
1771940282.921047,1771940282.850199,-1000.0,-842.7734375,-863.28125,-1000.0,0.0,0,0
1771940282.921122,1771940282.8540955,-1000.0,-1000.0,-146.97265625,-1000.0,0.0,0,0
1771940282.921164,1771940282.857992,195.3125,-210.9375,746.58203125,232.91015625,0.0,0,0
1771940282.921203,1771940282.8618886,-767.08984375,-939.94140625,673.828125,-770.01953125,0.0,0,0
1771940282.921242,1771940282.8657851,199.21875,861.81640625,-498.046875,151.85546875,0.0,0,0
1771940282.921279,1771940282.8696816,-1000.0,-464.35546875,-930.6640625,-1000.0,0.0,0,0
1771940282.921314,1771940282.8735783,-1000.0,-1000.0,-288.57421875,-1000.0,0.0,0,0
1771940282.9213471,1771940282.8774748,-27.83203125,-180.17578125,645.99609375,-5.859375,0.0,0,0
1771940282.9213839,1771940282.8813713,-786.62109375,-986.81640625,729.98046875,-777.34375,0.0,0,0
1771940282.92142,1771940282.885268,382.8125,-983.3984375,-367.1875,280.2734375,0.0,0,0
1771940282.921456,1771940282.8891644,-922.36328125,-178.22265625,-968.75,-969.7265625,0.0,0,0
1771940282.9214919,1771940282.8930612,-1000.0,-1000.0,-408.69140625,-1000.0,0.0,0,0
1771940283.011982,1771940282.8973272,-209.9609375,-276.85546875,564.453125,-197.75390625,0.0,0,0
1771940283.012254,1771940282.901224,-862.3046875,957.51953125,766.6015625,-830.56640625,0.0,0,0
1771940283.012334,1771940282.9051204,604.98046875,-926.7578125,-196.2890625,476.5625,0.0,0,0
1771940283.012396,1771940282.909017,-781.73828125,22.4609375,-974.609375,-888.18359375,0.0,0,0
1771940283.012459,1771940282.9129136,-1000.0,-1000.0,-539.0625,-1000.0,0.0,0,0
1771940283.0125,1771940282.9168103,-208.984375,-458.984375,545.41015625,-229.00390625,0.0,0,0
1771940283.012629,1771940282.920707,-938.96484375,867.67578125,795.8984375,-899.4140625,0.0,0,0
1771940283.012705,1771940282.9246035,856.4453125,-876.953125,-25.390625,714.35546875,0.0,0,0
1771940283.012753,1771940282.9285002,-469.23828125,203.61328125,-876.46484375,-654.78515625,0.0,0,0
1771940283.0128021,1771940282.9323967,-1000.0,-1000.0,-659.66796875,-1000.0,0.0,0,0
1771940283.012844,1771940282.9362934,-177.734375,-719.7265625,498.046875,-190.91796875,0.0,0,0
1771940283.012887,1771940282.9401898,-993.1640625,671.875,862.79296875,-972.65625,0.0,0,0
1771940283.01397,1771940282.9442198,-977.5390625,-828.61328125,147.4609375,961.9140625,0.0,0,0
1771940283.0140438,1771940282.9481165,-134.765625,167.48046875,-751.953125,-270.5078125,0.0,0,0
1771940283.0141451,1771940282.9520133,-1000.0,-1000.0,-734.375,-1000.0,0.0,0,0
1771940283.0141928,1771940282.9559097,-322.75390625,-937.98828125,391.6015625,-291.50390625,0.0,0,0
1771940283.0142279,1771940282.9598064,937.01171875,364.74609375,924.8046875,959.9609375,0.0,0,0
1771940283.0142632,1771940282.9637032,-916.9921875,-780.76171875,287.59765625,-944.82421875,0.0,0,0
1771940283.0142999,1771940282.9675996,56.15234375,140.13671875,-678.22265625,-49.8046875,0.0,0,0
1771940283.014335,1771940282.9714963,-1000.0,-1000.0,-781.73828125,-1000.0,0.0,0,0
1771940283.014443,1771940282.975393,-516.11328125,-1000.0,244.140625,-479.98046875,0.0,0,0
1771940283.0144808,1771940282.9792895,838.37890625,41.015625,946.77734375,857.91015625,0.0,0,0
1771940283.014536,1771940282.9831862,-867.67578125,-770.99609375,404.296875,-880.859375,0.0,0,0
1771940283.0145721,1771940282.987083,183.59375,325.68359375,-620.60546875,119.140625,0.0,0,0
1771940283.071027,1771940282.9910796,-1000.0,-954.1015625,-800.29296875,-1000.0,0.0,0,0
1771940283.071197,1771940282.9949763,-770.01953125,-1000.0,75.68359375,-698.73046875,0.0,0,0
1771940283.071264,1771940282.998873,602.5390625,-128.41796875,906.25,678.22265625,0.0,0,0
1771940283.0713248,1771940283.0027695,-816.40625,-821.2890625,545.8984375,-828.61328125,0.0,0,0
1771940283.071386,1771940283.0066662,157.2265625,519.04296875,-595.21484375,154.78515625,0.0,0,0
1771940283.0714471,1771940283.010563,-1000.0,-853.515625,-844.7265625,-1000.0,0.0,0,0
1771940283.071506,1771940283.0144596,-998.046875,-1000.0,-113.76953125,-960.9375,0.0,0,0
1771940283.071563,1771940283.018356,252.44140625,-219.7265625,765.625,324.21875,0.0,0,0
1771940283.07162,1771940283.0222528,-771.97265625,-918.45703125,659.1796875,-776.85546875,0.0,0,0
1771940283.0716789,1771940283.0261495,172.36328125,791.50390625,-526.3671875,140.625,0.0,0,0
1771940283.071739,1771940283.030046,-1000.0,-567.87109375,-925.29296875,-1000.0,0.0,0,0
1771940283.0718222,1771940283.0339427,-1000.0,-1000.0,-244.62890625,-1000.0,0.0,0,0
1771940283.116369,1771940283.0379303,3.90625,-182.6171875,676.7578125,44.921875,0.0,0,0
1771940283.116519,1771940283.0418267,-779.78515625,-985.83984375,723.6328125,-770.01953125,0.0,0,0
1771940283.116569,1771940283.0457234,355.46875,-992.67578125,-386.23046875,271.97265625,0.0,0,0
1771940283.1166139,1771940283.0496202,-936.03515625,-202.63671875,-972.16796875,-972.65625,0.0,0,0
1771940283.116658,1771940283.0535169,-1000.0,-1000.0,-388.671875,-1000.0,0.0,0,0
1771940283.116698,1771940283.0574136,-181.15234375,-230.95703125,585.44921875,-151.3671875,0.0,0,0
1771940283.116742,1771940283.06131,-843.26171875,978.02734375,756.8359375,-816.89453125,0.0,0,0
1771940283.116798,1771940283.0652068,556.15234375,-940.4296875,-230.46875,438.4765625,0.0,0,0
1771940283.116843,1771940283.0691035,-824.21875,-5.859375,-980.95703125,-900.390625,0.0,0,0
1771940283.1168902,1771940283.0730002,-1000.0,-1000.0,-515.13671875,-1000.0,0.0,0,0
1771940283.116928,1771940283.0768967,-215.33203125,-444.3359375,543.9453125,-232.421875,0.0,0,0
1771940283.116988,1771940283.0807934,-927.24609375,873.53515625,793.45703125,-895.5078125,0.0,0,0
1771940283.1597319,1771940283.0848498,816.89453125,-880.37109375,-45.8984375,702.1484375,0.0,0,0
1771940283.159845,1771940283.0887465,-527.34375,187.01171875,-896.97265625,-669.921875,0.0,0,0
1771940283.159898,1771940283.092643,-1000.0,-1000.0,-658.203125,-1000.0,0.0,0,0
1771940283.159942,1771940283.0965397,-182.6171875,-689.453125,489.2578125,-198.73046875,0.0,0,0
1771940283.1599958,1771940283.1004364,-984.86328125,700.1953125,863.76953125,-953.125,0.0,0,0
1771940283.1600409,1771940283.1043332,999.51171875,-833.49609375,131.34765625,899.90234375,0.0,0,0
1771940283.160085,1771940283.1082299,-196.2890625,168.45703125,-778.80859375,-371.58203125,0.0,0,0
1771940283.160128,1771940283.1121266,-1000.0,-1000.0,-718.26171875,-1000.0,0.0,0,0
1771940283.160179,1771940283.1160233,-295.41015625,-937.5,417.96875,-273.4375,0.0,0,0
1771940283.160222,1771940283.11992,948.73046875,365.72265625,917.96875,966.796875,0.0,0,0
1771940283.160276,1771940283.1238165,-924.8046875,-781.73828125,250.0,-951.66015625,0.0,0,0
1771940283.160332,1771940283.1277132,27.83203125,141.6015625,-707.03125,-62.01171875,0.0,0,0
1771940283.204746,1771940283.1317549,-1000.0,-1000.0,-771.97265625,-1000.0,0.0,0,0
1771940283.2048728,1771940283.1356516,-482.91015625,-1000.0,264.16015625,-464.35546875,0.0,0,0
1771940283.204941,1771940283.1395483,855.46875,60.546875,949.70703125,868.65234375,0.0,0,0
1771940283.205004,1771940283.143445,-874.51171875,-769.04296875,419.43359375,-886.23046875,0.0,0,0
1771940283.2050638,1771940283.1473417,182.6171875,312.01171875,-610.83984375,104.00390625,0.0,0,0
1771940283.2051258,1771940283.1512384,-1000.0,-956.54296875,-794.43359375,-1000.0,0.0,0,0
1771940283.205185,1771940283.1551352,-742.1875,-1000.0,100.09765625,-707.51953125,0.0,0,0
1771940283.20525,1771940283.1590319,637.6953125,-141.6015625,906.73828125,665.52734375,0.0,0,0
1771940283.2053142,1771940283.1629286,-823.2421875,-821.77734375,541.015625,-826.66015625,0.0,0,0
1771940283.2053812,1771940283.166825,161.62109375,507.8125,-583.984375,153.80859375,0.0,0,0
1771940283.205457,1771940283.1707218,-1000.0,-862.79296875,-841.796875,-1000.0,0.0,0,0
1771940283.205515,1771940283.1746185,-972.16796875,-1000.0,-98.14453125,-955.56640625,0.0,0,0
1771940283.295825,1771940283.178893,305.17578125,-223.6328125,784.1796875,333.984375,0.0,0,0
1771940283.295944,1771940283.1827898,-776.3671875,-909.1796875,645.5078125,-777.83203125,0.0,0,0
1771940283.295993,1771940283.1866865,145.99609375,757.32421875,-552.24609375,141.11328125,0.0,0,0
1771940283.296041,1771940283.1905835,-1000.0,-612.3046875,-913.57421875,-1000.0,0.0,0,0
1771940283.296087,1771940283.1944802,-1000.0,-1000.0,-203.125,-1000.0,0.0,0,0
1771940283.296128,1771940283.198377,34.1796875,-187.5,699.70703125,55.6640625,0.0,0,0
1771940283.29617,1771940283.2022736,-772.94921875,-976.5625,708.0078125,-769.53125,0.0,0,0
1771940283.296216,1771940283.2061703,313.96484375,979.00390625,-413.0859375,242.67578125,0.0,0,0
1771940283.29626,1771940283.2100673,-955.56640625,-254.8828125,-954.58984375,-983.88671875,0.0,0,0
1771940283.296305,1771940283.213964,-1000.0,-1000.0,-360.3515625,-1000.0,0.0,0,0
1771940283.296344,1771940283.2178607,-156.73828125,-240.234375,594.23828125,-147.4609375,0.0,0,0
1771940283.296387,1771940283.2217574,-826.66015625,976.5625,754.39453125,-813.96484375,0.0,0,0
1771940283.298583,1771940283.2257981,514.16015625,-942.87109375,-260.25390625,438.96484375,0.0,0,0
1771940283.2987058,1771940283.2296948,-859.86328125,-37.109375,-992.1875,-900.87890625,0.0,0,0
1771940283.29876,1771940283.2335916,-1000.0,-1000.0,-524.4140625,-1000.0,0.0,0,0
1771940283.2988029,1771940283.2374883,-220.703125,-400.390625,531.25,-232.91015625,0.0,0,0
1771940283.298848,1771940283.2413852,-918.45703125,894.53125,790.0390625,-894.53125,0.0,0,0
1771940283.2988942,1771940283.245282,787.59765625,-889.16015625,-56.15234375,698.73046875,0.0,0,0
1771940283.298938,1771940283.2491786,-571.77734375,176.26953125,-907.71484375,-674.8046875,0.0,0,0
1771940283.2989829,1771940283.2530756,-1000.0,-1000.0,-640.625,-1000.0,0.0,0,0
1771940283.2990222,1771940283.2569723,-184.5703125,-665.52734375,502.44140625,-199.70703125,0.0,0,0
1771940283.299066,1771940283.260869,-981.93359375,722.65625,854.98046875,-952.1484375,0.0,0,0
1771940283.299108,1771940283.264766,991.2109375,-838.8671875,122.55859375,895.99609375,0.0,0,0
1771940283.299169,1771940283.2686627,-225.09765625,174.31640625,-790.0390625,-380.37109375,0.0,0,0
1771940283.341373,1771940283.2726774,-1000.0,-1000.0,-714.35546875,-1000.0,0.0,0,0
1771940283.341565,1771940283.2765741,-263.18359375,-895.01953125,433.10546875,-259.27734375,0.0,0,0
1771940283.341635,1771940283.2804708,964.35546875,431.15234375,916.50390625,976.5625,0.0,0,0
1771940283.341672,1771940283.2843678,-935.05859375,-789.55078125,265.13671875,-962.40234375,0.0,0,0
1771940283.341707,1771940283.2882645,-2.44140625,143.06640625,-695.3125,-89.84375,0.0,0,0
1771940283.341741,1771940283.2921612,-1000.0,-1000.0,-766.6015625,-1000.0,0.0,0,0
1771940283.341773,1771940283.2960582,-456.0546875,-1000.0,286.1328125,-448.73046875,0.0,0,0
1771940283.3418062,1771940283.299955,868.65234375,82.51953125,947.265625,876.953125,0.0,0,0
1771940283.3418398,1771940283.3038516,-880.37109375,-767.08984375,407.2265625,-891.11328125,0.0,0,0
1771940283.341876,1771940283.3077486,175.29296875,279.78515625,-608.3984375,83.984375,0.0,0,0
1771940283.341909,1771940283.3116453,-1000.0,-975.09765625,-789.0625,-1000.0,0.0,0,0
1771940283.341943,1771940283.3155422,-702.63671875,-1000.0,129.39453125,-673.828125,0.0,0,0
1771940283.386299,1771940283.3195512,683.59375,-93.26171875,922.8515625,698.73046875,0.0,0,0
1771940283.386451,1771940283.323448,-831.0546875,-806.640625,523.92578125,-834.47265625,0.0,0,0
1771940283.386513,1771940283.327345,166.9921875,465.33203125,-585.9375,148.4375,0.0,0,0
1771940283.386573,1771940283.3312416,-1000.0,-881.8359375,-827.63671875,-1000.0,0.0,0,0
1771940283.386631,1771940283.3351386,-940.4296875,-1000.0,-59.08203125,-921.875,0.0,0,0
1771940283.386691,1771940283.3390353,359.86328125,-228.02734375,808.10546875,383.30078125,0.0,0,0
1771940283.3867688,1771940283.3429322,-781.73828125,-903.80859375,625.0,-783.69140625,0.0,0,0
1771940283.386848,1771940283.346829,141.11328125,741.2109375,-560.546875,142.578125,0.0,0,0
1771940283.386923,1771940283.350726,-1000.0,-633.30078125,-904.296875,-1000.0,0.0,0,0
1771940283.386988,1771940283.3546226,-1000.0,-1000.0,-217.28515625,-1000.0,0.0,0,0
1771940283.3870442,1771940283.3585193,59.08203125,-190.91796875,692.3828125,78.61328125,0.0,0,0
1771940283.38711,1771940283.3624163,-770.01953125,-969.23828125,709.9609375,-767.578125,0.0,0,0
1771940283.430759,1771940283.3664107,307.6171875,958.0078125,-428.22265625,243.65234375,0.0,0,0
1771940283.4308789,1771940283.3703077,-959.9609375,-299.8046875,-958.0078125,-985.83984375,0.0,0,0
1771940283.430917,1771940283.3742044,-1000.0,-1000.0,-352.5390625,-1000.0,0.0,0,0
1771940283.43095,1771940283.3781013,-132.32421875,-201.66015625,605.46875,-119.140625,0.0,0,0
1771940283.430984,1771940283.381998,-819.3359375,985.83984375,756.34765625,-805.6640625,0.0,0,0
1771940283.431021,1771940283.385895,494.140625,-946.2890625,-273.92578125,400.87890625,0.0,0,0
1771940283.431062,1771940283.3897917,-869.140625,-21.484375,-992.67578125,-917.96875,0.0,0,0
1771940283.4311192,1771940283.3936887,-1000.0,-1000.0,-500.48828125,-1000.0,0.0,0,0
1771940283.4311512,1771940283.3975854,-225.5859375,-399.90234375,539.0625,-241.2109375,0.0,0,0
1771940283.4311838,1771940283.4014823,-907.71484375,901.85546875,781.73828125,-875.48828125,0.0,0,0
1771940283.431218,1771940283.405379,748.046875,-894.53125,-99.12109375,621.58203125,0.0,0,0
1771940283.4312499,1771940283.409276,-621.58203125,131.8359375,-927.24609375,-763.18359375,0.0,0,0
1771940283.489568,1771940283.41326,-1000.0,-1000.0,-620.60546875,-1000.0,0.0,0,0
1771940283.489675,1771940283.417157,-188.96484375,-579.1015625,511.71875,-208.0078125,0.0,0,0
1771940283.489707,1771940283.4210536,-975.09765625,805.17578125,829.1015625,-938.4765625,0.0,0,0
1771940283.489737,1771940283.4249506,970.703125,-855.46875,72.75390625,854.00390625,0.0,0,0
1771940283.4897652,1771940283.4288473,-266.6015625,181.640625,-806.15234375,-457.03125,0.0,0,0
1771940283.489794,1771940283.4327443,-1000.0,-1000.0,-702.1484375,-1000.0,0.0,0,0
1771940283.48982,1771940283.436641,-242.67578125,-863.76953125,444.82421875,-229.00390625,0.0,0,0
1771940283.4898481,1771940283.440538,973.6328125,479.00390625,909.66796875,999.51171875,0.0,0,0
1771940283.489876,1771940283.4444346,-943.84765625,-795.8984375,245.1171875,-996.58203125,0.0,0,0
1771940283.4899042,1771940283.4483316,-28.80859375,146.97265625,-711.42578125,-173.828125,0.0,0,0
1771940283.489932,1771940283.4522285,-1000.0,-1000.0,-763.671875,-1000.0,0.0,0,0
1771940283.489957,1771940283.4561253,-435.05859375,-1000.0,311.03515625,-412.109375,0.0,0,0
1771940283.59428,1771940283.4601774,879.39453125,130.859375,938.96484375,895.01953125,0.0,0,0
1771940283.5944371,1771940283.4640744,-885.7421875,-763.18359375,371.58203125,-902.83203125,0.0,0,0
1771940283.594477,1771940283.4679713,153.80859375,238.76953125,-626.953125,41.50390625,0.0,0,0
1771940283.594514,1771940283.471868,-1000.0,-995.1171875,-782.71484375,-1000.0,0.0,0,0
1771940283.5945559,1771940283.475765,-661.62109375,-1000.0,169.43359375,-611.81640625,0.0,0,0
1771940283.594592,1771940283.479662,722.16796875,-47.36328125,930.6640625,757.32421875,0.0,0,0
1771940283.594626,1771940283.4835587,-839.35546875,-792.48046875,496.58203125,-847.65625,0.0,0,0
1771940283.59466,1771940283.4874556,172.36328125,427.24609375,-586.9140625,145.99609375,0.0,0,0
1771940283.5946932,1771940283.4913526,-1000.0,-898.4375,-819.82421875,-1000.0,0.0,0,0
1771940283.5947251,1771940283.4952493,-911.62109375,-1000.0,-21.97265625,-874.0234375,0.0,0,0
1771940283.594757,1771940283.4991462,405.2734375,-235.3515625,835.9375,453.61328125,0.0,0,0
1771940283.59479,1771940283.5030432,-787.59765625,-888.671875,616.69921875,-792.48046875,0.0,0,0
1771940283.5958579,1771940283.5071707,143.06640625,687.5,-565.4296875,145.99609375,0.0,0,0
1771940283.5959191,1771940283.5110676,-1000.0,-704.1015625,-892.08984375,-1000.0,0.0,0,0
1771940283.595956,1771940283.5149646,-1000.0,-1000.0,-204.58984375,-1000.0,0.0,0,0
1771940283.59599,1771940283.5188615,86.42578125,-194.82421875,696.2890625,121.58203125,0.0,0,0
1771940283.596212,1771940283.5227585,-768.06640625,-965.33203125,697.265625,-764.6484375,0.0,0,0
1771940283.596249,1771940283.5266552,275.87890625,944.3359375,-445.3125,200.1953125,0.0,0,0
1771940283.596283,1771940283.5305521,-974.12109375,-330.56640625,-956.54296875,-1000.0,0.0,0,0
1771940283.5963168,1771940283.534449,-1000.0,-1000.0,-338.37890625,-1000.0,0.0,0,0
1771940283.5963478,1771940283.538346,-106.4453125,-174.31640625,622.55859375,-73.73046875,0.0,0,0
1771940283.596381,1771940283.542243,-809.5703125,-996.58203125,761.23046875,-792.96875,0.0,0,0
1771940283.596415,1771940283.5461397,463.8671875,-963.37890625,-287.109375,363.28125,0.0,0,0
1771940283.596448,1771940283.5500367,-883.7890625,-83.0078125,-986.328125,-931.640625,0.0,0,0
1771940283.6259258,1771940283.554075,-1000.0,-1000.0,-465.8203125,-1000.0,0.0,0,0
1771940283.626081,1771940283.5579717,-229.98046875,-366.69921875,542.48046875,-244.140625,0.0,0,0
1771940283.626119,1771940283.5618687,-900.390625,913.57421875,776.3671875,-871.58203125,0.0,0,0
1771940283.626154,1771940283.5657656,723.6328125,-900.390625,-103.02734375,608.3984375,0.0,0,0
1771940283.626189,1771940283.5696626,-653.80859375,118.1640625,-937.5,-777.83203125,0.0,0,0
1771940283.626223,1771940283.5735595,-1000.0,-1000.0,-588.37890625,-1000.0,0.0,0,0
1771940283.626254,1771940283.5774565,-193.359375,-565.91796875,533.203125,-211.9140625,0.0,0,0
1771940283.6262882,1771940283.5813534,-966.30859375,815.4296875,838.37890625,-929.6875,0.0,0,0
1771940283.6263208,1771940283.5852504,944.82421875,-857.421875,79.58984375,823.73046875,0.0,0,0
1771940283.626356,1771940283.589147,-317.87109375,185.546875,-821.2890625,-506.34765625,0.0,0,0
1771940283.62639,1771940283.593044,-1000.0,-1000.0,-694.82421875,-1000.0,0.0,0,0
1771940283.626421,1771940283.596941,-216.796875,-834.47265625,460.9375,-186.5234375,0.0,0,0
1771940283.670273,1771940283.6009643,984.375,521.97265625,903.80859375,-984.86328125,0.0,0,0
1771940283.670431,1771940283.6048613,-952.1484375,-802.24609375,220.703125,993.1640625,0.0,0,0
1771940283.6704798,1771940283.6087582,-54.19921875,150.87890625,-722.16796875,-181.15234375,0.0,0,0
1771940283.670526,1771940283.6126552,-1000.0,-1000.0,-751.46484375,-1000.0,0.0,0,0
1771940283.670568,1771940283.616552,-405.76171875,-1000.0,330.078125,-367.67578125,0.0,0,0
1771940283.670613,1771940283.620449,894.53125,180.17578125,937.01171875,918.45703125,0.0,0,0
1771940283.670657,1771940283.624346,-893.06640625,-764.16015625,336.42578125,-912.59765625,0.0,0,0
1771940283.670702,1771940283.628243,133.30078125,225.09765625,-650.87890625,42.48046875,0.0,0,0
1771940283.670746,1771940283.63214,-1000.0,-997.55859375,-784.66796875,-1000.0,0.0,0,0
1771940283.670788,1771940283.6360369,-612.3046875,-1000.0,178.7109375,-557.12890625,0.0,0,0
1771940283.67083,1771940283.6399338,770.01953125,-47.36328125,943.84765625,815.91796875,0.0,0,0
1771940283.670872,1771940283.6438308,-849.12109375,-791.50390625,467.7734375,-860.83984375,0.0,0,0
1771940283.71541,1771940283.6478398,174.8046875,417.96875,-610.83984375,142.578125,0.0,0,0
1771940283.715591,1771940283.6517367,-1000.0,-905.2734375,-809.5703125,-1000.0,0.0,0,0
1771940283.7156549,1771940283.6556337,-881.34765625,-1000.0,7.32421875,-838.8671875,0.0,0,0
1771940283.715766,1771940283.6595306,450.68359375,-221.19140625,849.12109375,505.37109375,0.0,0,0
1771940283.715843,1771940283.6634276,-792.96875,-881.34765625,613.76953125,-798.828125,0.0,0,0
1771940283.71589,1771940283.6673245,145.5078125,673.33984375,-557.6171875,148.92578125,0.0,0,0
1771940283.7159889,1771940283.6712215,-1000.0,-715.33203125,-888.18359375,-1000.0,0.0,0,0
1771940283.7160351,1771940283.6751184,-1000.0,-1000.0,-168.45703125,-1000.0,0.0,0,0
1771940283.716077,1771940283.6790154,119.140625,-201.66015625,722.65625,160.64453125,0.0,0,0
1771940283.7161222,1771940283.6829123,-765.13671875,-947.75390625,695.3125,-763.671875,0.0,0,0
1771940283.716206,1771940283.6868093,238.28125,891.6015625,-462.40234375,185.05859375,0.0,0,0
1771940283.716295,1771940283.6907063,-990.234375,-418.45703125,-935.546875,-1000.0,0.0,0,0
1771940283.760248,1771940283.6947088,-1000.0,-1000.0,-305.6640625,-1000.0,0.0,0,0
1771940283.76043,1771940283.6986058,-83.0078125,-173.828125,612.79296875,-56.15234375,0.0,0,0
1771940283.760484,1771940283.7025027,-800.78125,-998.046875,745.1171875,-788.0859375,0.0,0,0
1771940283.76053,1771940283.7063997,433.10546875,-963.8671875,-317.3828125,343.75,0.0,0,0
1771940283.760577,1771940283.7102969,-897.94921875,-89.35546875,-978.515625,-937.98828125,0.0,0,0
1771940283.760621,1771940283.7141938,-1000.0,-1000.0,-429.19921875,-1000.0,0.0,0,0
1771940283.760661,1771940283.7180908,-235.3515625,-347.65625,559.5703125,-247.0703125,0.0,0,0
1771940283.760704,1771940283.7219877,-888.671875,927.24609375,766.11328125,-866.2109375,0.0,0,0
1771940283.760747,1771940283.7258847,680.6640625,-909.1796875,-142.578125,583.0078125,0.0,0,0
1771940283.760792,1771940283.7297816,-706.0546875,77.63671875,-952.1484375,-801.26953125,0.0,0,0
1771940283.760834,1771940283.7336786,-1000.0,-1000.0,-579.58984375,-1000.0,0.0,0,0
1771940283.760874,1771940283.7375755,-200.1953125,-542.96875,530.2734375,-216.30859375,0.0,0,0
1771940283.804551,1771940283.7415676,-954.1015625,823.73046875,825.68359375,-921.875,0.0,0,0
1771940283.804714,1771940283.7454648,906.25,-861.328125,41.50390625,797.36328125,0.0,0,0
1771940283.804755,1771940283.7493618,-388.671875,192.87109375,-846.19140625,-544.921875,0.0,0,0
1771940283.804791,1771940283.7532587,-1000.0,-1000.0,-682.6171875,-1000.0,0.0,0,0
1771940283.804823,1771940283.7571557,-187.98828125,-767.08984375,488.76953125,-193.359375,0.0,0,0
1771940283.804857,1771940283.7610526,-996.58203125,610.3515625,887.6953125,-958.49609375,0.0,0,0
1771940283.8048909,1771940283.7649496,-977.05078125,-816.40625,151.3671875,916.50390625,0.0,0,0
1771940283.804925,1771940283.7688468,-115.72265625,155.2734375,-758.7890625,-323.2421875,0.0,0,0
1771940283.804967,1771940283.7727437,-1000.0,-1000.0,-743.1640625,-1000.0,0.0,0,0
1771940283.8049998,1771940283.7766407,-376.46484375,-1000.0,351.5625,-362.3046875,0.0,0,0
1771940283.805032,1771940283.7805376,910.64453125,222.65625,932.12890625,923.828125,0.0,0,0
1771940283.805067,1771940283.7844346,-903.3203125,-768.06640625,326.66015625,-927.734375,0.0,0,0
1771940283.895071,1771940283.78865,87.40234375,198.73046875,-658.69140625,-18.06640625,0.0,0,0
1771940283.895217,1771940283.7925472,-1000.0,-1000.0,-775.390625,-1000.0,0.0,0,0
1771940283.895251,1771940283.7964442,-575.68359375,-1000.0,216.30859375,-548.33984375,0.0,0,0
1771940283.8952909,1771940283.8003411,799.8046875,-19.04296875,952.63671875,815.4296875,0.0,0,0
1771940283.895326,1771940283.8042383,-855.46875,-786.62109375,474.609375,-862.3046875,0.0,0,0
1771940283.89536,1771940283.8081353,177.24609375,410.15625,-601.5625,132.32421875,0.0,0,0
1771940283.8953931,1771940283.8120322,-1000.0,-907.71484375,-802.734375,-1000.0,0.0,0,0
1771940283.895425,1771940283.8159294,-850.5859375,-1000.0,36.1328125,-827.63671875,0.0,0,0
1771940283.895469,1771940283.8198264,497.55859375,-208.49609375,862.3046875,517.08984375,0.0,0,0
1771940283.895515,1771940283.8237233,-799.31640625,-857.91015625,592.7734375,-800.78125,0.0,0,0
1771940283.8955479,1771940283.8276205,147.94921875,590.33203125,-563.96484375,150.390625,0.0,0,0
1771940283.895582,1771940283.8315175,-1000.0,-801.7578125,-871.58203125,-1000.0,0.0,0,0
1771940283.911188,1771940283.8355024,-1000.0,-1000.0,-148.4375,-1000.0,0.0,0,0
1771940283.911347,1771940283.8393993,154.296875,-208.0078125,739.74609375,177.734375,0.0,0,0
1771940283.911396,1771940283.8432965,-763.671875,-942.87109375,680.6640625,-765.625,0.0,0,0
1771940283.91144,1771940283.8471935,212.890625,871.58203125,-484.375,166.015625,0.0,0,0
1771940283.911484,1771940283.8510907,-1000.0,-449.21875,-927.24609375,-1000.0,0.0,0,0
1771940283.911525,1771940283.8549876,-1000.0,-1000.0,-264.16015625,-1000.0,0.0,0,0
1771940283.911575,1771940283.8588846,-48.33984375,-176.7578125,651.3671875,-39.55078125,0.0,0,0
1771940283.9116192,1771940283.8627818,-791.50390625,-993.65234375,740.72265625,-784.66796875,0.0,0,0
1771940283.911825,1771940283.8666787,412.59765625,-971.19140625,-334.9609375,338.37890625,0.0,0,0
1771940283.911872,1771940283.870576,-907.2265625,-126.953125,-975.09765625,-941.89453125,0.0,0,0
1771940283.911915,1771940283.8744729,-1000.0,-1000.0,-420.8984375,-1000.0,0.0,0,0
1771940283.911958,1771940283.8783698,-225.5859375,-306.15234375,560.546875,-224.12109375,0.0,0,0
1771940283.9551842,1771940283.8824067,-877.9296875,943.84765625,765.625,-854.4921875,0.0,0,0
1771940283.9553611,1771940283.886304,650.87890625,-916.9921875,-168.9453125,548.828125,0.0,0,0
1771940283.9554088,1771940283.8902009,-738.76953125,65.4296875,-962.40234375,-826.66015625,0.0,0,0
1771940283.955453,1771940283.894098,-1000.0,-1000.0,-546.875,-1000.0,0.0,0,0
1771940283.955494,1771940283.897995,-204.58984375,-504.8828125,542.96875,-223.14453125,0.0,0,0
1771940283.955551,1771940283.9018922,-945.3125,845.703125,814.94140625,-905.76171875,0.0,0,0
1771940283.955612,1771940283.9057891,878.90625,-868.65234375,6.8359375,736.81640625,0.0,0,0
1771940283.955673,1771940283.9096863,-435.05859375,195.80078125,-872.55859375,-623.53515625,0.0,0,0
1771940283.955738,1771940283.9135833,-1000.0,-1000.0,-646.484375,-1000.0,0.0,0,0
1771940283.955796,1771940283.9174805,-175.29296875,-765.625,515.625,-185.546875,0.0,0,0
1771940283.955859,1771940283.9213774,-997.55859375,611.328125,878.41796875,-983.3984375,0.0,0,0
1771940283.955901,1771940283.9252746,-967.7734375,-817.3828125,182.12890625,989.74609375,0.0,0,0
1771940284.000531,1771940283.9293017,-101.5625,158.69140625,-740.72265625,-200.1953125,0.0,0,0
1771940284.0006888,1771940283.9331987,-1000.0,-1000.0,-732.421875,-1000.0,0.0,0,0
1771940284.0007339,1771940283.9370959,-351.07421875,-990.234375,380.859375,-338.8671875,0.0,0,0
1771940284.000779,1771940283.9409928,922.36328125,266.6015625,926.7578125,933.59375,0.0,0,0
1771940284.000822,1771940283.94489,-907.2265625,-771.97265625,303.22265625,-921.38671875,0.0,0,0
1771940284.000932,1771940283.9487872,88.8671875,180.6640625,-669.43359375,13.671875,0.0,0,0
1771940284.0009851,1771940283.9526842,-1000.0,-1000.0,-768.06640625,-1000.0,0.0,0,0
1771940284.001029,1771940283.9565814,-541.50390625,-1000.0,239.74609375,-518.5546875,0.0,0,0
1771940284.0010738,1771940283.9604783,826.66015625,11.71875,952.63671875,838.8671875,0.0,0,0
1771940284.001118,1771940283.9643755,-862.79296875,-776.85546875,448.73046875,-871.09375,0.0,0,0
1771940284.001162,1771940283.9682724,183.10546875,343.26171875,-605.95703125,127.9296875,0.0,0,0
1771940284.001206,1771940283.9721696,-1000.0,-943.84765625,-792.48046875,-1000.0,0.0,0,0
1771940284.0451121,1771940283.9761865,-812.5,-1000.0,56.640625,-779.78515625,0.0,0,0
1771940284.045265,1771940283.9800837,548.828125,-169.43359375,875.48828125,577.63671875,0.0,0,0
1771940284.045316,1771940283.9839807,-807.6171875,-853.02734375,583.49609375,-811.5234375,0.0,0,0
1771940284.045374,1771940283.9878778,152.34375,618.65234375,-565.91796875,152.34375,0.0,0,0
1771940284.045419,1771940283.991775,-1000.0,-760.7421875,-860.3515625,-1000.0,0.0,0,0
1771940284.045463,1771940283.995672,-1000.0,-1000.0,-131.8359375,-1000.0,0.0,0,0
1771940284.0455198,1771940283.9995692,202.63671875,-212.890625,749.51171875,246.09375,0.0,0,0
1771940284.0455701,1771940284.0034664,-767.578125,-923.828125,682.12890625,-770.5078125,0.0,0,0
1771940284.045625,1771940284.0073633,195.3125,812.5,-494.62890625,146.97265625,0.0,0,0
1771940284.045686,1771940284.0112605,-1000.0,-540.52734375,-918.45703125,-1000.0,0.0,0,0
1771940284.045738,1771940284.0151577,-1000.0,-1000.0,-266.6015625,-1000.0,0.0,0,0
1771940284.045778,1771940284.0190547,-26.85546875,-180.17578125,637.6953125,-4.8828125,0.0,0,0
1771940284.104481,1771940284.023062,-786.1328125,-989.2578125,742.67578125,-776.85546875,0.0,0,0
1771940284.1046941,1771940284.0269592,382.32421875,-982.91015625,-347.65625,290.0390625,0.0,0,0
1771940284.1047602,1771940284.0308561,-922.36328125,-178.7109375,-973.14453125,-965.8203125,0.0,0,0
1771940284.104823,1771940284.0347533,-1000.0,-1000.0,-395.01953125,-1000.0,0.0,0,0
1771940284.1048782,1771940284.0386505,-208.984375,-267.578125,581.54296875,-194.3359375,0.0,0,0
1771940284.104938,1771940284.0425475,-860.83984375,958.0078125,756.8359375,-829.58984375,0.0,0,0
1771940284.1049972,1771940284.0464447,600.5859375,-924.31640625,-210.9375,462.890625,0.0,0,0
1771940284.105056,1771940284.0503418,-785.64453125,51.26953125,-972.16796875,-895.01953125,0.0,0,0
1771940284.1051142,1771940284.054239,-1000.0,-1000.0,-544.921875,-1000.0,0.0,0,0
1771940284.1051679,1771940284.058136,-209.47265625,-468.75,525.87890625,-229.4921875,0.0,0,0
1771940284.1052349,1771940284.0620332,-938.4765625,866.2109375,807.6171875,-900.87890625,0.0,0,0
1771940284.105304,1771940284.0659304,855.46875,-875.9765625,-0.9765625,723.14453125,0.0,0,0
1771940284.135583,1771940284.069927,-470.703125,202.63671875,-873.046875,-645.5078125,0.0,0,0
1771940284.135783,1771940284.0738242,-1000.0,-1000.0,-661.62109375,-1000.0,0.0,0,0
1771940284.135838,1771940284.0777214,-179.6875,-722.65625,498.046875,-196.77734375,0.0,0,0
1771940284.136,1771940284.0816183,-989.2578125,667.96875,875.0,-956.0546875,0.0,0,0
1771940284.136092,1771940284.0855155,-988.76953125,-827.1484375,130.37109375,907.71484375,0.0,0,0
1771940284.136142,1771940284.0894127,-159.1796875,164.0625,-783.69140625,-354.98046875,0.0,0,0
1771940284.1361878,1771940284.0933099,-1000.0,-1000.0,-733.88671875,-1000.0,0.0,0,0
1771940284.136228,1771940284.0972068,-324.21875,-964.35546875,387.20703125,-296.875,0.0,0,0
1771940284.136271,1771940284.101104,934.5703125,319.3359375,929.19921875,954.58984375,0.0,0,0
1771940284.136333,1771940284.1050012,-916.015625,-776.3671875,297.36328125,-942.87109375,0.0,0,0
1771940284.1363761,1771940284.1088984,57.6171875,157.71484375,-677.24609375,-46.875,0.0,0,0
1771940284.136418,1771940284.1127954,-1000.0,-1000.0,-773.4375,-1000.0,0.0,0,0
1771940284.195332,1771940284.1168592,-516.11328125,-1000.0,256.34765625,-478.02734375,0.0,0,0
1771940284.1955462,1771940284.1207564,838.37890625,42.48046875,950.1953125,858.3984375,0.0,0,0
1771940284.195603,1771940284.1246536,-867.67578125,-771.484375,431.640625,-879.8828125,0.0,0,0
1771940284.19564,1771940284.1285508,185.546875,326.66015625,-598.6328125,127.9296875,0.0,0,0
1771940284.1956742,1771940284.132448,-1000.0,-953.125,-805.6640625,-1000.0,0.0,0,0
1771940284.1957068,1771940284.1363451,-774.90234375,-1000.0,65.4296875,-711.9140625,0.0,0,0
1771940284.1957529,1771940284.140242,597.16796875,-131.8359375,897.94921875,664.55078125,0.0,0,0
1771940284.1958048,1771940284.1441393,-815.91796875,-821.2890625,559.08203125,-826.66015625,0.0,0,0
1771940284.19585,1771940284.1480365,157.2265625,514.16015625,-581.54296875,154.78515625,0.0,0,0
1771940284.195903,1771940284.1519337,-1000.0,-857.421875,-843.26171875,-1000.0,0.0,0,0
1771940284.1959429,1771940284.1558309,-996.58203125,-1000.0,-80.078125,-956.0546875,0.0,0,0
1771940284.195987,1771940284.159728,254.8828125,-219.23828125,783.69140625,333.0078125,0.0,0,0
1771940284.239829,1771940284.1637063,-771.97265625,-920.8984375,647.94921875,-777.83203125,0.0,0,0
1771940284.2399979,1771940284.1676035,171.875,800.78125,-527.34375,140.625,0.0,0,0
1771940284.240045,1771940284.1715007,-1000.0,-556.15234375,-920.41015625,-1000.0,0.0,0,0
1771940284.240088,1771940284.1753979,-1000.0,-1000.0,-236.81640625,-1000.0,0.0,0,0
1771940284.240128,1771940284.179295,3.41796875,-183.59375,676.26953125,45.8984375,0.0,0,0
1771940284.240171,1771940284.1831923,-779.296875,-982.421875,732.421875,-770.01953125,0.0,0,0
1771940284.240214,1771940284.1870894,347.16796875,997.0703125,-378.90625,255.859375,0.0,0,0
1771940284.240257,1771940284.1909866,-939.94140625,-216.796875,-967.28515625,-979.00390625,0.0,0,0
1771940284.2403,1771940284.1948838,-1000.0,-1000.0,-382.32421875,-1000.0,0.0,0,0
1771940284.240339,1771940284.1987808,-182.6171875,-261.71875,581.0546875,-153.80859375,0.0,0,0
1771940284.240382,1771940284.202678,-844.23828125,965.33203125,762.20703125,-816.89453125,0.0,0,0
1771940284.2404249,1771940284.2065752,562.5,-934.08203125,-225.5859375,455.078125,0.0,0,0
1771940284.284926,1771940284.2106175,-819.82421875,-0.9765625,-979.98046875,-892.578125,0.0,0,0
1771940284.2852852,1771940284.2145147,-1000.0,-1000.0,-513.671875,-1000.0,0.0,0,0
1771940284.285323,1771940284.218412,-213.8671875,-455.078125,543.9453125,-229.98046875,0.0,0,0
1771940284.2853608,1771940284.222309,-931.15234375,866.69921875,793.45703125,-899.90234375,0.0,0,0
1771940284.2853959,1771940284.2262063,831.0546875,-876.953125,-33.203125,718.75,0.0,0,0
1771940284.2854311,1771940284.2301035,-508.30078125,204.58984375,-889.6484375,-650.390625,0.0,0,0
1771940284.285464,1771940284.2340007,-1000.0,-1000.0,-652.83203125,-1000.0,0.0,0,0
1771940284.285495,1771940284.2378979,-180.6640625,-702.63671875,503.41796875,-193.84765625,0.0,0,0
1771940284.2855282,1771940284.241795,-989.2578125,689.94140625,863.28125,-964.84375,0.0,0,0
1771940284.285561,1771940284.2456923,-987.3046875,-832.03125,118.1640625,937.98828125,0.0,0,0
1771940284.285593,1771940284.2495894,-171.38671875,169.921875,-782.71484375,-312.01171875,0.0,0,0
1771940284.2856262,1771940284.2534866,-1000.0,-1000.0,-730.46875,-1000.0,0.0,0,0
1771940284.330809,1771940284.2575195,-292.96875,-920.8984375,400.87890625,-270.01953125,0.0,0,0
1771940284.330997,1771940284.261417,950.1953125,391.11328125,917.48046875,967.28515625,0.0,0,0
1771940284.331064,1771940284.265314,-924.31640625,-785.15625,255.37109375,-947.75390625,0.0,0,0
1771940284.3311281,1771940284.2692113,34.66796875,143.06640625,-698.73046875,-44.921875,0.0,0,0
1771940284.331187,1771940284.2731085,-1000.0,-1000.0,-764.6484375,-1000.0,0.0,0,0
1771940284.331242,1771940284.2770057,-484.375,-1000.0,282.71484375,-464.84375,0.0,0,0
1771940284.331299,1771940284.2809029,855.95703125,82.03125,947.75390625,872.0703125,0.0,0,0
1771940284.3313558,1771940284.2848,-875.0,-767.08984375,399.4140625,-888.18359375,0.0,0,0
1771940284.331413,1771940284.2886972,180.6640625,296.875,-616.69921875,92.28515625,0.0,0,0
1771940284.33147,1771940284.2925944,-1000.0,-962.40234375,-784.1796875,-1000.0,0.0,0,0
1771940284.3315341,1771940284.2964916,-735.3515625,-1000.0,103.515625,-697.265625,0.0,0,0
1771940284.3316,1771940284.3003888,645.5078125,-133.7890625,906.25,673.828125,0.0,0,0
1771940284.375398,1771940284.304413,-824.70703125,-818.84765625,539.55078125,-828.61328125,0.0,0,0
1771940284.375541,1771940284.3083103,162.59765625,500.0,-587.40234375,155.76171875,0.0,0,0
1771940284.3755891,1771940284.3122075,-1000.0,-866.2109375,-844.7265625,-1000.0,0.0,0,0
1771940284.375674,1771940284.3161047,-967.28515625,-1000.0,-93.75,-948.73046875,0.0,0,0
1771940284.3758001,1771940284.3200018,314.94140625,-224.609375,790.52734375,344.7265625,0.0,0,0
1771940284.375852,1771940284.323899,-776.85546875,-908.203125,638.671875,-778.80859375,0.0,0,0
1771940284.3758981,1771940284.3277965,144.04296875,755.859375,-553.22265625,141.11328125,0.0,0,0
1771940284.375964,1771940284.3316936,-1000.0,-614.74609375,-914.0625,-1000.0,0.0,0,0
1771940284.376008,1771940284.3355908,-1000.0,-1000.0,-230.46875,-1000.0,0.0,0,0
1771940284.3760471,1771940284.339488,31.25,-186.5234375,679.19921875,53.22265625,0.0,0,0
1771940284.376092,1771940284.3433852,-773.4375,-979.00390625,729.98046875,-769.53125,0.0,0,0
1771940284.3761349,1771940284.3472824,319.82421875,986.328125,-396.97265625,254.8828125,0.0,0,0
1771940284.42011,1771940284.351297,-953.61328125,-242.67578125,-960.44921875,-979.4921875,0.0,0,0
1771940284.4202828,1771940284.355194,-1000.0,-1000.0,-361.81640625,-1000.0,0.0,0,0
1771940284.420328,1771940284.3590913,-157.71484375,-229.00390625,589.84375,-145.99609375,0.0,0,0
1771940284.420372,1771940284.3629885,-826.171875,976.07421875,761.71875,-812.5,0.0,0,0
1771940284.420415,1771940284.366886,507.32421875,-938.4765625,-258.30078125,406.73828125,0.0,0,0
1771940284.4204679,1771940284.370783,-864.74609375,-0.48828125,-988.76953125,-916.9921875,0.0,0,0
1771940284.420512,1771940284.3746803,-1000.0,-1000.0,-513.671875,-1000.0,0.0,0,0
1771940284.4205508,1771940284.3785775,-222.16796875,-434.5703125,524.90234375,-237.3046875,0.0,0,0
1771940284.420606,1771940284.382475,-916.015625,882.8125,797.36328125,-886.23046875,0.0,0,0
1771940284.4206479,1771940284.386372,778.80859375,-885.25390625,-63.96484375,662.59765625,0.0,0,0
1771940284.420691,1771940284.3902693,-582.03125,160.64453125,-915.0390625,-710.9375,0.0,0,0
1771940284.420733,1771940284.3941665,-1000.0,-1000.0,-634.765625,-1000.0,0.0,0,0
1771940284.4966521,1771940284.3983274,-186.03515625,-659.1796875,505.37109375,-205.56640625,0.0,0,0
1771940284.4968488,1771940284.4022245,-979.4921875,726.5625,844.23828125,-939.94140625,0.0,0,0
1771940284.496913,1771940284.406122,984.375,-839.84375,93.26171875,856.93359375,0.0,0,0
1771940284.4969752,1771940284.4100192,-237.79296875,177.24609375,-796.875,-440.91796875,0.0,0,0
1771940284.497035,1771940284.4139166,-1000.0,-1000.0,-718.75,-1000.0,0.0,0,0
1771940284.49709,1771940284.4178138,-260.7421875,-874.0234375,430.17578125,-253.90625,0.0,0,0
1771940284.49715,1771940284.421711,965.8203125,463.37890625,914.0625,982.91015625,0.0,0,0
1771940284.497208,1771940284.4256084,-936.5234375,-793.45703125,249.51171875,-976.5625,0.0,0,0
1771940284.4972649,1771940284.4295056,-7.8125,145.01953125,-701.171875,-121.58203125,0.0,0,0
1771940284.497323,1771940284.433403,-1000.0,-1000.0,-775.390625,-1000.0,0.0,0,0
1771940284.497377,1771940284.4373002,-453.61328125,-1000.0,290.52734375,-437.5,0.0,0,0
1771940284.4974341,1771940284.4411974,869.140625,106.93359375,946.77734375,879.39453125,0.0,0,0
1771940284.511334,1771940284.4451995,-880.37109375,-766.11328125,392.08984375,-892.08984375,0.0,0,0
1771940284.511592,1771940284.449097,178.22265625,289.55078125,-605.95703125,92.7734375,0.0,0,0
1771940284.511667,1771940284.452994,-1000.0,-973.14453125,-791.015625,-1000.0,0.0,0,0
1771940284.511725,1771940284.4568915,-700.1953125,-1000.0,125.48828125,-671.38671875,0.0,0,0
1771940284.511783,1771940284.4607887,686.5234375,-59.08203125,926.26953125,704.58984375,0.0,0,0
1771940284.511843,1771940284.464686,-832.03125,-798.33984375,526.3671875,-836.42578125,0.0,0,0
1771940284.511901,1771940284.4685833,166.9921875,443.359375,-591.796875,139.6484375,0.0,0,0
1771940284.51196,1771940284.4724805,-1000.0,-891.11328125,-824.70703125,-1000.0,0.0,0,0
1771940284.512032,1771940284.476378,-942.3828125,-1000.0,-42.48046875,-924.8046875,0.0,0,0
1771940284.5120902,1771940284.4802752,356.93359375,-230.95703125,813.4765625,375.9765625,0.0,0,0
1771940284.512146,1771940284.4841726,-781.73828125,-898.4375,640.13671875,-782.71484375,0.0,0,0
1771940284.512197,1771940284.4880698,141.11328125,722.16796875,-547.8515625,143.06640625,0.0,0,0
1771940284.57159,1771940284.4920597,-1000.0,-658.203125,-903.80859375,-1000.0,0.0,0,0
1771940284.571786,1771940284.495957,-1000.0,-1000.0,-205.078125,-1000.0,0.0,0,0
1771940284.57185,1771940284.4998543,60.546875,-191.40625,697.75390625,81.0546875,0.0,0,0
1771940284.57192,1771940284.5037515,-770.01953125,-970.21484375,708.49609375,-767.578125,0.0,0,0
1771940284.571981,1771940284.507649,295.8984375,960.9375,-427.734375,223.6328125,0.0,0,0
1771940284.5720441,1771940284.5115461,-964.35546875,-298.33984375,-959.47265625,-994.62890625,0.0,0,0
1771940284.572118,1771940284.5154436,-1000.0,-1000.0,-369.62890625,-1000.0,0.0,0,0
1771940284.572173,1771940284.5193408,-130.859375,-181.640625,598.14453125,-112.3046875,0.0,0,0
1771940284.572233,1771940284.5232382,-817.87109375,-999.51171875,748.046875,-802.734375,0.0,0,0
1771940284.57231,1771940284.5271356,490.72265625,-959.9609375,-295.41015625,383.30078125,0.0,0,0
1771940284.572368,1771940284.5310328,-870.60546875,-70.80078125,-988.76953125,-925.78125,0.0,0,0
1771940284.572434,1771940284.5349302,-1000.0,-1000.0,-498.046875,-1000.0,0.0,0,0
1771940284.615566,1771940284.5389225,-225.09765625,-391.11328125,533.69140625,-242.1875,0.0,0,0
1771940284.615732,1771940284.5428197,-909.66796875,896.97265625,779.78515625,-875.9765625,0.0,0,0
1771940284.615781,1771940284.5467172,754.8828125,-891.6015625,-89.84375,624.0234375,0.0,0,0
1771940284.6158268,1771940284.5506144,-612.79296875,163.57421875,-922.36328125,-758.7890625,0.0,0,0
1771940284.615872,1771940284.5545118,-1000.0,-1000.0,-626.46484375,-1000.0,0.0,0,0
1771940284.615912,1771940284.558409,-189.453125,-565.4296875,519.53125,-210.44921875,0.0,0,0
1771940284.616141,1771940284.5623064,-973.6328125,823.73046875,830.078125,-932.6171875,0.0,0,0
1771940284.6161878,1771940284.5662038,966.796875,-859.375,65.91796875,832.51953125,0.0,0,0
1771940284.616234,1771940284.570101,-272.4609375,181.15234375,-806.640625,-487.79296875,0.0,0,0
1771940284.616277,1771940284.5739985,-1000.0,-1000.0,-707.03125,-1000.0,0.0,0,0
1771940284.6163158,1771940284.5778956,-243.65234375,-876.953125,449.21875,-234.86328125,0.0,0,0
1771940284.616367,1771940284.581793,974.12109375,458.984375,911.1328125,-1000.0,0.0,0,0
1771940284.660118,1771940284.5858378,-944.3359375,-793.9453125,234.375,996.58203125,0.0,0,0
1771940284.6602612,1771940284.5897353,-32.71484375,146.97265625,-711.42578125,-189.94140625,0.0,0,0
1771940284.660301,1771940284.5936327,-1000.0,-1000.0,-760.7421875,-1000.0,0.0,0,0
1771940284.660335,1771940284.59753,-432.6171875,-1000.0,309.08203125,-408.69140625,0.0,0,0
1771940284.660372,1771940284.6014273,882.32421875,134.765625,945.3125,898.92578125,0.0,0,0
1771940284.660414,1771940284.6053247,-888.18359375,-762.6953125,376.953125,-907.71484375,0.0,0,0
1771940284.660449,1771940284.609222,139.16015625,237.79296875,-634.27734375,19.53125,0.0,0,0
1771940284.660501,1771940284.6131194,-1000.0,-994.140625,-777.83203125,-1000.0,0.0,0,0
1771940284.660535,1771940284.6170168,-662.109375,-1000.0,167.48046875,-615.72265625,0.0,0,0
1771940284.660576,1771940284.620914,718.26171875,-57.6171875,930.17578125,748.046875,0.0,0,0
1771940284.660628,1771940284.6248114,-838.37890625,-794.43359375,504.8828125,-845.21484375,0.0,0,0
1771940284.660674,1771940284.6287086,171.875,432.6171875,-597.16796875,149.4140625,0.0,0,0
1771940284.705029,1771940284.6327431,-1000.0,-896.97265625,-813.96484375,-1000.0,0.0,0,0
1771940284.705174,1771940284.6366405,-913.0859375,-1000.0,-22.4609375,-880.859375,0.0,0,0
1771940284.705222,1771940284.6405377,402.34375,-241.69921875,824.70703125,444.82421875,0.0,0,0
1771940284.705267,1771940284.6444352,-786.62109375,-872.0703125,613.28125,-791.50390625,0.0,0,0
1771940284.705311,1771940284.6483326,143.06640625,640.625,-534.1796875,145.5078125,0.0,0,0
1771940284.705354,1771940284.65223,-1000.0,-783.203125,-833.49609375,-1000.0,0.0,0,0
1771940284.705394,1771940284.6561272,-1000.0,-1000.0,-210.9375,-1000.0,0.0,0,0
1771940284.705445,1771940284.6600246,86.42578125,-197.265625,682.6171875,120.1171875,0.0,0,0
1771940284.705506,1771940284.663922,-767.578125,-960.44921875,702.63671875,-764.6484375,0.0,0,0
1771940284.7055612,1771940284.6678195,269.53125,924.8046875,-450.68359375,191.89453125,0.0,0,0
1771940284.705624,1771940284.6717167,-977.05078125,-367.1875,-951.171875,-1000.0,0.0,0,0
1771940284.705684,1771940284.675614,-1000.0,-1000.0,-338.8671875,-1000.0,0.0,0,0
1771940284.7963479,1771940284.679865,-105.46875,-173.828125,615.234375,-70.80078125,0.0,0,0
1771940284.796533,1771940284.6837623,-809.5703125,-997.0703125,746.58203125,-791.50390625,0.0,0,0
1771940284.7965848,1771940284.6876597,465.8203125,-962.890625,-307.12890625,360.3515625,0.0,0,0
1771940284.796632,1771940284.6915572,-882.32421875,-86.9140625,-980.46875,-932.6171875,0.0,0,0
1771940284.7966762,1771940284.6954544,-1000.0,-1000.0,-472.16796875,-1000.0,0.0,0,0
1771940284.7967181,1771940284.6993518,-230.46875,-347.16796875,542.96875,-245.60546875,0.0,0,0
1771940284.7967622,1771940284.7032492,-897.94921875,923.33984375,758.7890625,-867.67578125,0.0,0,0
1771940284.7968068,1771940284.7071466,711.9140625,-905.2734375,-149.4140625,587.40234375,0.0,0,0
1771940284.79685,1771940284.711044,-666.50390625,108.88671875,-942.3828125,-796.875,0.0,0,0
1771940284.7968938,1771940284.7149415,-1000.0,-1000.0,-606.4453125,-1000.0,0.0,0,0
1771940284.796934,1771940284.718839,-194.3359375,-564.453125,515.13671875,-212.890625,0.0,0,0
1771940284.79698,1771940284.7227364,-965.8203125,814.94140625,830.56640625,-929.6875,0.0,0,0
1771940284.7976902,1771940284.726769,943.359375,-857.91015625,64.94140625,826.171875,0.0,0,0
1771940284.797765,1771940284.7306664,-321.77734375,187.98828125,-823.73046875,-505.37109375,0.0,0,0
1771940284.7978141,1771940284.7345638,-1000.0,-1000.0,-701.171875,-1000.0,0.0,0,0
1771940284.797856,1771940284.7384613,-210.44921875,-804.19921875,465.33203125,-181.640625,0.0,0,0
1771940284.797937,1771940284.7423587,987.3046875,561.5234375,903.3203125,-985.3515625,0.0,0,0
1771940284.797982,1771940284.746256,-953.61328125,-807.6171875,209.9609375,996.58203125,0.0,0,0
1771940284.798026,1771940284.7501535,-56.640625,148.92578125,-729.00390625,-172.36328125,0.0,0,0
1771940284.7980611,1771940284.754051,-1000.0,-1000.0,-759.765625,-1000.0,0.0,0,0
1771940284.7980921,1771940284.7579484,-403.3203125,-1000.0,318.359375,-367.1875,0.0,0,0
1771940284.7981272,1771940284.7618458,896.484375,146.484375,937.5,920.41015625,0.0,0,0
1771940284.7981598,1771940284.7657433,-894.04296875,-762.20703125,350.09765625,-914.55078125,0.0,0,0
1771940284.798195,1771940284.7696407,128.41796875,227.05078125,-643.5546875,33.69140625,0.0,0,0
1771940284.8402638,1771940284.773645,-1000.0,-998.53515625,-779.296875,-1000.0,0.0,0,0
1771940284.840395,1771940284.7775424,-612.79296875,-1000.0,186.5234375,-556.15234375,0.0,0,0
1771940284.8404381,1771940284.78144,768.06640625,-44.921875,950.1953125,814.453125,0.0,0,0
1771940284.840482,1771940284.7853374,-848.6328125,-791.015625,496.58203125,-859.375,0.0,0,0
1771940284.8405252,1771940284.7892349,178.22265625,416.50390625,-592.28515625,150.87890625,0.0,0,0
1771940284.840578,1771940284.7931323,-1000.0,-904.78515625,-821.77734375,-1000.0,0.0,0,0
1771940284.840619,1771940284.7970297,-874.51171875,-1000.0,-25.390625,-840.33203125,0.0,0,0
1771940284.8406641,1771940284.8009272,461.9140625,-228.02734375,844.7265625,505.37109375,0.0,0,0
1771940284.840707,1771940284.8048246,-794.921875,-879.39453125,602.05078125,-798.828125,0.0,0,0
1771940284.84076,1771940284.808722,145.5078125,659.1796875,-569.82421875,147.94921875,0.0,0,0
1771940284.840823,1771940284.8126194,-1000.0,-732.421875,-898.92578125,-1000.0,0.0,0,0
1771940284.840883,1771940284.8165169,-1000.0,-1000.0,-207.51953125,-1000.0,0.0,0,0
1771940284.8862872,1771940284.8205106,122.0703125,-201.171875,716.30859375,152.83203125,0.0,0,0
1771940284.886453,1771940284.824408,-765.13671875,-951.66015625,687.98828125,-763.18359375,0.0,0,0
1771940284.886528,1771940284.8283055,240.72265625,902.83203125,-462.40234375,183.10546875,0.0,0,0
1771940284.88659,1771940284.832203,-989.74609375,-401.3671875,-953.125,-1000.0,0.0,0,0
1771940284.8866482,1771940284.8361003,-1000.0,-1000.0,-335.44921875,-1000.0,0.0,0,0
1771940284.8867042,1771940284.839998,-78.125,-175.29296875,625.9765625,-53.7109375,0.0,0,0
1771940284.886762,1771940284.8438954,-799.8046875,-995.1171875,739.2578125,-788.0859375,0.0,0,0
1771940284.8868248,1771940284.8477929,435.05859375,-968.26171875,-322.75390625,354.4921875,0.0,0,0
1771940284.8868842,1771940284.8516903,-896.97265625,-107.91015625,-981.93359375,-933.59375,0.0,0,0
1771940284.8869429,1771940284.8555877,-1000.0,-1000.0,-451.171875,-1000.0,0.0,0,0
1771940284.887014,1771940284.8594851,-235.83984375,-341.796875,544.43359375,-242.67578125,0.0,0,0
1771940284.887091,1771940284.8633828,-888.18359375,923.828125,779.296875,-865.234375,0.0,0,0
1771940284.930948,1771940284.8673692,678.7109375,-904.78515625,-120.60546875,576.66015625,0.0,0,0
1771940284.9311428,1771940284.8712666,-709.47265625,110.3515625,-956.54296875,-804.19921875,0.0,0,0
1771940284.931242,1771940284.875164,-1000.0,-1000.0,-572.265625,-1000.0,0.0,0,0
1771940284.931294,1771940284.8790615,-200.1953125,-541.9921875,544.43359375,-216.30859375,0.0,0,0
1771940284.931339,1771940284.8829591,-954.58984375,829.1015625,825.1953125,-922.36328125,0.0,0,0
1771940284.9313831,1771940284.8868566,907.71484375,-862.3046875,53.22265625,798.33984375,0.0,0,0
1771940284.931426,1771940284.890754,-387.6953125,190.4296875,-843.75,-541.50390625,0.0,0,0
1771940284.931469,1771940284.8946514,-1000.0,-1000.0,-673.828125,-1000.0,0.0,0,0
1771940284.931508,1771940284.8985488,-184.08203125,-800.29296875,495.60546875,-187.01171875,0.0,0,0
1771940284.931552,1771940284.9024465,-999.51171875,566.40625,892.08984375,-974.609375,0.0,0,0
1771940284.931778,1771940284.906344,-969.23828125,-809.5703125,177.24609375,964.84375,0.0,0,0
1771940284.931825,1771940284.9102414,-96.19140625,154.296875,-742.1875,-233.3984375,0.0,0,0
1771940284.991477,1771940284.9142177,-1000.0,-1000.0,-754.39453125,-1000.0,0.0,0,0
1771940284.991631,1771940284.9181154,-370.60546875,-1000.0,335.9375,-357.91015625,0.0,0,0
1771940284.9916759,1771940284.9220128,913.0859375,219.7265625,936.5234375,925.29296875,0.0,0,0
1771940284.991721,1771940284.9259102,-903.3203125,-767.578125,335.9375,-921.875,0.0,0,0
1771940284.9917629,1771940284.9298077,99.12109375,210.44921875,-648.92578125,12.6953125,0.0,0,0
1771940284.9918091,1771940284.9337053,-1000.0,-1000.0,-786.62109375,-1000.0,0.0,0,0
1771940284.991849,1771940284.9376028,-568.359375,-1000.0,180.6640625,-558.59375,0.0,0,0
1771940284.991901,1771940284.9415002,810.05859375,-44.921875,941.40625,814.453125,0.0,0,0
1771940284.991961,1771940284.9453976,-857.421875,-787.59765625,467.28515625,-863.28125,0.0,0,0
1771940284.992005,1771940284.9492953,176.26953125,373.53515625,-605.95703125,117.67578125,0.0,0,0
1771940284.992057,1771940284.9531927,-1000.0,-932.12890625,-807.6171875,-1000.0,0.0,0,0
1771940284.992116,1771940284.9570901,-844.23828125,-1000.0,29.296875,-818.84765625,0.0,0,0
1771940285.036094,1771940284.9611306,506.8359375,-193.84765625,865.234375,526.3671875,0.0,0,0
1771940285.036248,1771940284.9650283,-800.29296875,-853.02734375,584.9609375,-802.734375,0.0,0,0
1771940285.036314,1771940284.9689257,148.92578125,593.26171875,-576.66015625,145.5078125,0.0,0,0
1771940285.036376,1771940284.9728231,-1000.0,-794.43359375,-865.72265625,-1000.0,0.0,0,0
1771940285.036436,1771940284.9767208,-1000.0,-1000.0,-122.55859375,-1000.0,0.0,0,0
1771940285.036491,1771940284.9806182,162.109375,-208.984375,711.42578125,196.2890625,0.0,0,0
1771940285.036549,1771940284.9845157,-764.6484375,-938.96484375,645.01953125,-766.6015625,0.0,0,0
1771940285.036608,1771940284.9884133,212.890625,861.328125,-476.5625,171.875,0.0,0,0
1771940285.036663,1771940284.9923108,-1000.0,-465.8203125,-937.98828125,-1000.0,0.0,0,0
1771940285.036719,1771940284.9962082,-1000.0,-1000.0,-284.1796875,-1000.0,0.0,0,0
1771940285.036772,1771940285.0001059,-49.8046875,-177.24609375,643.06640625,-40.52734375,0.0,0,0
1771940285.036831,1771940285.0040033,-791.50390625,-992.67578125,744.140625,-784.66796875,0.0,0,0
1771940285.09638,1771940285.0081122,403.80859375,-972.65625,-337.40234375,318.84765625,0.0,0,0
1771940285.09654,1771940285.0120099,-911.62109375,-138.671875,-976.5625,-951.66015625,0.0,0,0
1771940285.0965881,1771940285.0159073,-1000.0,-1000.0,-425.78125,-1000.0,0.0,0,0
1771940285.096631,1771940285.019805,-226.07421875,-272.4609375,564.94140625,-220.21484375,0.0,0,0
1771940285.096677,1771940285.0237024,-875.48828125,957.51953125,741.69921875,-849.609375,0.0,0,0
1771940285.096721,1771940285.0275998,642.08984375,-923.828125,-205.56640625,529.296875,0.0,0,0
1771940285.0967848,1771940285.0314975,-747.0703125,63.96484375,-961.9140625,-841.30859375,0.0,0,0
1771940285.09683,1771940285.035395,-1000.0,-1000.0,-563.96484375,-1000.0,0.0,0,0
1771940285.096879,1771940285.0392926,-204.58984375,-501.953125,533.203125,-224.12109375,0.0,0,0
1771940285.09694,1771940285.04319,-945.80078125,847.16796875,815.4296875,-907.2265625,0.0,0,0
1771940285.096989,1771940285.0470877,879.8828125,-869.140625,2.44140625,742.67578125,0.0,0,0
1771940285.0970519,1771940285.050985,-433.10546875,196.2890625,-868.1640625,-615.234375,0.0,0,0
1771940285.1256142,1771940285.0550013,-1000.0,-1000.0,-666.9921875,-1000.0,0.0,0,0
1771940285.125744,1771940285.0588987,-176.7578125,-766.11328125,496.58203125,-190.4296875,0.0,0,0
1771940285.1258109,1771940285.0627964,-994.62890625,611.328125,880.859375,-972.16796875,0.0,0,0
1771940285.125876,1771940285.0666938,-975.09765625,-817.87109375,176.7578125,957.03125,0.0,0,0
1771940285.125937,1771940285.0705914,-117.67578125,160.15625,-743.65234375,-261.23046875,0.0,0,0
1771940285.1260061,1771940285.0744889,-1000.0,-1000.0,-734.86328125,-1000.0,0.0,0,0
1771940285.126061,1771940285.0783865,-352.05078125,-982.91015625,377.44140625,-343.26171875,0.0,0,0
1771940285.126119,1771940285.082284,922.8515625,283.203125,925.29296875,936.03515625,0.0,0,0
1771940285.126221,1771940285.0861816,-909.1796875,-773.92578125,309.08203125,-933.10546875,0.0,0,0
1771940285.12627,1771940285.090079,77.1484375,163.57421875,-665.52734375,-32.2265625,0.0,0,0
1771940285.126313,1771940285.0939767,-1000.0,-1000.0,-778.3203125,-1000.0,0.0,0,0
1771940285.1263528,1771940285.0978742,-542.96875,-1000.0,237.79296875,-520.01953125,0.0,0,0
1771940285.1733062,1771940285.1018896,824.21875,34.1796875,956.54296875,833.984375,0.0,0,0
1771940285.1734731,1771940285.1057873,-865.72265625,-774.90234375,447.75390625,-873.53515625,0.0,0,0
1771940285.173541,1771940285.1096847,192.3828125,342.7734375,-603.515625,131.8359375,0.0,0,0
1771940285.1736052,1771940285.1135824,-1000.0,-966.30859375,-802.734375,-1000.0,0.0,0,0
1771940285.173664,1771940285.11748,-720.703125,-1000.0,95.703125,-700.68359375,0.0,0,0
1771940285.173723,1771940285.1213775,704.58984375,-62.01171875,937.01171875,712.890625,0.0,0,0
1771940285.173782,1771940285.1252751,-823.2421875,-838.8671875,571.77734375,-825.68359375,0.0,0,0
1771940285.173842,1771940285.1291726,150.87890625,537.59765625,-575.1953125,145.01953125,0.0,0,0
1771940285.173902,1771940285.1330702,-1000.0,-841.796875,-855.95703125,-1000.0,0.0,0,0
1771940285.1739578,1771940285.136968,-1000.0,-1000.0,-122.55859375,-1000.0,0.0,0,0
1771940285.174012,1771940285.1408653,200.1953125,-216.796875,756.8359375,241.69921875,0.0,0,0
1771940285.174071,1771940285.144763,-767.578125,-924.8046875,666.9921875,-770.5078125,0.0,0,0
1771940285.2151911,1771940285.148766,198.73046875,812.5,-498.046875,149.4140625,0.0,0,0
1771940285.215372,1771940285.1526637,-1000.0,-540.52734375,-929.6875,-1000.0,0.0,0,0
1771940285.215411,1771940285.1565611,-1000.0,-1000.0,-271.484375,-1000.0,0.0,0,0
1771940285.215446,1771940285.1604588,-20.99609375,-178.22265625,662.109375,5.37109375,0.0,0,0
1771940285.215481,1771940285.1643565,-785.64453125,-993.65234375,724.12109375,-775.390625,0.0,0,0
1771940285.215517,1771940285.168254,379.39453125,-975.09765625,-373.046875,274.90234375,0.0,0,0
1771940285.215563,1771940285.1721516,-923.828125,-148.4375,-974.12109375,-971.19140625,0.0,0,0
1771940285.215607,1771940285.1760492,-1000.0,-1000.0,-417.48046875,-1000.0,0.0,0,0
1771940285.215658,1771940285.1799467,-206.54296875,-271.97265625,565.91796875,-191.40625,0.0,0,0
1771940285.215704,1771940285.1838443,-858.88671875,962.890625,764.16015625,-828.125,0.0,0,0
1771940285.21575,1771940285.187742,594.7265625,-929.19921875,-204.58984375,464.35546875,0.0,0,0
1771940285.2157938,1771940285.1916394,-791.015625,20.01953125,-975.5859375,-893.5546875,0.0,0,0
1771940285.306023,1771940285.1958544,-1000.0,-1000.0,-539.0625,-1000.0,0.0,0,0
1771940285.306182,1771940285.199752,-209.9609375,-465.33203125,535.15625,-229.98046875,0.0,0,0
1771940285.3062341,1771940285.2036498,-938.4765625,863.76953125,807.6171875,-899.90234375,0.0,0,0
1771940285.306286,1771940285.2075472,855.95703125,-875.48828125,-3.90625,717.7734375,0.0,0,0
1771940285.306329,1771940285.2114449,-470.21484375,204.1015625,-875.0,-650.87890625,0.0,0,0
1771940285.3063722,1771940285.2153425,-1000.0,-1000.0,-651.3671875,-1000.0,0.0,0,0
1771940285.306412,1771940285.2192402,-178.7109375,-700.1953125,502.9296875,-193.84765625,0.0,0,0
1771940285.3064551,1771940285.2231379,-991.2109375,693.359375,865.72265625,-964.35546875,0.0,0,0
1771940285.306498,1771940285.2270355,-982.91015625,-832.03125,146.484375,936.5234375,0.0,0,0
1771940285.306541,1771940285.230933,-148.92578125,166.015625,-763.671875,-312.5,0.0,0,0
1771940285.306595,1771940285.2348306,-1000.0,-1000.0,-732.421875,-1000.0,0.0,0,0
1771940285.306633,1771940285.2387283,-321.2890625,-957.51953125,396.97265625,-292.48046875,0.0,0,0
1771940285.309126,1771940285.242727,937.5,334.9609375,918.45703125,962.890625,0.0,0,0
1771940285.309189,1771940285.2466245,-918.45703125,-778.3203125,274.90234375,-952.63671875,0.0,0,0
1771940285.309227,1771940285.2505221,47.36328125,142.578125,-679.6875,-74.21875,0.0,0,0
1771940285.3094232,1771940285.2544198,-1000.0,-1000.0,-774.4140625,-1000.0,0.0,0,0
1771940285.309458,1771940285.2583175,-512.20703125,-1000.0,249.51171875,-468.26171875,0.0,0,0
1771940285.309491,1771940285.2622151,839.35546875,70.3125,950.1953125,863.28125,0.0,0,0
1771940285.309525,1771940285.2661128,-868.1640625,-769.04296875,403.80859375,-882.8125,0.0,0,0
1771940285.309558,1771940285.2700105,183.10546875,322.75390625,-626.953125,117.67578125,0.0,0,0
1771940285.309591,1771940285.2739081,-1000.0,-955.078125,-791.015625,-1000.0,0.0,0,0
1771940285.309623,1771940285.2778058,-771.484375,-1000.0,71.77734375,-711.9140625,0.0,0,0
1771940285.309655,1771940285.2817035,600.5859375,-109.86328125,896.484375,663.0859375,0.0,0,0
1771940285.309688,1771940285.285601,-816.40625,-817.3828125,540.0390625,-826.66015625,0.0,0,0
1771940285.3662999,1771940285.2895756,157.71484375,514.16015625,-604.00390625,151.85546875,0.0,0,0
1771940285.366495,1771940285.2934732,-1000.0,-854.00390625,-847.16796875,-1000.0,0.0,0,0
1771940285.366546,1771940285.297371,-992.1875,-1000.0,-107.91015625,-953.125,0.0,0,0
1771940285.36659,1771940285.3012686,264.16015625,-217.7734375,772.4609375,336.9140625,0.0,0,0
1771940285.3666408,1771940285.3051662,-772.94921875,-924.8046875,647.94921875,-777.83203125,0.0,0,0
1771940285.366703,1771940285.309064,168.45703125,814.453125,-531.25,140.13671875,0.0,0,0
1771940285.36676,1771940285.3129613,-1000.0,-538.0859375,-921.875,-1000.0,0.0,0,0
1771940285.366827,1771940285.316859,-1000.0,-1000.0,-259.765625,-1000.0,0.0,0,0
1771940285.366886,1771940285.3207567,8.30078125,-183.59375,665.52734375,44.43359375,0.0,0,0
1771940285.366935,1771940285.3246543,-778.3203125,-981.4453125,718.26171875,-770.01953125,0.0,0,0
1771940285.367007,1771940285.328552,340.8203125,996.58203125,-398.4375,253.90625,0.0,0,0
1771940285.3670678,1771940285.3324497,-942.87109375,-220.703125,-972.65625,-979.98046875,0.0,0,0
1771940285.4096582,1771940285.3364868,-1000.0,-1000.0,-375.0,-1000.0,0.0,0,0
1771940285.4097679,1771940285.3403845,-177.24609375,-246.09375,598.14453125,-149.90234375,0.0,0,0
1771940285.4098,1771940285.3442822,-841.30859375,970.703125,756.8359375,-816.40625,0.0,0,0
1771940285.4098308,1771940285.3481798,556.640625,-936.5234375,-238.76953125,456.54296875,0.0,0,0
1771940285.4098701,1771940285.3520775,-823.73046875,0.0,-983.3984375,-891.11328125,0.0,0,0
1771940285.409899,1771940285.3559754,-1000.0,-1000.0,-513.671875,-1000.0,0.0,0,0
1771940285.4099252,1771940285.359873,-215.8203125,-448.2421875,543.9453125,-231.4453125,0.0,0,0
1771940285.409953,1771940285.3637707,-926.26953125,872.55859375,792.48046875,-895.5078125,0.0,0,0
1771940285.409981,1771940285.3676684,814.453125,-879.8828125,-49.8046875,698.73046875,0.0,0,0
1771940285.4100091,1771940285.371566,-531.73828125,181.640625,-900.87890625,-672.36328125,0.0,0,0
1771940285.410045,1771940285.3754637,-1000.0,-1000.0,-645.99609375,-1000.0,0.0,0,0
1771940285.4100711,1771940285.3793614,-182.12890625,-699.70703125,505.37109375,-197.75390625,0.0,0,0
1771940285.454855,1771940285.3833864,-986.328125,687.98828125,855.95703125,-957.03125,0.0,0,0
1771940285.45502,1771940285.3872843,-995.60546875,-832.03125,122.0703125,911.1328125,0.0,0,0
1771940285.4550688,1771940285.391182,-189.453125,170.8984375,-777.83203125,-352.5390625,0.0,0,0
1771940285.455114,1771940285.3950796,-1000.0,-1000.0,-719.7265625,-1000.0,0.0,0,0
1771940285.455157,1771940285.3989773,-289.55078125,-911.1328125,416.9921875,-272.94921875,0.0,0,0
1771940285.455201,1771940285.402875,952.63671875,406.25,913.0859375,974.609375,0.0,0,0
1771940285.455271,1771940285.4067726,-928.22265625,-786.1328125,248.046875,-965.8203125,0.0,0,0
1771940285.455323,1771940285.4106703,17.08984375,141.6015625,-694.3359375,-96.19140625,0.0,0,0
1771940285.4553878,1771940285.414568,-1000.0,-1000.0,-778.3203125,-1000.0,0.0,0,0
1771940285.4554272,1771940285.4184656,-480.46875,-1000.0,247.0703125,-457.51953125,0.0,0,0
1771940285.455487,1771940285.4223633,855.46875,61.5234375,944.82421875,869.62890625,0.0,0,0
1771940285.455539,1771940285.4262612,-875.0,-769.04296875,427.24609375,-886.71875,0.0,0,0
1771940285.500415,1771940285.4302797,184.5703125,297.8515625,-592.28515625,106.4453125,0.0,0,0
1771940285.5005472,1771940285.4341774,-1000.0,-964.35546875,-797.36328125,-1000.0,0.0,0,0
1771940285.500598,1771940285.438075,-728.02734375,-1000.0,92.7734375,-698.2421875,0.0,0,0
1771940285.500641,1771940285.4419727,656.25,-128.41796875,910.15625,675.29296875,0.0,0,0
1771940285.500685,1771940285.4458704,-826.171875,-820.3125,530.76171875,-828.61328125,0.0,0,0
