timestamp,lsl_timestamp,TP9,AF7,AF8,TP10,Right AUX,keypress_A,keypress_B
1771938601.425869,1771938601.3321826,-1000.0,-1000.0,-612.79296875,-1000.0,0.0,0,0
1771938601.42623,1771938601.3360586,-157.71484375,-190.4296875,465.8203125,-190.91796875,0.0,0,0
1771938601.42627,1771938601.3399348,-947.75390625,-969.23828125,814.94140625,-969.23828125,0.0,0,0
1771938601.4262972,1771938601.3438108,857.91015625,960.44921875,121.58203125,958.984375,0.0,0,0
1771938601.426323,1771938601.347687,-388.18359375,-299.8046875,-756.34765625,-298.33984375,0.0,0,0
1771938601.426348,1771938601.351563,-1000.0,-1000.0,-692.3828125,-1000.0,0.0,0,0
1771938601.426369,1771938601.3554392,-210.44921875,-211.9140625,430.6640625,-206.0546875,0.0,0,0
1771938601.426393,1771938601.3593152,-979.4921875,-913.0859375,864.74609375,996.09375,0.0,0,0
1771938601.4264169,1771938601.3631914,915.0390625,790.52734375,219.7265625,-962.890625,0.0,0,0
1771938601.42644,1771938601.3670673,-242.1875,-533.203125,-681.15234375,-98.14453125,0.0,0,0
1771938601.426464,1771938601.3709435,-1000.0,-1000.0,-762.6953125,-1000.0,0.0,0,0
1771938601.426486,1771938601.3748195,-398.92578125,-372.55859375,284.66796875,-386.71875,0.0,0,0
1771938601.4840882,1771938601.379004,919.43359375,889.16015625,884.765625,902.83203125,0.0,0,0
1771938601.484183,1771938601.38288,-983.88671875,-896.484375,377.44140625,-896.97265625,0.0,0,0
1771938601.4842129,1771938601.3867562,-24.90234375,115.72265625,-561.5234375,111.328125,0.0,0,0
1771938601.4842381,1771938601.3906324,-1000.0,-1000.0,-787.59765625,-1000.0,0.0,0,0
1771938601.484261,1771938601.3945086,-610.3515625,-575.68359375,143.5546875,-583.49609375,0.0,0,0
1771938601.4842849,1771938601.3983846,781.73828125,805.17578125,875.48828125,795.41015625,0.0,0,0
1771938601.484309,1771938601.4022608,-942.87109375,-855.46875,457.03125,-854.00390625,0.0,0,0
1771938601.484333,1771938601.406137,1.953125,184.5703125,-552.24609375,184.5703125,0.0,0,0
1771938601.4843562,1771938601.4100132,-1000.0,-1000.0,-798.828125,-1000.0,0.0,0,0
1771938601.4843771,1771938601.4138892,-839.35546875,-836.42578125,-34.66796875,-833.984375,0.0,0,0
1771938601.484399,1771938601.4177654,505.859375,519.53125,798.33984375,522.4609375,0.0,0,0
1771938601.484422,1771938601.4216416,-861.81640625,-801.7578125,587.890625,-802.24609375,0.0,0,0
1771938601.531308,1771938601.425918,21.97265625,149.4140625,-536.1328125,150.390625,0.0,0,0
1771938601.5314188,1771938601.4297943,-1000.0,-1000.0,-840.8203125,-1000.0,0.0,0,0
1771938601.531455,1771938601.4336705,-1000.0,-1000.0,-197.75390625,-1000.0,0.0,0,0
1771938601.531488,1771938601.4375467,197.75390625,164.55078125,664.55078125,175.29296875,0.0,0,0
1771938601.531522,1771938601.441423,-797.36328125,-764.16015625,689.94140625,-764.6484375,0.0,0,0
1771938601.5315561,1771938601.4452991,167.48046875,256.8359375,-430.6640625,219.23828125,0.0,0,0
1771938601.531599,1771938601.4491754,-1000.0,-983.88671875,-884.27734375,-1000.0,0.0,0,0
1771938601.531631,1771938601.4530516,-1000.0,-1000.0,-354.4921875,-1000.0,0.0,0,0
1771938601.5316968,1771938601.4569278,-25.87890625,-53.7109375,529.296875,-35.64453125,0.0,0,0
1771938601.531741,1771938601.460804,-801.7578125,-793.9453125,766.6015625,-789.0625,0.0,0,0
1771938601.531774,1771938601.4646802,351.07421875,417.48046875,-286.62109375,406.25,0.0,0,0
1771938601.531818,1771938601.4685564,-943.84765625,-919.43359375,-919.43359375,-913.0859375,0.0,0,0
1771938601.5764139,1771938601.4728148,-1000.0,-1000.0,-411.1328125,-1000.0,0.0,0,0
1771938601.57652,1771938601.476691,-116.69921875,-115.234375,508.30078125,-196.77734375,0.0,0,0
1771938601.576573,1771938601.4805672,-864.74609375,-847.16796875,781.73828125,-864.74609375,0.0,0,0
1771938601.576622,1771938601.4844437,593.75,627.9296875,-123.046875,630.37109375,0.0,0,0
1771938601.5766668,1771938601.4883199,-773.4375,-740.234375,-897.4609375,-755.37109375,0.0,0,0
1771938601.57671,1771938601.492196,-1000.0,-1000.0,-527.34375,-1000.0,0.0,0,0
1771938601.576749,1771938601.4960725,-116.69921875,-203.61328125,473.14453125,-205.078125,0.0,0,0
1771938601.576792,1771938601.4999487,-937.01171875,-946.77734375,789.55078125,-943.84765625,0.0,0,0
1771938601.5768409,1771938601.5038252,832.51953125,887.20703125,62.01171875,877.44140625,0.0,0,0
1771938601.576897,1771938601.5077014,-472.16796875,-425.29296875,-801.26953125,-440.4296875,0.0,0,0
1771938601.5769532,1771938601.5115776,-1000.0,-1000.0,-672.36328125,-1000.0,0.0,0,0
1771938601.576994,1771938601.515454,-122.55859375,-176.7578125,452.1484375,-177.24609375,0.0,0,0
1771938601.62111,1771938601.519698,-977.05078125,-993.1640625,833.0078125,-993.1640625,0.0,0,0
1771938601.621214,1771938601.5235744,965.33203125,-965.33203125,186.5234375,-971.6796875,0.0,0,0
1771938601.6212668,1771938601.5274506,-204.1015625,-136.71875,-691.89453125,-132.32421875,0.0,0,0
1771938601.621314,1771938601.531327,-1000.0,-1000.0,-734.375,-1000.0,0.0,0,0
1771938601.6213582,1771938601.5352032,-232.91015625,-174.8046875,370.60546875,-287.59765625,0.0,0,0
1771938601.621402,1771938601.5390797,972.16796875,994.140625,877.9296875,953.125,0.0,0,0
1771938601.6214452,1771938601.542956,-963.8671875,-941.89453125,302.24609375,-922.36328125,0.0,0,0
1771938601.6214972,1771938601.5468323,-7.32421875,55.17578125,-617.67578125,53.22265625,0.0,0,0
1771938601.621547,1771938601.5507088,-1000.0,-1000.0,-785.15625,-1000.0,0.0,0,0
1771938601.6216052,1771938601.5545852,-451.171875,-495.1171875,223.6328125,-497.0703125,0.0,0,0
1771938601.621658,1771938601.5584614,869.62890625,848.6328125,891.11328125,848.6328125,0.0,0,0
1771938601.6217,1771938601.5623379,-895.01953125,-870.1171875,431.640625,-870.1171875,0.0,0,0
1771938601.666771,1771938601.5665689,136.23046875,199.21875,-528.80859375,198.2421875,0.0,0,0
1771938601.666906,1771938601.5704453,-1000.0,-1000.0,-785.15625,-1000.0,0.0,0,0
1771938601.6669672,1771938601.5743217,-681.15234375,-734.375,49.8046875,-744.62890625,0.0,0,0
1771938601.66704,1771938601.5781982,671.875,652.83203125,839.84375,639.16015625,0.0,0,0
1771938601.667099,1771938601.5820746,-849.12109375,-824.21875,562.01171875,-822.75390625,0.0,0,0
1771938601.667159,1771938601.585951,118.65234375,162.109375,-509.27734375,162.59765625,0.0,0,0
1771938601.667218,1771938601.5898275,-1000.0,-1000.0,-823.73046875,-1000.0,0.0,0,0
1771938601.667271,1771938601.5937037,-879.39453125,-972.65625,-128.90625,-968.26171875,0.0,0,0
1771938601.667339,1771938601.5975802,375.9765625,305.6640625,725.5859375,313.4765625,0.0,0,0
1771938601.667406,1771938601.6014566,-795.8984375,-775.87890625,669.921875,-776.85546875,0.0,0,0
1771938601.667476,1771938601.605333,165.0390625,141.11328125,-482.421875,141.11328125,0.0,0,0
1771938601.667553,1771938601.6092095,-1000.0,-1000.0,-857.421875,-1000.0,0.0,0,0
1771938601.711018,1771938601.6134284,-1000.0,-1000.0,-238.76953125,-1000.0,0.0,0,0
1771938601.711138,1771938601.6173048,126.953125,41.015625,604.4921875,50.78125,0.0,0,0
1771938601.7111838,1771938601.6211812,-791.9921875,-773.4375,749.0234375,-770.5078125,0.0,0,0
1771938601.711228,1771938601.625058,312.5,336.9140625,-347.65625,321.2890625,0.0,0,0
1771938601.711273,1771938601.6289344,-979.00390625,-966.796875,-913.0859375,-955.56640625,0.0,0,0
1771938601.711318,1771938601.6328108,-1000.0,-1000.0,-333.984375,-1000.0,0.0,0,0
1771938601.711356,1771938601.6366873,0.48828125,-3.41796875,561.03515625,-124.51171875,0.0,0,0
1771938601.7114081,1771938601.6405637,-834.47265625,-797.36328125,751.953125,-819.3359375,0.0,0,0
1771938601.711456,1771938601.6444404,479.98046875,476.5625,-238.76953125,509.27734375,0.0,0,0
1771938601.711503,1771938601.6483169,-873.53515625,-863.28125,-928.22265625,-859.375,0.0,0,0
1771938601.7115571,1771938601.6521933,-1000.0,-1000.0,-466.30859375,-1000.0,0.0,0,0
1771938601.7116,1771938601.6560698,-115.72265625,-222.16796875,495.1171875,-222.16796875,0.0,0,0
1771938601.756167,1771938601.6602762,-908.203125,-916.9921875,763.671875,-914.0625,0.0,0,0
1771938601.756286,1771938601.6641526,717.7734375,787.109375,-37.109375,774.90234375,0.0,0,0
1771938601.756337,1771938601.6680293,-622.55859375,-573.73046875,-851.5625,-589.35546875,0.0,0,0
1771938601.7563798,1771938601.6719058,-1000.0,-1000.0,-627.9296875,-1000.0,0.0,0,0
1771938601.756842,1771938601.6757824,-142.08984375,-188.4765625,460.9375,-187.01171875,0.0,0,0
1771938601.756889,1771938601.679659,-953.125,-971.6796875,819.3359375,-976.07421875,0.0,0,0
1771938601.756931,1771938601.6835353,880.859375,967.28515625,116.2109375,978.515625,0.0,0,0
1771938601.7569761,1771938601.687412,-351.07421875,-276.85546875,-760.7421875,-256.34765625,0.0,0,0
1771938601.757022,1771938601.6912885,-1000.0,-1000.0,-720.21484375,-1000.0,0.0,0,0
1771938601.757061,1771938601.6951652,-232.421875,-237.3046875,396.97265625,-233.88671875,0.0,0,0
1771938601.757113,1771938601.6990416,993.65234375,974.609375,867.1875,977.5390625,0.0,0,0
1771938601.7571552,1771938601.7029183,979.4921875,-941.40625,263.671875,-942.87109375,0.0,0,0
1771938601.83183,1771938601.7073073,-125.48828125,-21.97265625,-635.7421875,-26.85546875,0.0,0,0
1771938601.8319879,1771938601.711184,-1000.0,-1000.0,-768.5546875,-1000.0,0.0,0,0
1771938601.832049,1771938601.7150607,-413.57421875,-425.29296875,266.11328125,-417.48046875,0.0,0,0
1771938601.8321102,1771938601.7189372,906.73828125,884.27734375,891.6015625,889.16015625,0.0,0,0
1771938601.832171,1771938601.7228138,-949.70703125,-885.7421875,376.46484375,-888.18359375,0.0,0,0
1771938601.8322299,1771938601.7266905,44.43359375,166.50390625,-560.546875,156.25,0.0,0,0
1771938601.832298,1771938601.7305672,-1000.0,-1000.0,-777.83203125,-1000.0,0.0,0,0
1771938601.832351,1771938601.734444,-619.140625,-665.0390625,116.2109375,-636.23046875,0.0,0,0
1771938601.832418,1771938601.7383206,750.48828125,721.6796875,859.86328125,749.51171875,0.0,0,0
1771938601.832478,1771938601.7421973,-872.55859375,-839.35546875,495.1171875,-844.7265625,0.0,0,0
1771938601.8325472,1771938601.7460737,106.4453125,177.24609375,-531.25,177.734375,0.0,0,0
1771938601.832605,1771938601.7499504,-1000.0,-1000.0,-797.36328125,-1000.0,0.0,0,0
1771938601.8595798,1771938601.7541366,-830.56640625,-872.55859375,-61.03515625,-876.46484375,0.0,0,0
1771938601.8597429,1771938601.7580132,486.81640625,465.33203125,773.92578125,459.47265625,0.0,0,0
1771938601.8598132,1771938601.76189,-817.3828125,-794.921875,618.65234375,-793.9453125,0.0,0,0
1771938601.859872,1771938601.7657666,106.93359375,147.94921875,-513.671875,146.97265625,0.0,0,0
1771938601.859932,1771938601.7696433,-1000.0,-1000.0,-846.6796875,-1000.0,0.0,0,0
1771938601.859993,1771938601.77352,-967.28515625,-1000.0,-211.42578125,-1000.0,0.0,0,0
1771938601.86005,1771938601.7773967,215.33203125,145.5078125,652.34375,131.8359375,0.0,0,0
1771938601.8601081,1771938601.7812734,-785.64453125,-762.20703125,710.44921875,-763.671875,0.0,0,0
1771938601.8601751,1771938601.78515,239.74609375,245.1171875,-422.8515625,238.76953125,0.0,0,0
1771938601.8602822,1771938601.7890267,-1000.0,-989.74609375,-887.6953125,-993.65234375,0.0,0,0
1771938601.860359,1771938601.7929037,-1000.0,-1000.0,-302.734375,-1000.0,0.0,0,0
1771938601.860422,1771938601.7967803,24.4140625,-55.6640625,566.40625,-51.7578125,0.0,0,0
1771938601.906394,1771938601.8009462,-811.5234375,-794.43359375,741.2109375,-793.45703125,0.0,0,0
1771938601.906525,1771938601.8048232,407.71484375,433.10546875,-291.9921875,423.828125,0.0,0,0
1771938601.906564,1771938601.8086998,-917.96875,-897.4609375,-918.45703125,-902.34375,0.0,0,0
1771938601.9065979,1771938601.8125765,-1000.0,-1000.0,-430.6640625,-1000.0,0.0,0,0
1771938601.906633,1771938601.8164535,-133.30078125,-229.00390625,493.1640625,-225.5859375,0.0,0,0
1771938601.906668,1771938601.8203301,-877.44140625,-882.32421875,780.76171875,-879.8828125,0.0,0,0
1771938601.906702,1771938601.8242068,608.88671875,667.96875,-98.14453125,662.59765625,0.0,0,0
1771938601.906741,1771938601.8280838,-747.0703125,-723.6328125,-905.76171875,-728.02734375,0.0,0,0
1771938601.9067788,1771938601.8319604,-1000.0,-1000.0,-602.05078125,-1000.0,0.0,0,0
1771938601.906819,1771938601.8358371,-151.3671875,-202.1484375,457.03125,-201.66015625,0.0,0,0
1771938601.90686,1771938601.8397138,-932.12890625,-948.73046875,810.05859375,-949.70703125,0.0,0,0
1771938601.9069052,1771938601.8435907,811.03515625,893.5546875,66.40625,895.99609375,0.0,0,0
1771938601.951751,1771938601.8478425,-477.05078125,-415.52734375,-804.6875,-411.62109375,0.0,0,0
1771938601.9519,1771938601.8517191,-1000.0,-1000.0,-673.33984375,-1000.0,0.0,0,0
1771938601.9519591,1771938601.855596,-167.96875,-172.8515625,444.82421875,-174.8046875,0.0,0,0
1771938601.952018,1771938601.8594728,-981.93359375,999.51171875,834.47265625,-996.58203125,0.0,0,0
1771938601.952085,1771938601.8633497,953.125,-959.9609375,217.28515625,-966.796875,0.0,0,0
1771938601.9521458,1771938601.8672266,-192.3828125,-73.73046875,-652.83203125,-101.07421875,0.0,0,0
1771938601.952204,1771938601.8711033,-1000.0,-1000.0,-777.83203125,-1000.0,0.0,0,0
1771938601.952259,1771938601.8749802,-337.40234375,-350.5859375,297.8515625,-339.35546875,0.0,0,0
1771938601.9523358,1771938601.878857,946.2890625,924.31640625,888.671875,929.19921875,0.0,0,0
1771938601.952412,1771938601.8827338,-980.46875,-905.76171875,330.078125,-909.66796875,0.0,0,0
1771938601.952487,1771938601.8866105,-18.5546875,98.14453125,-595.21484375,83.0078125,0.0,0,0
1771938601.952554,1771938601.8904874,-1000.0,-1000.0,-791.50390625,-1000.0,0.0,0,0
1771938601.996047,1771938601.8947268,-518.5546875,-542.48046875,168.45703125,-530.2734375,0.0,0,0
1771938601.996181,1771938601.8986037,838.8671875,827.1484375,892.08984375,832.51953125,0.0,0,0
1771938601.996227,1771938601.9024806,-899.4140625,-858.3984375,452.1484375,-864.74609375,0.0,0,0
1771938601.9962702,1771938601.9063575,104.4921875,204.1015625,-547.8515625,196.77734375,0.0,0,0
1771938601.996329,1771938601.9102345,-1000.0,-1000.0,-780.2734375,-1000.0,0.0,0,0
1771938601.996372,1771938601.9141111,-661.1328125,-419.43359375,66.89453125,-728.515625,0.0,0,0
1771938601.9964218,1771938601.917988,692.3828125,913.57421875,845.21484375,656.73828125,0.0,0,0
1771938601.996463,1771938601.921865,-867.67578125,-887.6953125,550.29296875,-824.70703125,0.0,0,0
1771938601.9965272,1771938601.925742,83.49609375,178.7109375,-543.45703125,159.1796875,0.0,0,0
1771938601.996594,1771938601.9296188,-1000.0,-1000.0,-816.40625,-1000.0,0.0,0,0
1771938601.996634,1771938601.9334958,-921.38671875,-993.1640625,-135.7421875,-995.60546875,0.0,0,0
1771938601.996684,1771938601.9373727,318.359375,260.25390625,703.125,257.8125,0.0,0,0
1771938602.0412521,1771938601.9415987,-795.8984375,-771.484375,685.05859375,-771.484375,0.0,0,0
1771938602.0413928,1771938601.9454756,152.83203125,186.5234375,-455.56640625,172.8515625,0.0,0,0
1771938602.041443,1771938601.9493525,-1000.0,-1000.0,-868.1640625,-1000.0,0.0,0,0
1771938602.041485,1771938601.9532297,-1000.0,-1000.0,-274.90234375,-1000.0,0.0,0,0
1771938602.041524,1771938601.9571066,62.5,2.9296875,582.51953125,10.7421875,0.0,0,0
1771938602.041567,1771938601.9609835,-793.9453125,-778.80859375,751.46484375,-777.83203125,0.0,0,0
1771938602.041611,1771938601.9648604,316.89453125,347.65625,-335.44921875,353.515625,0.0,0,0
1771938602.041653,1771938601.9687374,-963.8671875,-943.84765625,-910.64453125,-939.453125,0.0,0,0
1771938602.0417469,1771938601.9726143,-1000.0,-1000.0,-386.23046875,-1000.0,0.0,0,0
1771938602.0418,1771938601.9764912,-84.9609375,-162.109375,508.30078125,-165.0390625,0.0,0,0
1771938602.041846,1771938601.9803681,-845.21484375,-830.56640625,772.4609375,-833.0078125,0.0,0,0
1771938602.041891,1771938601.9842453,521.484375,535.15625,-182.12890625,537.59765625,0.0,0,0
1771938602.0865762,1771938601.9884574,-841.30859375,-849.12109375,-921.38671875,-843.75,0.0,0,0
1771938602.086678,1771938601.9923346,-1000.0,-1000.0,-501.953125,-1000.0,0.0,0,0
1771938602.086731,1771938601.9962115,-130.859375,-218.75,479.00390625,-218.75,0.0,0,0
1771938602.086773,1771938602.0000885,-912.59765625,-918.9453125,801.7578125,-919.921875,0.0,0,0
1771938602.086816,1771938602.0039656,747.0703125,791.50390625,26.85546875,795.8984375,0.0,0,0
1771938602.086858,1771938602.0078425,-587.890625,-568.359375,-843.75,-562.01171875,0.0,0,0
1771938602.086901,1771938602.0117197,-1000.0,-1000.0,-638.18359375,-1000.0,0.0,0,0
1771938602.0869389,1771938602.0155966,-127.9296875,-182.12890625,456.54296875,-182.6171875,0.0,0,0
1771938602.0872362,1771938602.0194736,-966.30859375,-986.81640625,807.6171875,-984.86328125,0.0,0,0
1771938602.087283,1771938602.0233507,923.828125,-991.2109375,142.578125,-996.09375,0.0,0,0
1771938602.087324,1771938602.0272276,-282.71484375,-195.80078125,-721.6796875,-205.56640625,0.0,0,0
1771938602.0873668,1771938602.0311048,-1000.0,-1000.0,-709.47265625,-1000.0,0.0,0,0
1771938602.1308422,1771938602.0353055,-225.09765625,-257.32421875,409.1796875,-251.953125,0.0,0,0
1771938602.130959,1771938602.0391827,987.3046875,966.30859375,863.28125,968.75,0.0,0,0
1771938602.1310039,1771938602.0430596,983.88671875,-932.6171875,269.53125,-935.05859375,0.0,0,0
1771938602.131047,1771938602.0469368,-101.5625,7.32421875,-629.8828125,1.953125,0.0,0,0
1771938602.13109,1771938602.050814,-1000.0,-1000.0,-761.23046875,-1000.0,0.0,0,0
1771938602.1311302,1771938602.0546908,-424.8046875,-446.2890625,275.87890625,-443.84765625,0.0,0,0
1771938602.1311738,1771938602.058568,910.15625,899.4140625,897.94921875,879.39453125,0.0,0,0
1771938602.1312158,1771938602.0624452,-976.07421875,-905.2734375,376.46484375,-884.27734375,0.0,0,0
1771938602.131259,1771938602.066322,-13.18359375,2.44140625,-587.890625,150.87890625,0.0,0,0
1771938602.131317,1771938602.0701993,-1000.0,-1000.0,-772.4609375,-1000.0,0.0,0,0
1771938602.1313548,1771938602.0740762,-634.765625,-648.4375,124.51171875,-667.96875,0.0,0,0
1771938602.131397,1771938602.0779533,729.4921875,705.078125,872.55859375,714.84375,0.0,0,0
1771938602.1758149,1771938602.08214,-891.6015625,-833.984375,516.11328125,-836.9140625,0.0,0,0
1771938602.1759071,1771938602.0860171,60.546875,171.38671875,-535.64453125,171.875,0.0,0,0
1771938602.17595,1771938602.0898943,-1000.0,-1000.0,-796.38671875,-1000.0,0.0,0,0
1771938602.1759849,1771938602.0937715,-874.51171875,-920.8984375,-91.30859375,-914.55078125,0.0,0,0
1771938602.176022,1771938602.0976486,419.921875,391.11328125,737.3046875,400.390625,0.0,0,0
1771938602.176058,1771938602.1015258,-808.10546875,-785.15625,696.2890625,-786.62109375,0.0,0,0
1771938602.176095,1771938602.1054027,101.5625,143.06640625,-455.56640625,143.5546875,0.0,0,0
1771938602.176131,1771938602.1092799,-1000.0,-1000.0,-852.5390625,-1000.0,0.0,0,0
1771938602.1761642,1771938602.113157,-994.62890625,-1000.0,-201.66015625,-1000.0,0.0,0,0
1771938602.176199,1771938602.1170342,163.0859375,81.54296875,640.13671875,89.84375,0.0,0,0
1771938602.176235,1771938602.1209114,-793.9453125,-767.08984375,736.328125,-767.08984375,0.0,0,0
1771938602.17627,1771938602.1247885,227.5390625,271.484375,-387.6953125,277.34375,0.0,0,0
1771938602.235011,1771938602.128962,-1000.0,-980.46875,-905.76171875,-975.5859375,0.0,0,0
1771938602.235151,1771938602.1328392,-1000.0,-1000.0,-320.80078125,-1000.0,0.0,0,0
1771938602.2352152,1771938602.1367164,4.8828125,-84.47265625,560.05859375,-93.75,0.0,0,0
1771938602.2352781,1771938602.1405938,-821.77734375,-803.22265625,750.0,-806.15234375,0.0,0,0
1771938602.235337,1771938602.144471,410.64453125,456.54296875,-267.578125,464.35546875,0.0,0,0
1771938602.2353978,1771938602.148348,-914.0625,-886.23046875,-917.96875,-882.8125,0.0,0,0
1771938602.2354581,1771938602.1522253,-1000.0,-1000.0,-468.26171875,-1000.0,0.0,0,0
1771938602.23552,1771938602.1561024,-141.11328125,-231.93359375,467.28515625,-230.46875,0.0,0,0
1771938602.235592,1771938602.1599796,-887.6953125,-893.5546875,765.625,-896.484375,0.0,0,0
1771938602.235677,1771938602.1638567,638.671875,703.125,-103.02734375,714.35546875,0.0,0,0
1771938602.2357519,1771938602.167734,-710.9375,-683.10546875,-884.27734375,-668.45703125,0.0,0,0
1771938602.235828,1771938602.171611,-1000.0,-1000.0,-574.21875,-1000.0,0.0,0,0
1771938602.282059,1771938602.1757727,-144.53125,-198.2421875,473.6328125,-197.265625,0.0,0,0
1771938602.282188,1771938602.17965,-940.4296875,-955.56640625,797.36328125,-957.03125,0.0,0,0
1771938602.2822511,1771938602.1835272,826.171875,917.48046875,83.0078125,922.8515625,0.0,0,0
1771938602.282315,1771938602.1874044,-439.94140625,-378.90625,-779.296875,-368.1640625,0.0,0,0
1771938602.2823732,1771938602.1912818,-1000.0,-1000.0,-692.3828125,-1000.0,0.0,0,0
1771938602.2824268,1771938602.195159,-180.6640625,-178.22265625,447.265625,-174.31640625,0.0,0,0
1771938602.282485,1771938602.1990361,-974.609375,-988.76953125,853.02734375,-996.58203125,0.0,0,0
1771938602.2825441,1771938602.2029135,919.921875,-982.91015625,199.70703125,-964.84375,0.0,0,0
1771938602.282602,1771938602.2067907,-225.5859375,-140.625,-685.05859375,-91.796875,0.0,0,0
1771938602.282659,1771938602.2106678,-1000.0,-1000.0,-757.8125,-1000.0,0.0,0,0
1771938602.282712,1771938602.214545,-353.02734375,-362.79296875,307.12890625,-354.98046875,0.0,0,0
1771938602.2827709,1771938602.2184224,937.01171875,912.109375,883.30078125,920.41015625,0.0,0,0
1771938602.326545,1771938602.2226737,-973.6328125,-901.3671875,343.75,-904.296875,0.0,0,0
1771938602.326655,1771938602.226551,-2.9296875,109.375,-585.44921875,102.5390625,0.0,0,0
1771938602.326703,1771938602.2304282,-1000.0,-1000.0,-781.25,-1000.0,0.0,0,0
1771938602.326742,1771938602.2343056,-538.0859375,-558.59375,170.8984375,-550.29296875,0.0,0,0
1771938602.326785,1771938602.2381828,828.61328125,818.84765625,886.23046875,822.75390625,0.0,0,0
1771938602.326829,1771938602.2420602,-923.33984375,-858.88671875,458.984375,-860.3515625,0.0,0,0
1771938602.326872,1771938602.2459373,56.15234375,186.5234375,-551.26953125,187.98828125,0.0,0,0
1771938602.326918,1771938602.2498147,-1000.0,-1000.0,-785.15625,-1000.0,0.0,0,0
1771938602.326956,1771938602.2536922,-767.08984375,-827.63671875,0.9765625,-815.4296875,0.0,0,0
1771938602.326999,1771938602.2575693,568.84765625,530.2734375,800.29296875,546.875,0.0,0,0
1771938602.327049,1771938602.2614467,-838.37890625,-803.7109375,586.9140625,-806.640625,0.0,0,0
1771938602.3271098,1771938602.2653239,88.8671875,151.3671875,-521.484375,152.83203125,0.0,0,0
1771938602.371445,1771938602.2695622,-1000.0,-1000.0,-829.1015625,-1000.0,0.0,0,0
1771938602.371538,1771938602.2734396,-950.68359375,-1000.0,-169.921875,-1000.0,0.0,0,0
1771938602.371596,1771938602.277317,268.5546875,187.98828125,679.6875,203.125,0.0,0,0
1771938602.371653,1771938602.2811944,-796.875,-765.625,689.94140625,-767.08984375,0.0,0,0
1771938602.371711,1771938602.2850718,159.66796875,206.54296875,-463.8671875,200.68359375,0.0,0,0
1771938602.3717701,1771938602.288949,-1000.0,-1000.0,-881.8359375,-1000.0,0.0,0,0
1771938602.371824,1771938602.2928264,-1000.0,-1000.0,-282.71484375,-1000.0,0.0,0,0
1771938602.3718789,1771938602.2967038,57.6171875,-25.87890625,577.1484375,-19.53125,0.0,0,0
1771938602.3719418,1771938602.3005812,-801.26953125,-785.64453125,728.515625,-784.66796875,0.0,0,0
1771938602.3720021,1771938602.3044586,344.23828125,385.7421875,-335.9375,383.7890625,0.0,0,0
1771938602.3720598,1771938602.308336,-951.66015625,-921.38671875,-905.2734375,-922.8515625,0.0,0,0
1771938602.372137,1771938602.3122134,-1000.0,-1000.0,-375.48828125,-1000.0,0.0,0,0
1771938602.446603,1771938602.3165405,-101.07421875,-208.984375,507.8125,-197.75390625,0.0,0,0
1771938602.446675,1771938602.320418,-860.3515625,-856.4453125,771.97265625,-854.98046875,0.0,0,0
1771938602.446699,1771938602.3242953,549.31640625,587.890625,-170.41015625,592.7734375,0.0,0,0
1771938602.446717,1771938602.3281727,-819.82421875,-803.7109375,-926.26953125,-795.8984375,0.0,0,0
1771938602.4467351,1771938602.33205,-1000.0,-1000.0,-513.18359375,-1000.0,0.0,0,0
1771938602.446752,1771938602.3359277,-120.60546875,-215.8203125,492.1875,-211.42578125,0.0,0,0
1771938602.44677,1771938602.3398051,-918.9453125,-921.38671875,769.04296875,-932.12890625,0.0,0,0
1771938602.446788,1771938602.3436825,747.55859375,802.24609375,-12.20703125,837.890625,0.0,0,0
1771938602.446806,1771938602.34756,-572.75390625,-554.19921875,-837.40234375,-500.9765625,0.0,0,0
1771938602.446823,1771938602.3514373,-1000.0,-1000.0,-635.25390625,-1000.0,0.0,0,0
1771938602.446839,1771938602.355315,-122.55859375,-179.19921875,480.95703125,-178.7109375,0.0,0,0
1771938602.446856,1771938602.3591924,-962.40234375,-992.1875,823.73046875,-991.2109375,0.0,0,0
1771938602.460483,1771938602.363409,896.97265625,-979.00390625,147.94921875,-978.515625,0.0,0,0
1771938602.460611,1771938602.3672864,-285.15625,-161.62109375,-717.7734375,-157.71484375,0.0,0,0
1771938602.4606311,1771938602.3711638,-1000.0,-1000.0,-731.93359375,-1000.0,0.0,0,0
1771938602.4606452,1771938602.3750415,-278.80859375,-280.76171875,367.67578125,-283.203125,0.0,0,0
1771938602.460659,1771938602.378919,973.6328125,956.0546875,866.2109375,956.54296875,0.0,0,0
1771938602.460673,1771938602.3827965,998.046875,-925.29296875,295.41015625,-926.26953125,0.0,0,0
1771938602.4606879,1771938602.386674,-72.75390625,31.73828125,-606.93359375,23.92578125,0.0,0,0
1771938602.460702,1771938602.3905516,-1000.0,-1000.0,-810.546875,-1000.0,0.0,0,0
1771938602.460715,1771938602.394429,-447.265625,-470.703125,199.70703125,-458.984375,0.0,0,0
1771938602.4607282,1771938602.3983066,887.20703125,862.79296875,891.6015625,869.62890625,0.0,0,0
1771938602.460742,1771938602.402184,-932.6171875,-875.48828125,406.25,-878.41796875,0.0,0,0
1771938602.4607549,1771938602.4060616,71.77734375,197.265625,-545.8984375,191.40625,0.0,0,0
1771938602.5054479,1771938602.4102607,-1000.0,-1000.0,-788.57421875,-1000.0,0.0,0,0
1771938602.5054982,1771938602.4141383,-665.0390625,-709.47265625,76.66015625,-701.66015625,0.0,0,0
1771938602.5055192,1771938602.418016,700.68359375,681.640625,861.328125,687.98828125,0.0,0,0
1771938602.5055392,1771938602.4218934,-880.859375,-830.078125,522.94921875,-831.54296875,0.0,0,0
1771938602.505557,1771938602.425771,69.3359375,166.50390625,-518.06640625,167.96875,0.0,0,0
1771938602.505575,1771938602.4296486,-1000.0,-1000.0,-754.8828125,-1000.0,0.0,0,0
1771938602.505592,1771938602.433526,-875.0,-948.73046875,-88.37890625,-937.01171875,0.0,0,0
1771938602.505609,1771938602.4374037,403.3203125,348.14453125,728.515625,366.2109375,0.0,0,0
1771938602.5056262,1771938602.4412813,-805.6640625,-779.78515625,651.3671875,-781.73828125,0.0,0,0
1771938602.505643,1771938602.4451587,122.0703125,141.6015625,-502.9296875,142.08984375,0.0,0,0
1771938602.5056598,1771938602.4490364,-1000.0,-1000.0,-851.07421875,-1000.0,0.0,0,0
1771938602.505676,1771938602.452914,-970.21484375,-1000.0,-226.07421875,-1000.0,0.0,0,0
1771938602.5521731,1771938602.4570992,170.41015625,59.08203125,616.2109375,67.87109375,0.0,0,0
1771938602.5522099,1771938602.4609768,-792.96875,-769.53125,733.3984375,-768.5546875,0.0,0,0
1771938602.552232,1771938602.4648545,284.66796875,306.640625,-372.0703125,301.26953125,0.0,0,0
1771938602.5522518,1771938602.468732,-982.421875,-961.9140625,-892.08984375,-963.8671875,0.0,0,0
1771938602.5522728,1771938602.4726098,-1000.0,-1000.0,-320.80078125,-1000.0,0.0,0,0
1771938602.552292,1771938602.4764874,-31.73828125,-118.65234375,547.8515625,-118.1640625,0.0,0,0
1771938602.552313,1771938602.480365,-823.2421875,-802.24609375,761.71875,-811.5234375,0.0,0,0
1771938602.552333,1771938602.4842427,407.2265625,300.78125,-259.27734375,459.9609375,0.0,0,0
1771938602.552353,1771938602.4881203,-923.828125,-969.23828125,-936.5234375,-888.671875,0.0,0,0
1771938602.552373,1771938602.491998,-1000.0,-1000.0,-458.49609375,-1000.0,0.0,0,0
1771938602.552392,1771938602.4958756,-118.1640625,-244.62890625,486.81640625,-229.00390625,0.0,0,0
1771938602.5524118,1771938602.499753,-895.01953125,-891.11328125,780.76171875,-902.34375,0.0,0,0
1771938602.59696,1771938602.5039268,668.9453125,709.9609375,-63.4765625,736.81640625,0.0,0,0
1771938602.597006,1771938602.5078044,-687.01171875,-674.31640625,-882.32421875,-639.16015625,0.0,0,0
1771938602.5970402,1771938602.5116823,-1000.0,-1000.0,-581.0546875,-1000.0,0.0,0,0
1771938602.597066,1771938602.51556,-121.09375,-190.4296875,483.88671875,-191.40625,0.0,0,0
1771938602.597095,1771938602.5194376,-953.125,-973.6328125,796.875,-968.75,0.0,0,0
1771938602.597122,1771938602.5233152,884.765625,967.7734375,126.46484375,956.0546875,0.0,0,0
1771938602.597151,1771938602.5271928,-358.88671875,-278.3203125,-738.76953125,-302.24609375,0.0,0,0
1771938602.597179,1771938602.5310705,-1000.0,-1000.0,-714.84375,-1000.0,0.0,0,0
1771938602.597205,1771938602.534948,-224.12109375,-224.12109375,404.296875,-210.44921875,0.0,0,0
1771938602.5972328,1771938602.538826,-999.51171875,983.3984375,857.421875,986.81640625,0.0,0,0
1771938602.5972621,1771938602.5427036,969.7265625,-948.2421875,236.81640625,-950.1953125,0.0,0,0
1771938602.59729,1771938602.5465813,-152.34375,-49.8046875,-650.87890625,-47.8515625,0.0,0,0
1771938602.6570292,1771938602.5507379,-1000.0,-1000.0,-775.390625,-1000.0,0.0,0,0
1771938602.6571572,1771938602.5546157,-375.48828125,-397.4609375,284.66796875,-395.01953125,0.0,0,0
1771938602.657207,1771938602.5584934,921.875,900.390625,878.90625,901.85546875,0.0,0,0
1771938602.657249,1771938602.562371,-958.49609375,-894.04296875,338.8671875,-895.01953125,0.0,0,0
1771938602.657295,1771938602.566249,31.73828125,130.37109375,-575.1953125,128.41796875,0.0,0,0
1771938602.6573381,1771938602.5701265,-1000.0,-1000.0,-762.6953125,-1000.0,0.0,0,0
1771938602.657378,1771938602.5740044,-561.03515625,-568.359375,162.59765625,-583.49609375,0.0,0,0
1771938602.65742,1771938602.577882,807.6171875,816.40625,880.37109375,799.31640625,0.0,0,0
1771938602.657483,1771938602.5817597,-911.62109375,-857.91015625,477.05078125,-854.98046875,0.0,0,0
1771938602.657527,1771938602.5856376,66.40625,184.5703125,-545.41015625,184.5703125,0.0,0,0
1771938602.657571,1771938602.5895152,-1000.0,-1000.0,-803.22265625,-1000.0,0.0,0,0
1771938602.657609,1771938602.5933928,-783.203125,-845.21484375,-38.57421875,-834.47265625,0.0,0,0
1771938602.7324438,1771938602.5978248,541.9921875,507.8125,794.43359375,521.484375,0.0,0,0
1771938602.732566,1771938602.6017027,-833.0078125,-801.26953125,605.46875,-802.24609375,0.0,0,0
1771938602.7326238,1771938602.6055803,93.26171875,153.3203125,-523.4375,150.390625,0.0,0,0
1771938602.732682,1771938602.6094582,-1000.0,-1000.0,-832.51953125,-1000.0,0.0,0,0
1771938602.732735,1771938602.613336,-953.125,-1000.0,-167.96875,-1000.0,0.0,0,0
1771938602.732788,1771938602.617214,253.90625,218.75,677.24609375,179.6875,0.0,0,0
1771938602.732845,1771938602.6210918,-792.96875,-767.08984375,680.6640625,-764.6484375,0.0,0,0
1771938602.732903,1771938602.6249695,188.4765625,216.30859375,-447.265625,215.8203125,0.0,0,0
1771938602.7329621,1771938602.6288474,-1000.0,-999.51171875,-891.11328125,-1000.0,0.0,0,0
1771938602.7330172,1771938602.6327252,-1000.0,-1000.0,-291.015625,-1000.0,0.0,0,0
1771938602.7330701,1771938602.636603,41.015625,-41.50390625,584.47265625,-35.64453125,0.0,0,0
1771938602.733126,1771938602.6404808,-804.6875,-790.0390625,750.48828125,-789.0625,0.0,0,0
1771938602.746321,1771938602.6447148,380.859375,409.1796875,-297.8515625,405.2734375,0.0,0,0
1771938602.746412,1771938602.6485927,-933.59375,-908.69140625,-930.17578125,-911.62109375,0.0,0,0
1771938602.746461,1771938602.6524706,-1000.0,-1000.0,-443.84765625,-1000.0,0.0,0,0
1771938602.7465038,1771938602.6563485,-117.67578125,-226.07421875,477.5390625,-213.8671875,0.0,0,0
1771938602.746547,1771938602.6602263,-871.09375,-876.46484375,784.1796875,-870.1171875,0.0,0,0
1771938602.74659,1771938602.6641042,596.19140625,649.90234375,-98.14453125,636.71875,0.0,0,0
1771938602.746635,1771938602.667982,-766.11328125,-741.69921875,-896.97265625,-753.41796875,0.0,0,0
1771938602.7466822,1771938602.67186,-1000.0,-1000.0,-560.05859375,-1000.0,0.0,0,0
1771938602.746725,1771938602.6757379,-154.78515625,-203.61328125,464.84375,-205.078125,0.0,0,0
1771938602.746769,1771938602.6796157,-929.19921875,-946.77734375,791.50390625,-944.3359375,0.0,0,0
1771938602.7468128,1771938602.6834936,796.38671875,887.20703125,37.59765625,878.90625,0.0,0,0
1771938602.746858,1771938602.6873715,-501.953125,-425.29296875,-812.5,-437.98828125,0.0,0,0
1771938602.7926168,1771938602.6915963,-1000.0,-1000.0,-660.64453125,-1000.0,0.0,0,0
1771938602.7927418,1771938602.6954741,-150.87890625,-175.78125,462.890625,-176.7578125,0.0,0,0
1771938602.7927911,1771938602.6993523,-972.65625,-995.1171875,820.3125,-994.140625,0.0,0,0
1771938602.7928379,1771938602.7032301,927.24609375,-969.23828125,182.12890625,-971.6796875,0.0,0,0
1771938602.792883,1771938602.707108,-232.421875,-112.79296875,-668.9453125,-125.0,0.0,0,0
1771938602.793101,1771938602.710986,-1000.0,-1000.0,-726.5625,-1000.0,0.0,0,0
1771938602.7931452,1771938602.714864,-303.7109375,-334.9609375,353.02734375,-317.3828125,0.0,0,0
1771938602.793195,1771938602.718742,953.125,932.6171875,871.09375,939.94140625,0.0,0,0
1771938602.79324,1771938602.7226198,-960.9375,-912.59765625,324.21875,-916.50390625,0.0,0,0
1771938602.793282,1771938602.726498,-13.18359375,61.03515625,-589.84375,57.12890625,0.0,0,0
1771938602.793323,1771938602.7303758,-1000.0,-1000.0,-783.69140625,-1000.0,0.0,0,0
1771938602.793361,1771938602.7342536,-470.21484375,-503.90625,215.8203125,-500.0,0.0,0,0
1771938602.836295,1771938602.7384608,873.046875,846.19140625,893.06640625,848.14453125,0.0,0,0
1771938602.83642,1771938602.742339,-931.15234375,-869.140625,429.6875,-869.62890625,0.0,0,0
1771938602.8364701,1771938602.7462168,69.3359375,195.80078125,-537.59765625,197.265625,0.0,0,0
1771938602.8365152,1771938602.750095,-1000.0,-1000.0,-785.15625,-1000.0,0.0,0,0
1771938602.836554,1771938602.753973,-716.30859375,-764.16015625,41.50390625,-752.9296875,0.0,0,0
1771938602.836601,1771938602.757851,645.5078125,613.76953125,830.56640625,628.41796875,0.0,0,0
1771938602.8366442,1771938602.761729,-860.3515625,-818.359375,552.24609375,-820.80078125,0.0,0,0
1771938602.836687,1771938602.7656069,78.61328125,161.62109375,-532.71484375,162.109375,0.0,0,0
1771938602.836731,1771938602.769485,-1000.0,-1000.0,-817.87109375,-1000.0,0.0,0,0
1771938602.83677,1771938602.7733629,-896.97265625,-975.09765625,-116.2109375,-972.65625,0.0,0,0
1771938602.836813,1771938602.777241,359.86328125,301.7578125,725.09765625,306.15234375,0.0,0,0
1771938602.836855,1771938602.7811189,-802.24609375,-775.87890625,660.15625,-775.87890625,0.0,0,0
1771938602.881527,1771938602.7853148,132.32421875,141.11328125,-489.2578125,141.6015625,0.0,0,0
1771938602.881648,1771938602.789193,-1000.0,-1000.0,-858.88671875,-1000.0,0.0,0,0
1771938602.881695,1771938602.793071,-979.4921875,-1000.0,-218.75,-1000.0,0.0,0,0
1771938602.881737,1771938602.7969491,145.99609375,44.43359375,620.1171875,49.31640625,0.0,0,0
1771938602.8817868,1771938602.800827,-794.43359375,-770.99609375,732.91015625,-770.5078125,0.0,0,0
1771938602.881832,1771938602.8047051,317.3828125,336.42578125,-340.33203125,319.82421875,0.0,0,0
1771938602.881878,1771938602.8085833,-967.28515625,-945.80078125,-901.3671875,-954.58984375,0.0,0,0
1771938602.8819242,1771938602.8124614,-1000.0,-1000.0,-375.48828125,-1000.0,0.0,0,0
1771938602.881971,1771938602.8163393,-61.5234375,-150.390625,508.30078125,-139.16015625,0.0,0,0
1771938602.8820322,1771938602.8202174,-837.40234375,-824.21875,784.1796875,-821.77734375,0.0,0,0
1771938602.8820841,1771938602.8240955,484.375,506.8359375,-180.6640625,510.25390625,0.0,0,0
1771938602.882126,1771938602.8279736,-876.46484375,-865.234375,-934.08203125,-860.83984375,0.0,0,0
1771938602.9256902,1771938602.8321555,-1000.0,-1000.0,-500.0,-1000.0,0.0,0,0
1771938602.925749,1771938602.8360336,-118.65234375,-222.65625,488.76953125,-222.16796875,0.0,0,0
1771938602.9257758,1771938602.8399117,-905.2734375,-913.57421875,788.0859375,-914.0625,0.0,0,0
1771938602.925801,1771938602.8437898,707.03125,773.92578125,-40.52734375,775.390625,0.0,0,0
1771938602.925843,1771938602.847668,-634.27734375,-590.8203125,-865.72265625,-588.8671875,0.0,0,0
1771938602.9258702,1771938602.851546,-1000.0,-1000.0,-578.61328125,-1000.0,0.0,0,0
1771938602.925948,1771938602.8554242,-131.34765625,-208.0078125,502.9296875,-189.453125,0.0,0,0
1771938602.925976,1771938602.8593023,-943.84765625,-919.921875,792.96875,-971.19140625,0.0,0,0
1771938602.926,1771938602.8631804,842.7734375,797.8515625,78.125,964.35546875,0.0,0,0
1771938602.926025,1771938602.8670585,-402.34375,-540.0390625,-762.20703125,-283.203125,0.0,0,0
1771938602.9260879,1771938602.8709366,-1000.0,-1000.0,-705.078125,-1000.0,0.0,0,0
1771938602.9261131,1771938602.8748147,-221.6796875,-234.375,391.6015625,-233.3984375,0.0,0,0
1771938602.983863,1771938602.8789854,-998.046875,971.19140625,860.3515625,976.07421875,0.0,0,0
1771938602.983902,1771938602.8828638,947.265625,-946.77734375,253.90625,-941.89453125,0.0,0,0
1771938602.983916,1771938602.8867419,-168.45703125,-44.43359375,-669.921875,-22.94921875,0.0,0,0
1771938602.983928,1771938602.89062,-1000.0,-1000.0,-753.90625,-1000.0,0.0,0,0
1771938602.9839392,1771938602.894498,-405.76171875,-434.08203125,285.64453125,-424.8046875,0.0,0,0
1771938602.983951,1771938602.8983762,908.203125,882.8125,889.6484375,886.23046875,0.0,0,0
1771938602.9839628,1771938602.9022546,-955.078125,-887.6953125,350.09765625,-887.20703125,0.0,0,0
1771938602.9839969,1771938602.9061327,34.1796875,117.67578125,-588.8671875,152.83203125,0.0,0,0
1771938602.9840262,1771938602.9100108,-1000.0,-1000.0,-797.36328125,-1000.0,0.0,0,0
1771938602.98404,1771938602.913889,-596.6796875,-636.23046875,98.14453125,-636.71875,0.0,0,0
1771938602.984053,1771938602.917767,766.6015625,741.2109375,875.48828125,748.53515625,0.0,0,0
1771938602.984065,1771938602.9216454,-883.30078125,-842.28515625,504.8828125,-844.23828125,0.0,0,0
1771938603.044801,1771938602.9258964,98.6328125,177.24609375,-534.1796875,177.24609375,0.0,0,0
1771938603.0448608,1771938602.9297748,-1000.0,-1000.0,-793.9453125,-1000.0,0.0,0,0
1771938603.044873,1771938602.9336529,-805.6640625,-877.44140625,-33.69140625,-881.34765625,0.0,0,0
1771938603.044884,1771938602.9375312,510.7421875,458.0078125,791.015625,451.66015625,0.0,0,0
1771938603.044896,1771938602.9414093,-831.0546875,-792.48046875,620.1171875,-792.48046875,0.0,0,0
1771938603.044907,1771938602.9452877,92.7734375,144.04296875,-510.7421875,145.5078125,0.0,0,0
1771938603.044917,1771938602.9491658,-1000.0,-1000.0,-831.0546875,-1000.0,0.0,0,0
1771938603.044926,1771938602.9530442,-984.375,-1000.0,-227.5390625,-1000.0,0.0,0,0
1771938603.044935,1771938602.9569223,196.2890625,95.21484375,628.41796875,118.65234375,0.0,0,0
1771938603.044945,1771938602.9608004,-791.50390625,-765.625,729.4921875,-764.16015625,0.0,0,0
1771938603.0449548,1771938602.9646788,209.9609375,248.046875,-418.45703125,237.79296875,0.0,0,0
1771938603.044981,1771938602.968557,-1000.0,-992.1875,-881.34765625,-992.67578125,0.0,0,0
1771938603.076747,1771938602.9727902,-1000.0,-1000.0,-274.90234375,-1000.0,0.0,0,0
1771938603.076791,1771938602.9766686,36.1328125,-63.96484375,573.2421875,-70.80078125,0.0,0,0
1771938603.0768042,1771938602.9805467,-814.453125,-795.41015625,752.44140625,-796.38671875,0.0,0,0
1771938603.0768151,1771938602.984425,396.484375,426.26953125,-289.55078125,423.828125,0.0,0,0
1771938603.076826,1771938602.9883034,-928.22265625,-901.3671875,-914.0625,-904.296875,0.0,0,0
1771938603.076836,1771938602.9921815,-1000.0,-1000.0,-385.25390625,-1000.0,0.0,0,0
1771938603.0768461,1771938602.99606,-114.2578125,-237.79296875,504.8828125,-230.95703125,0.0,0,0
1771938603.0768561,1771938602.9999382,-880.37109375,-881.8359375,753.41796875,-879.8828125,0.0,0,0
1771938603.076867,1771938603.0038166,607.91015625,658.69140625,-143.06640625,658.69140625,0.0,0,0
1771938603.076877,1771938603.0076947,-757.32421875,-735.3515625,-897.94921875,-733.88671875,0.0,0,0
1771938603.076888,1771938603.011573,-1000.0,-1000.0,-534.1796875,-1000.0,0.0,0,0
1771938603.076897,1771938603.0154514,-137.20703125,-201.171875,481.4453125,-202.1484375,0.0,0,0
1771938603.120867,1771938603.019676,-928.22265625,-951.66015625,789.55078125,-949.70703125,0.0,0,0
1771938603.120896,1771938603.0235543,775.87890625,904.296875,41.9921875,896.484375,0.0,0,0
1771938603.1209102,1771938603.0274327,-502.44140625,-398.92578125,-806.640625,-410.64453125,0.0,0,0
1771938603.1209228,1771938603.031311,-1000.0,-1000.0,-648.92578125,-1000.0,0.0,0,0
1771938603.120936,1771938603.0351894,-198.73046875,-175.29296875,465.33203125,-175.29296875,0.0,0,0
1771938603.120948,1771938603.0390677,-966.30859375,-995.60546875,838.8671875,-995.60546875,0.0,0,0
1771938603.120961,1771938603.042946,868.1640625,-967.28515625,169.921875,-967.7734375,0.0,0,0
1771938603.120973,1771938603.0468245,-297.8515625,-105.95703125,-706.0546875,-106.93359375,0.0,0,0
1771938603.1209862,1771938603.0507028,-1000.0,-1000.0,-750.9765625,-1000.0,0.0,0,0
1771938603.1210592,1771938603.0545812,-362.79296875,-332.51953125,330.078125,-340.33203125,0.0,0,0
1771938603.121073,1771938603.0584595,949.21875,931.15234375,870.60546875,927.734375,0.0,0,0
1771938603.121085,1771938603.0623379,969.7265625,-910.15625,288.57421875,-909.1796875,0.0,0,0
1771938603.165088,1771938603.0665495,-96.19140625,85.9375,-606.4453125,83.0078125,0.0,0,0
1771938603.165108,1771938603.070428,-1000.0,-1000.0,-783.203125,-1000.0,0.0,0,0
1771938603.165123,1771938603.0743062,-531.73828125,-523.92578125,180.17578125,-528.80859375,0.0,0,0
1771938603.165138,1771938603.0781848,844.23828125,836.9140625,892.08984375,833.49609375,0.0,0,0
1771938603.165153,1771938603.0820632,-956.0546875,-865.234375,437.98828125,-864.2578125,0.0,0,0
1771938603.165168,1771938603.0859416,21.97265625,191.40625,-538.57421875,191.89453125,0.0,0,0
1771938603.165183,1771938603.08982,-1000.0,-1000.0,-802.24609375,-1000.0,0.0,0,0
1771938603.1651971,1771938603.0936983,-748.53515625,-797.8515625,-12.6953125,-788.0859375,0.0,0,0
1771938603.165212,1771938603.0975769,607.421875,569.82421875,825.1953125,582.51953125,0.0,0,0
1771938603.165227,1771938603.1014552,-857.421875,-813.4765625,578.61328125,-812.98828125,0.0,0,0
1771938603.1652422,1771938603.1053336,68.84765625,165.52734375,-529.78515625,158.203125,0.0,0,0
1771938603.165257,1771938603.109212,-1000.0,-1000.0,-821.2890625,-1000.0,0.0,0,0
1771938603.2108579,1771938603.1134162,-907.71484375,-931.640625,-114.2578125,-989.74609375,0.0,0,0
1771938603.210905,1771938603.1172945,343.26171875,368.1640625,730.46875,267.578125,0.0,0,0
1771938603.210921,1771938603.1211731,-808.59375,-782.71484375,655.76171875,-772.4609375,0.0,0,0
1771938603.210937,1771938603.1250515,139.16015625,175.29296875,-492.67578125,178.22265625,0.0,0,0
1771938603.210967,1771938603.12893,-1000.0,-1000.0,-867.67578125,-1000.0,0.0,0,0
1771938603.2109818,1771938603.1328084,-991.2109375,-1000.0,-226.07421875,-1000.0,0.0,0,0
1771938603.210997,1771938603.136687,138.671875,103.515625,633.7890625,24.90234375,0.0,0,0
1771938603.211039,1771938603.1405654,-802.24609375,-769.04296875,708.49609375,-775.87890625,0.0,0,0
1771938603.211087,1771938603.144444,299.8046875,298.33984375,-384.27734375,352.05078125,0.0,0,0
1771938603.211123,1771938603.1483223,-975.5859375,-955.56640625,-918.9453125,-937.5,0.0,0,0
1771938603.211187,1771938603.1522007,-1000.0,-1000.0,-370.60546875,-1000.0,0.0,0,0
1771938603.211204,1771938603.1560793,-21.97265625,-168.9453125,531.25,-172.36328125,0.0,0,0
1771938603.255596,1771938603.1602638,-857.91015625,-837.40234375,753.41796875,-839.35546875,0.0,0,0
1771938603.255629,1771938603.1641421,563.96484375,562.5,-186.5234375,559.5703125,0.0,0,0
1771938603.255646,1771938603.1680207,-823.2421875,-820.3125,-920.8984375,-825.68359375,0.0,0,0
1771938603.2556632,1771938603.1718993,-1000.0,-1000.0,-481.4453125,-1000.0,0.0,0,0
1771938603.255679,1771938603.1757777,-63.96484375,-218.75,516.6015625,-217.28515625,0.0,0,0
1771938603.2556958,1771938603.1796563,-920.8984375,-915.0390625,785.15625,-920.41015625,0.0,0,0
1771938603.255713,1771938603.1835349,759.765625,777.83203125,-12.6953125,797.36328125,0.0,0,0
1771938603.25573,1771938603.1874132,-581.54296875,-585.9375,-853.515625,-560.05859375,0.0,0,0
1771938603.255747,1771938603.1912918,-1000.0,-1000.0,-627.44140625,-1000.0,0.0,0,0
1771938603.2557619,1771938603.1951704,-90.33203125,-183.10546875,463.8671875,-183.10546875,0.0,0,0
1771938603.25578,1771938603.1990488,-970.703125,-985.83984375,828.125,-983.88671875,0.0,0,0
1771938603.255796,1771938603.2029274,936.5234375,-994.140625,159.1796875,-999.51171875,0.0,0,0
1771938603.331895,1771938603.2072973,-270.99609375,-200.68359375,-729.98046875,-210.9375,0.0,0,0
1771938603.33196,1771938603.211176,-1000.0,-1000.0,-700.1953125,-1000.0,0.0,0,0
1771938603.331996,1771938603.2150545,-214.35546875,-261.23046875,410.64453125,-258.30078125,0.0,0,0
1771938603.332028,1771938603.218933,981.93359375,962.40234375,869.140625,966.30859375,0.0,0,0
1771938603.3320582,1771938603.2228117,998.53515625,-929.19921875,281.73828125,-933.59375,0.0,0,0
1771938603.332088,1771938603.2266903,-78.61328125,23.92578125,-624.0234375,3.90625,0.0,0,0
1771938603.332116,1771938603.230569,-1000.0,-1000.0,-761.23046875,-1000.0,0.0,0,0
1771938603.332143,1771938603.2344475,-413.0859375,-457.51953125,267.578125,-447.265625,0.0,0,0
1771938603.332172,1771938603.238326,895.01953125,871.09375,882.32421875,874.51171875,0.0,0,0
1771938603.3322,1771938603.2422047,-923.828125,-879.39453125,384.765625,-881.34765625,0.0,0,0
1771938603.3322308,1771938603.2460833,84.9609375,179.19921875,-555.17578125,177.734375,0.0,0,0
1771938603.3322618,1771938603.2499619,-1000.0,-1000.0,-777.34375,-1000.0,0.0,0,0
1771938603.345804,1771938603.2541282,-620.60546875,-689.94140625,113.28125,-678.22265625,0.0,0,0
1771938603.345859,1771938603.2580068,735.3515625,697.75390625,864.74609375,709.9609375,0.0,0,0
1771938603.345899,1771938603.2618856,-879.39453125,-834.47265625,534.1796875,-835.9375,0.0,0,0
1771938603.345935,1771938603.2657642,91.796875,172.8515625,-514.16015625,171.38671875,0.0,0,0
1771938603.345973,1771938603.2696428,-1000.0,-1000.0,-808.59375,-1000.0,0.0,0,0
1771938603.346006,1771938603.2735214,-833.49609375,-900.390625,-49.8046875,-915.0390625,0.0,0,0
1771938603.3460429,1771938603.2774003,461.42578125,422.8515625,773.4375,399.90234375,0.0,0,0
1771938603.34608,1771938603.2812788,-822.265625,-788.57421875,633.7890625,-786.1328125,0.0,0,0
1771938603.346157,1771938603.2851574,103.02734375,144.04296875,-501.953125,144.04296875,0.0,0,0
1771938603.346242,1771938603.289036,-1000.0,-1000.0,-829.58984375,-1000.0,0.0,0,0
1771938603.3462842,1771938603.2929149,-974.609375,-1000.0,-167.48046875,-1000.0,0.0,0,0
1771938603.346323,1771938603.2967935,186.03515625,89.35546875,648.92578125,91.796875,0.0,0,0
1771938603.4057379,1771938603.300942,-790.52734375,-767.08984375,729.00390625,-766.6015625,0.0,0,0
1771938603.405796,1771938603.3048208,258.7890625,284.66796875,-375.0,281.73828125,0.0,0,0
1771938603.4058182,1771938603.3086994,-995.60546875,-972.65625,-905.76171875,-973.6328125,0.0,0,0
1771938603.4058392,1771938603.3125782,-1000.0,-1000.0,-330.56640625,-1000.0,0.0,0,0
1771938603.405858,1771938603.3164568,1.953125,-89.35546875,560.546875,-94.23828125,0.0,0,0
1771938603.4059148,1771938603.3203354,-819.3359375,-806.640625,785.64453125,-807.12890625,0.0,0,0
1771938603.40595,1771938603.3242142,431.640625,472.16796875,-229.00390625,468.26171875,0.0,0,0
1771938603.406014,1771938603.3280928,-906.73828125,-877.44140625,-932.12890625,-880.37109375,0.0,0,0
1771938603.40606,1771938603.3319716,-1000.0,-1000.0,-447.75390625,-1000.0,0.0,0,0
1771938603.406094,1771938603.3358502,-122.0703125,-230.46875,497.55859375,-230.46875,0.0,0,0
1771938603.4061599,1771938603.339729,-890.13671875,-895.5078125,775.87890625,-896.484375,0.0,0,0
1771938603.406187,1771938603.3436077,661.62109375,709.9609375,-69.3359375,714.35546875,0.0,0,0
1771938603.450548,1771938603.3478336,-700.68359375,-674.8046875,-877.9296875,-668.9453125,0.0,0,0
1771938603.450602,1771938603.3517125,-1000.0,-1000.0,-570.80078125,-1000.0,0.0,0,0
1771938603.450623,1771938603.355591,-122.0703125,-193.84765625,485.3515625,-195.80078125,0.0,0,0
1771938603.4506419,1771938603.35947,-944.82421875,-965.33203125,804.6875,-959.9609375,0.0,0,0
1771938603.450662,1771938603.3633487,852.5390625,945.80078125,113.28125,930.6640625,0.0,0,0
1771938603.45068,1771938603.3672273,-411.1328125,-325.1953125,-760.25390625,-353.515625,0.0,0,0
1771938603.450697,1771938603.3711061,-1000.0,-1000.0,-705.078125,-1000.0,0.0,0,0
1771938603.4507132,1771938603.374985,-180.6640625,-189.94140625,425.78125,-183.10546875,0.0,0,0
1771938603.45073,1771938603.3788636,-986.328125,999.51171875,847.16796875,-999.51171875,0.0,0,0
1771938603.4507468,1771938603.3827424,958.984375,-962.40234375,216.30859375,-962.890625,0.0,0,0
1771938603.450764,1771938603.3866212,-181.640625,-89.84375,-672.8515625,-88.8671875,0.0,0,0
1771938603.45078,1771938603.3904998,-1000.0,-1000.0,-745.60546875,-1000.0,0.0,0,0
1771938603.495625,1771938603.3947136,-338.8671875,-367.1875,331.0546875,-359.375,0.0,0,0
1771938603.495727,1771938603.3985925,933.59375,915.0390625,878.90625,918.9453125,0.0,0,0
1771938603.4957492,1771938603.402471,-953.61328125,-901.3671875,331.54296875,-903.80859375,0.0,0,0
1771938603.495769,1771938603.40635,24.4140625,105.95703125,-578.61328125,101.5625,0.0,0,0
1771938603.495789,1771938603.4102287,-1000.0,-1000.0,-789.0625,-1000.0,0.0,0,0
1771938603.495808,1771938603.4141076,-518.06640625,-535.15625,176.7578125,-548.33984375,0.0,0,0
1771938603.495828,1771938603.4179864,835.44921875,834.47265625,895.99609375,824.21875,0.0,0,0
1771938603.495848,1771938603.4218652,-913.0859375,-864.74609375,428.22265625,-860.83984375,0.0,0,0
1771938603.495868,1771938603.425744,82.03125,180.17578125,-568.84765625,187.98828125,0.0,0,0
1771938603.495887,1771938603.429623,-1000.0,-1000.0,-777.83203125,-1000.0,0.0,0,0
1771938603.495905,1771938603.4335017,-753.41796875,-818.84765625,16.6015625,-815.4296875,0.0,0,0
1771938603.495924,1771938603.4373806,583.0078125,540.0390625,814.453125,546.875,0.0,0,0
1771938603.5406551,1771938603.441584,-840.33203125,-805.17578125,582.03125,-806.640625,0.0,0,0
1771938603.540721,1771938603.4454632,97.65625,152.34375,-537.109375,152.83203125,0.0,0,0
1771938603.540747,1771938603.449342,-1000.0,-1000.0,-809.08203125,-1000.0,0.0,0,0
1771938603.540769,1771938603.4532208,-931.15234375,-1000.0,-118.65234375,-1000.0,0.0,0,0
1771938603.540792,1771938603.4570997,288.57421875,200.1953125,699.21875,203.61328125,0.0,0,0
1771938603.540815,1771938603.4609785,-794.921875,-766.6015625,705.56640625,-767.08984375,0.0,0,0
1771938603.540839,1771938603.4648573,174.8046875,208.49609375,-440.4296875,200.1953125,0.0,0,0
1771938603.5408618,1771938603.4687364,-1000.0,-1000.0,-893.5546875,-1000.0,0.0,0,0
1771938603.5408828,1771938603.4726152,-1000.0,-1000.0,-290.0390625,-1000.0,0.0,0,0
1771938603.540905,1771938603.476494,80.078125,-31.73828125,585.44921875,-19.04296875,0.0,0,0
1771938603.540928,1771938603.480373,-804.6875,-787.59765625,737.79296875,-785.15625,0.0,0,0
1771938603.540951,1771938603.4842517,353.515625,396.97265625,-319.82421875,391.11328125,0.0,0,0
1771938603.5855858,1771938603.4884431,-950.1953125,-917.96875,-921.38671875,-919.43359375,0.0,0,0
1771938603.58567,1771938603.492322,-1000.0,-1000.0,-382.32421875,-1000.0,0.0,0,0
1771938603.585703,1771938603.4962008,-80.56640625,-194.82421875,527.83203125,-195.80078125,0.0,0,0
1771938603.585738,1771938603.5000799,-863.28125,-861.328125,766.11328125,-857.91015625,0.0,0,0
1771938603.585769,1771938603.5039587,560.05859375,620.60546875,-146.484375,604.98046875,0.0,0,0
1771938603.585797,1771938603.5078378,-803.22265625,-765.625,-907.71484375,-782.2265625,0.0,0,0
1771938603.5858262,1771938603.5117166,-1000.0,-1000.0,-509.27734375,-1000.0,0.0,0,0
1771938603.5858529,1771938603.5155954,-140.625,-205.078125,499.51171875,-208.984375,0.0,0,0
1771938603.585881,1771938603.5194745,-924.31640625,-945.80078125,760.25390625,-937.5,0.0,0,0
1771938603.585909,1771938603.5233533,782.71484375,882.8125,-1.46484375,854.98046875,0.0,0,0
1771938603.5859451,1771938603.5272324,-529.296875,-432.12890625,-811.5234375,-475.09765625,0.0,0,0
1771938603.585973,1771938603.5311112,-1000.0,-1000.0,-642.08984375,-1000.0,0.0,0,0
1771938603.631256,1771938603.5352924,-152.83203125,-179.6875,465.8203125,-178.7109375,0.0,0,0
1771938603.6313841,1771938603.5391715,-964.35546875,-988.28125,827.63671875,-990.234375,0.0,0,0
1771938603.6314318,1771938603.5430505,910.64453125,-975.09765625,160.64453125,-977.05078125,0.0,0,0
1771938603.631478,1771938603.5469294,-277.83203125,-171.38671875,-714.84375,-158.69140625,0.0,0,0
1771938603.631522,1771938603.5508084,-1000.0,-1000.0,-728.02734375,-1000.0,0.0,0,0
1771938603.631562,1771938603.5546873,-246.09375,-177.24609375,400.390625,-262.6953125,0.0,0,0
1771938603.631607,1771938603.5585663,980.95703125,994.62890625,865.234375,965.8203125,0.0,0,0
1771938603.631649,1771938603.5624454,-994.140625,-945.3125,264.16015625,-931.15234375,0.0,0,0
1771938603.631691,1771938603.5663242,-62.98828125,22.94921875,-621.58203125,16.6015625,0.0,0,0
1771938603.631733,1771938603.5702033,-1000.0,-1000.0,-777.34375,-1000.0,0.0,0,0
1771938603.6317708,1771938603.5740821,-425.29296875,-464.84375,243.1640625,-459.47265625,0.0,0,0
1771938603.6318238,1771938603.5779612,889.6484375,864.2578125,894.53125,867.67578125,0.0,0,0
1771938603.691342,1771938603.582221,-916.9921875,-875.9765625,411.1328125,-877.9296875,0.0,0,0
1771938603.691487,1771938603.5861,96.19140625,192.87109375,-546.875,192.3828125,0.0,0,0
1771938603.69153,1771938603.5899792,-1000.0,-1000.0,-784.66796875,-1000.0,0.0,0,0
1771938603.691573,1771938603.5938582,-716.30859375,-736.328125,58.10546875,-708.0078125,0.0,0,0
1771938603.6916149,1771938603.5977373,663.57421875,647.4609375,848.6328125,681.15234375,0.0,0,0
1771938603.691657,1771938603.6016161,-875.0,-824.21875,553.22265625,-830.56640625,0.0,0,0
1771938603.691709,1771938603.6054952,46.875,164.55078125,-530.76171875,167.48046875,0.0,0,0
1771938603.6918101,1771938603.6093743,-1000.0,-1000.0,-825.1953125,-1000.0,0.0,0,0
1771938603.6918652,1771938603.6132534,-951.66015625,-957.51953125,-142.08984375,-943.359375,0.0,0,0
1771938603.691911,1771938603.6171324,333.49609375,334.9609375,730.95703125,356.4453125,0.0,0,0
1771938603.691954,1771938603.6210115,-820.80078125,-778.3203125,643.06640625,-780.76171875,0.0,0,0
1771938603.6919968,1771938603.6248906,57.6171875,141.6015625,-524.90234375,142.08984375,0.0,0,0
1771938603.720893,1771938603.6290488,-1000.0,-1000.0,-869.62890625,-1000.0,0.0,0,0
1771938603.721044,1771938603.632928,-1000.0,-1000.0,-250.48828125,-1000.0,0.0,0,0
1771938603.721098,1771938603.636807,96.6796875,59.08203125,619.62890625,64.94140625,0.0,0,0
1771938603.7211368,1771938603.640686,-791.015625,-768.5546875,746.09375,-769.04296875,0.0,0,0
1771938603.721171,1771938603.644565,227.5390625,293.9453125,-380.859375,301.7578125,0.0,0,0
1771938603.721204,1771938603.6484442,-987.3046875,-964.35546875,-908.203125,-962.890625,0.0,0,0
1771938603.721239,1771938603.6523232,-1000.0,-1000.0,-345.703125,-1000.0,0.0,0,0
1771938603.721268,1771938603.6562026,-87.890625,-144.53125,529.296875,-127.44140625,0.0,0,0
1771938603.721301,1771938603.6600816,-825.68359375,-820.3125,758.7890625,-817.3828125,0.0,0,0
1771938603.721333,1771938603.6639607,439.453125,500.9765625,-241.69921875,495.1171875,0.0,0,0
1771938603.721366,1771938603.6678398,-895.5078125,-867.1875,-937.5,-868.65234375,0.0,0,0
1771938603.721398,1771938603.6717188,-1000.0,-1000.0,-465.33203125,-1000.0,0.0,0,0
1771938603.781439,1771938603.6758647,-165.0390625,-224.609375,502.44140625,-225.09765625,0.0,0,0
1771938603.781597,1771938603.6797438,-896.97265625,-908.69140625,778.3203125,-907.71484375,0.0,0,0
1771938603.781644,1771938603.683623,675.78125,756.8359375,-58.10546875,752.44140625,0.0,0,0
1771938603.781687,1771938603.6875021,-671.875,-613.28125,-883.7890625,-619.140625,0.0,0,0
1771938603.78173,1771938603.6913812,-1000.0,-1000.0,-601.5625,-1000.0,0.0,0,0
1771938603.781769,1771938603.6952603,-136.71875,-193.84765625,492.1875,-191.40625,0.0,0,0
1771938603.7818182,1771938603.6991396,-949.70703125,-960.9375,798.828125,-967.7734375,0.0,0,0
1771938603.7818692,1771938603.7030187,875.0,935.546875,95.703125,955.078125,0.0,0,0
1771938603.78191,1771938603.7068977,-374.0234375,-339.35546875,-765.625,-304.19921875,0.0,0,0
1771938603.781964,1771938603.710777,-1000.0,-1000.0,-704.1015625,-1000.0,0.0,0,0
1771938603.782005,1771938603.714656,-209.9609375,-217.7734375,431.15234375,-213.8671875,0.0,0,0
1771938603.7820458,1771938603.7185352,-995.60546875,981.93359375,866.69921875,984.375,0.0,0,0
1771938603.826613,1771938603.7227607,965.8203125,-947.75390625,237.79296875,-948.73046875,0.0,0,0
1771938603.8267589,1771938603.7266397,-157.2265625,-43.45703125,-669.43359375,-41.9921875,0.0,0,0
1771938603.826804,1771938603.730519,-1000.0,-1000.0,-752.44140625,-1000.0,0.0,0,0
1771938603.826845,1771938603.7343981,-363.28125,-399.4140625,313.4765625,-400.87890625,0.0,0,0
1771938603.82689,1771938603.7382774,920.8984375,896.97265625,895.01953125,898.4375,0.0,0,0
1771938603.826933,1771938603.7421565,-946.2890625,-891.6015625,397.4609375,-893.06640625,0.0,0,0
1771938603.8271308,1771938603.7460358,49.31640625,154.296875,-557.6171875,135.25390625,0.0,0,0
1771938603.827177,1771938603.749915,-1000.0,-1000.0,-783.203125,-1000.0,0.0,0,0
1771938603.827216,1771938603.7537942,-561.03515625,-618.1640625,164.0625,-600.09765625,0.0,0,0
1771938603.827258,1771938603.7576733,795.8984375,768.06640625,884.765625,783.69140625,0.0,0,0
1771938603.827299,1771938603.7615526,-890.625,-848.6328125,457.51953125,-851.5625,0.0,0,0
1771938603.8273401,1771938603.7654316,100.09765625,180.6640625,-560.05859375,181.640625,0.0,0,0
1771938603.871233,1771938603.7696447,-1000.0,-1000.0,-785.64453125,-1000.0,0.0,0,0
1771938603.871375,1771938603.773524,-795.41015625,-858.3984375,-1.46484375,-854.98046875,0.0,0,0
1771938603.871423,1771938603.777403,528.3203125,487.3046875,809.08203125,492.67578125,0.0,0,0
1771938603.871468,1771938603.7812824,-828.61328125,-797.36328125,615.234375,-798.33984375,0.0,0,0
1771938603.8715122,1771938603.7851617,95.703125,147.94921875,-522.4609375,148.92578125,0.0,0,0
1771938603.871556,1771938603.789041,-1000.0,-1000.0,-827.63671875,-1000.0,0.0,0,0
1771938603.871594,1771938603.79292,-960.44921875,-1000.0,-156.25,-1000.0,0.0,0,0
1771938603.871634,1771938603.7967994,233.88671875,146.97265625,680.17578125,161.62109375,0.0,0,0
1771938603.871676,1771938603.8006787,-788.0859375,-762.6953125,681.640625,-763.671875,0.0,0,0
1771938603.871718,1771938603.804558,210.44921875,225.5859375,-456.0546875,223.6328125,0.0,0,0
1771938603.87176,1771938603.808437,-1000.0,-999.51171875,-889.6484375,-1000.0,0.0,0,0
1771938603.8718,1771938603.8123164,-1000.0,-1000.0,-286.62109375,-1000.0,0.0,0,0
1771938603.931299,1771938603.816606,40.52734375,-40.0390625,594.7265625,-36.62109375,0.0,0,0
1771938603.931438,1771938603.8204854,-807.12890625,-791.015625,740.234375,-790.0390625,0.0,0,0
1771938603.931474,1771938603.8243647,385.25390625,421.875,-326.66015625,415.52734375,0.0,0,0
1771938603.931508,1771938603.828244,-929.19921875,-903.80859375,-927.24609375,-906.73828125,0.0,0,0
1771938603.931543,1771938603.8321233,-1000.0,-1000.0,-408.69140625,-1000.0,0.0,0,0
1771938603.9315772,1771938603.8360026,-113.76953125,-209.9609375,516.6015625,-210.44921875,0.0,0,0
1771938603.931618,1771938603.839882,-872.0703125,-872.55859375,746.09375,-872.0703125,0.0,0,0
1771938603.931681,1771938603.8437612,607.91015625,646.97265625,-164.0625,645.5078125,0.0,0,0
1771938603.931713,1771938603.8476408,-764.6484375,-741.69921875,-915.52734375,-743.1640625,0.0,0,0
1771938603.931756,1771938603.85152,-1000.0,-1000.0,-542.48046875,-1000.0,0.0,0,0
1771938603.9317849,1771938603.8553994,-113.76953125,-202.63671875,500.0,-203.61328125,0.0,0,0
1771938603.9318259,1771938603.8592787,-934.08203125,-949.21875,784.66796875,-946.2890625,0.0,0,0
1771938603.976208,1771938603.8634753,820.3125,894.04296875,33.69140625,885.25390625,0.0,0,0
1771938603.9763598,1771938603.8673546,-476.5625,-415.0390625,-815.4296875,-428.22265625,0.0,0,0
1771938603.976408,1771938603.871234,-1000.0,-1000.0,-658.69140625,-1000.0,0.0,0,0
1771938603.97645,1771938603.8751135,-143.06640625,-174.8046875,480.95703125,-176.26953125,0.0,0,0
1771938603.9764931,1771938603.8789928,-975.09765625,-996.58203125,824.70703125,-994.62890625,0.0,0,0
1771938603.976537,1771938603.882872,955.078125,-966.796875,173.828125,-970.703125,0.0,0,0
1771938603.976675,1771938603.8867514,-203.61328125,-101.07421875,-688.4765625,-120.1171875,0.0,0,0
1771938603.9767969,1771938603.890631,-1000.0,-1000.0,-761.71875,-1000.0,0.0,0,0
1771938603.976843,1771938603.8945103,-302.734375,-339.35546875,331.0546875,-323.2421875,0.0,0,0
1771938603.976886,1771938603.8983896,958.0078125,932.6171875,879.8828125,937.5,0.0,0,0
1771938603.97694,1771938603.902269,-977.5390625,-912.59765625,302.24609375,-915.52734375,0.0,0,0
1771938603.976987,1771938603.9061484,-37.59765625,58.10546875,-626.46484375,58.10546875,0.0,0,0
1771938604.006689,1771938603.9103315,-1000.0,-1000.0,-759.27734375,-1000.0,0.0,0,0
1771938604.0068648,1771938603.9142108,-470.703125,-515.625,239.2578125,-509.27734375,0.0,0,0
1771938604.006915,1771938603.91809,866.2109375,837.890625,897.4609375,842.28515625,0.0,0,0
1771938604.0069592,1771938603.9219697,-914.0625,-866.69921875,426.7578125,-867.67578125,0.0,0,0
1771938604.007007,1771938603.925849,91.30859375,195.3125,-562.98828125,195.80078125,0.0,0,0
1771938604.0070531,1771938603.9297285,-1000.0,-1000.0,-766.6015625,-1000.0,0.0,0,0
1771938604.007091,1771938603.9336078,-701.66015625,-763.18359375,82.51953125,-764.16015625,0.0,0,0
1771938604.007134,1771938603.9374874,647.94921875,614.74609375,849.609375,613.28125,0.0,0,0
1771938604.0071821,1771938603.9413667,-850.09765625,-818.359375,546.38671875,-818.359375,0.0,0,0
1771938604.007252,1771938603.9452462,100.5859375,159.1796875,-558.59375,160.15625,0.0,0,0
1771938604.007293,1771938603.9491255,-1000.0,-1000.0,-796.875,-1000.0,0.0,0,0
1771938604.00735,1771938603.953005,-914.0625,-988.76953125,-85.9375,-981.93359375,0.0,0,0
1771938604.052199,1771938603.9571803,345.703125,275.87890625,723.14453125,288.0859375,0.0,0,0
1771938604.0523221,1771938603.9610598,-808.10546875,-773.92578125,659.1796875,-774.90234375,0.0,0,0
1771938604.052361,1771938603.9649394,113.28125,142.08984375,-502.44140625,146.484375,0.0,0,0
1771938604.052395,1771938603.9688187,-1000.0,-1000.0,-865.72265625,-1000.0,0.0,0,0
1771938604.052427,1771938603.9726982,-1000.0,-1000.0,-236.328125,-1000.0,0.0,0,0
1771938604.052458,1771938603.9765778,104.4921875,52.24609375,618.1640625,45.41015625,0.0,0,0
1771938604.052494,1771938603.980457,-795.41015625,-769.04296875,726.07421875,-770.99609375,0.0,0,0
1771938604.0525272,1771938603.9843366,261.71875,261.23046875,-394.04296875,317.3828125,0.0,0,0
1771938604.052599,1771938603.9882162,-979.4921875,-976.07421875,-925.78125,-955.56640625,0.0,0,0
1771938604.0526369,1771938603.9920955,-1000.0,-1000.0,-353.515625,-1000.0,0.0,0,0
1771938604.0526679,1771938603.995975,-86.42578125,-163.57421875,536.62109375,-144.53125,0.0,0,0
1771938604.052703,1771938603.9998546,-839.35546875,-825.68359375,759.27734375,-823.73046875,0.0,0,0
1771938604.11248,1771938604.0040143,474.609375,522.4609375,-219.7265625,517.08984375,0.0,0,0
1771938604.112621,1771938604.0078938,-871.09375,-855.95703125,-936.5234375,-857.421875,0.0,0,0
1771938604.1126678,1771938604.0117733,-1000.0,-1000.0,-494.140625,-1000.0,0.0,0,0
1771938604.11271,1771938604.015653,-155.2734375,-218.75,488.76953125,-220.703125,0.0,0,0
1771938604.112753,1771938604.0195324,-907.71484375,-920.8984375,763.18359375,-916.9921875,0.0,0,0
1771938604.1127958,1771938604.0234118,719.7265625,800.29296875,-28.80859375,785.64453125,0.0,0,0
1771938604.1128378,1771938604.0272913,-612.3046875,-556.640625,-840.8203125,-575.68359375,0.0,0,0
1771938604.112881,1771938604.0311708,-1000.0,-1000.0,-625.48828125,-1000.0,0.0,0,0
1771938604.112919,1771938604.0350504,-152.34375,-183.10546875,473.14453125,-185.05859375,0.0,0,0
1771938604.112961,1771938604.03893,-957.03125,-983.88671875,809.08203125,-979.98046875,0.0,0,0
1771938604.113002,1771938604.0428095,884.765625,-999.0234375,123.046875,989.74609375,0.0,0,0
1771938604.113046,1771938604.046689,-328.125,-209.9609375,-736.328125,-232.91015625,0.0,0,0
1771938604.158201,1771938604.0508547,-1000.0,-1000.0,-709.9609375,-1000.0,0.0,0,0
1771938604.158337,1771938604.0547342,-255.859375,-261.23046875,401.85546875,-246.58203125,0.0,0,0
1771938604.1584032,1771938604.0586138,990.72265625,967.28515625,867.67578125,972.16796875,0.0,0,0
1771938604.158466,1771938604.0624933,965.33203125,-935.05859375,256.34765625,-938.96484375,0.0,0,0
1771938604.158526,1771938604.0663729,-142.578125,-11.23046875,-655.76171875,-15.625,0.0,0,0
1771938604.158571,1771938604.0702524,-1000.0,-1000.0,-752.44140625,-1000.0,0.0,0,0
1771938604.1586099,1771938604.074132,-416.50390625,-429.19921875,295.41015625,-431.15234375,0.0,0,0
1771938604.158675,1771938604.0780115,909.66796875,884.765625,892.08984375,882.8125,0.0,0,0
1771938604.158721,1771938604.0818913,-976.5625,-886.23046875,344.7265625,-885.25390625,0.0,0,0
1771938604.158763,1771938604.0857708,9.765625,155.76171875,-596.19140625,160.15625,0.0,0,0
1771938604.158955,1771938604.0896504,-1000.0,-1000.0,-771.484375,-1000.0,0.0,0,0
1771938604.1590242,1771938604.09353,-623.046875,-669.43359375,122.55859375,-658.69140625,0.0,0,0
1771938604.232498,1771938604.09793,739.2578125,714.35546875,877.44140625,727.05078125,0.0,0,0
1771938604.232718,1771938604.1018095,-878.90625,-836.9140625,529.296875,-839.84375,0.0,0,0
1771938604.2327921,1771938604.1056893,85.9375,172.36328125,-537.59765625,173.828125,0.0,0,0
1771938604.232866,1771938604.1095688,-1000.0,-1000.0,-774.90234375,-1000.0,0.0,0,0
1771938604.232961,1771938604.1134484,-852.05078125,-909.66796875,-40.0390625,-901.3671875,0.0,0,0
1771938604.233012,1771938604.1173282,455.078125,408.203125,766.11328125,421.38671875,0.0,0,0
1771938604.233061,1771938604.1212077,-819.3359375,-787.59765625,605.95703125,-789.0625,0.0,0,0
1771938604.233105,1771938604.1250875,87.40234375,144.53125,-547.8515625,145.01953125,0.0,0,0
1771938604.2331479,1771938604.128967,-1000.0,-1000.0,-843.75,-1000.0,0.0,0,0
1771938604.233187,1771938604.1328468,-987.3046875,-1000.0,-204.58984375,-1000.0,0.0,0,0
1771938604.233226,1771938604.1367264,175.78125,100.5859375,642.578125,105.95703125,0.0,0,0
1771938604.233268,1771938604.140606,-784.1796875,-765.625,701.171875,-765.13671875,0.0,0,0
1771938604.247753,1771938604.1448247,246.58203125,262.20703125,-420.8984375,259.765625,0.0,0,0
1771938604.2479098,1771938604.1487043,-1000.0,-982.421875,-901.3671875,-983.3984375,0.0,0,0
1771938604.2479548,1771938604.152584,-1000.0,-1000.0,-337.890625,-1000.0,0.0,0,0
1771938604.2479959,1771938604.1564639,5.37109375,-83.984375,547.36328125,-81.0546875,0.0,0,0
1771938604.248039,1771938604.1603434,-812.98828125,-803.22265625,759.765625,-800.78125,0.0,0,0
1771938604.2480829,1771938604.1642232,420.8984375,456.0546875,-259.765625,442.3828125,0.0,0,0
1771938604.2481248,1771938604.168103,-915.0390625,-886.23046875,-926.7578125,-894.04296875,0.0,0,0
1771938604.248168,1771938604.1719825,-1000.0,-1000.0,-448.73046875,-1000.0,0.0,0,0
1771938604.2482061,1771938604.1758623,-127.9296875,-233.88671875,490.234375,-235.3515625,0.0,0,0
1771938604.248248,1771938604.179742,-884.27734375,-889.16015625,765.13671875,-885.7421875,0.0,0,0
1771938604.248301,1771938604.1836216,623.53515625,687.5,-110.3515625,674.31640625,0.0,0,0
1771938604.248367,1771938604.1875014,-733.3984375,-704.1015625,-896.97265625,-717.7734375,0.0,0,0
1771938604.29182,1771938604.1916988,-1000.0,-1000.0,-566.89453125,-1000.0,0.0,0,0
1771938604.2919629,1771938604.1955786,-132.32421875,-198.73046875,489.2578125,-200.1953125,0.0,0,0
1771938604.292012,1771938604.1994584,-937.01171875,-955.56640625,789.0625,-953.61328125,0.0,0,0
1771938604.292056,1771938604.2033381,820.3125,915.52734375,52.24609375,908.69140625,0.0,0,0
1771938604.292099,1771938604.207218,-450.1953125,-381.8359375,-787.109375,-391.6015625,0.0,0,0
1771938604.292141,1771938604.2110977,-1000.0,-1000.0,-667.48046875,-1000.0,0.0,0,0
1771938604.2921789,1771938604.2149775,-183.10546875,-179.19921875,447.265625,-174.8046875,0.0,0,0
1771938604.292223,1771938604.2188573,-978.515625,-986.81640625,837.40234375,-996.09375,0.0,0,0
1771938604.292265,1771938604.222737,933.59375,-987.3046875,173.828125,-967.28515625,0.0,0,0
1771938604.292306,1771938604.2266166,-217.28515625,-156.25,-698.2421875,-101.5625,0.0,0,0
1771938604.292386,1771938604.2304964,-1000.0,-1000.0,-757.8125,-1000.0,0.0,0,0
1771938604.292435,1771938604.2343762,-341.796875,-349.609375,316.89453125,-345.703125,0.0,0,0
1771938604.337163,1771938604.2385664,947.75390625,917.96875,880.37109375,924.8046875,0.0,0,0
1771938604.3373282,1771938604.2424462,-996.09375,-905.2734375,308.59375,-907.2265625,0.0,0,0
1771938604.3373718,1771938604.246326,-40.52734375,96.19140625,-604.00390625,91.796875,0.0,0,0
1771938604.337416,1771938604.250206,-1000.0,-1000.0,-780.2734375,-1000.0,0.0,0,0
1771938604.3374562,1771938604.2540858,-529.78515625,-550.78125,177.24609375,-541.015625,0.0,0,0
1771938604.337499,1771938604.2579656,824.70703125,821.77734375,887.6953125,827.1484375,0.0,0,0
1771938604.337535,1771938604.2618454,-892.578125,-859.86328125,474.12109375,-861.81640625,0.0,0,0
1771938604.337588,1771938604.2657251,105.95703125,187.98828125,-529.296875,189.94140625,0.0,0,0
1771938604.337644,1771938604.269605,-1000.0,-1000.0,-788.0859375,-1000.0,0.0,0,0
1771938604.337674,1771938604.2734847,-761.71875,-817.3828125,11.23046875,-802.734375,0.0,0,0
1771938604.337724,1771938604.2773645,585.9375,543.9453125,812.5,562.98828125,0.0,0,0
1771938604.337764,1771938604.2812443,-844.23828125,-806.640625,594.23828125,-809.5703125,0.0,0,0
1771938604.38179,1771938604.2854183,87.40234375,154.78515625,-512.20703125,155.2734375,0.0,0,0
1771938604.381969,1771938604.289298,-1000.0,-1000.0,-813.4765625,-1000.0,0.0,0,0
1771938604.38203,1771938604.293178,-934.08203125,-1000.0,-132.8125,-1000.0,0.0,0,0
1771938604.382087,1771938604.2970579,293.45703125,230.95703125,700.68359375,229.00390625,0.0,0,0
1771938604.382147,1771938604.3009377,-790.52734375,-768.5546875,679.19921875,-769.53125,0.0,0,0
1771938604.3821921,1771938604.3048177,180.6640625,215.33203125,-459.9609375,191.89453125,0.0,0,0
1771938604.3822348,1771938604.3086975,-1000.0,-1000.0,-882.8125,-1000.0,0.0,0,0
1771938604.382273,1771938604.3125772,-1000.0,-1000.0,-285.64453125,-1000.0,0.0,0,0
1771938604.3823118,1771938604.316457,79.1015625,-12.6953125,585.9375,-6.8359375,0.0,0,0
1771938604.3823621,1771938604.320337,-798.33984375,-783.69140625,743.1640625,-781.73828125,0.0,0,0
1771938604.382406,1771938604.3242168,339.35546875,373.53515625,-333.49609375,370.60546875,0.0,0,0
1771938604.3824482,1771938604.3280966,-952.63671875,-929.19921875,-905.76171875,-930.6640625,0.0,0,0
1771938604.426337,1771938604.3322637,-1000.0,-1000.0,-389.6484375,-1000.0,0.0,0,0
1771938604.426474,1771938604.3361435,-110.3515625,-188.4765625,491.69921875,-182.12890625,0.0,0,0
1771938604.426507,1771938604.3400235,-852.05078125,-851.5625,770.99609375,-845.703125,0.0,0,0
1771938604.426537,1771938604.3439033,552.24609375,591.30859375,-154.78515625,572.75390625,0.0,0,0
1771938604.426566,1771938604.3477833,-822.75390625,-795.41015625,-908.203125,-813.4765625,0.0,0,0
1771938604.426594,1771938604.351663,-1000.0,-1000.0,-490.234375,-1000.0,0.0,0,0
1771938604.426618,1771938604.3555431,-130.859375,-217.28515625,503.90625,-215.8203125,0.0,0,0
1771938604.426645,1771938604.359423,-916.015625,-915.52734375,762.20703125,-922.8515625,0.0,0,0
1771938604.426673,1771938604.363303,746.09375,779.296875,-22.4609375,807.12890625,0.0,0,0
1771938604.4267,1771938604.3671827,-583.49609375,-583.0078125,-839.84375,-546.875,0.0,0,0
1771938604.4267259,1771938604.3710628,-1000.0,-1000.0,-627.44140625,-1000.0,0.0,0,0
1771938604.426752,1771938604.3749425,-127.44140625,-180.6640625,486.328125,-181.640625,0.0,0,0
1771938604.4718301,1771938604.3790977,-964.35546875,-990.72265625,807.12890625,-986.81640625,0.0,0,0
1771938604.472009,1771938604.3829775,919.921875,-981.4453125,147.4609375,-989.74609375,0.0,0,0
1771938604.47206,1771938604.3868575,-279.78515625,-174.31640625,-702.63671875,-191.40625,0.0,0,0
1771938604.472109,1771938604.3907375,-1000.0,-1000.0,-729.4921875,-1000.0,0.0,0,0
1771938604.472149,1771938604.3946173,-240.72265625,-264.16015625,376.953125,-259.27734375,0.0,0,0
1771938604.472192,1771938604.3984973,984.375,967.28515625,866.69921875,966.796875,0.0,0,0
1771938604.472254,1771938604.4023774,988.28125,-934.08203125,276.3671875,-933.10546875,0.0,0,0
1771938604.472297,1771938604.4062574,-99.12109375,-2.44140625,-626.46484375,5.37109375,0.0,0,0
1771938604.472339,1771938604.4101372,-1000.0,-1000.0,-798.33984375,-1000.0,0.0,0,0
1771938604.472378,1771938604.4140172,-444.3359375,-454.1015625,219.23828125,-448.2421875,0.0,0,0
1771938604.472427,1771938604.4178972,892.578125,868.65234375,895.99609375,873.046875,0.0,0,0
1771938604.472481,1771938604.421777,-945.80078125,-878.41796875,393.5546875,-880.37109375,0.0,0,0
1771938604.547491,1771938604.4260118,49.8046875,189.94140625,-559.08203125,186.03515625,0.0,0,0
1771938604.54768,1771938604.4298916,-1000.0,-1000.0,-791.9921875,-1000.0,0.0,0,0
1771938604.547741,1771938604.4337716,-653.80859375,-695.3125,63.4765625,-688.4765625,0.0,0,0
1771938604.5480142,1771938604.4376516,711.9140625,694.82421875,854.00390625,701.171875,0.0,0,0
1771938604.548078,1771938604.4415317,-865.72265625,-832.51953125,519.53125,-834.47265625,0.0,0,0
1771938604.548137,1771938604.4454117,102.5390625,167.96875,-529.78515625,169.921875,0.0,0,0
1771938604.5481951,1771938604.4492917,-1000.0,-1000.0,-820.3125,-1000.0,0.0,0,0
1771938604.548248,1771938604.4531717,-859.86328125,-941.89453125,-136.71875,-924.8046875,0.0,0,0
1771938604.5483048,1771938604.4570518,433.10546875,358.3984375,739.2578125,385.25390625,0.0,0,0
1771938604.548363,1771938604.4609318,-814.453125,-781.25,670.41015625,-784.1796875,0.0,0,0
1771938604.5484312,1771938604.4648118,102.05078125,143.06640625,-497.55859375,142.578125,0.0,0,0
1771938604.548488,1771938604.4686918,-1000.0,-1000.0,-856.93359375,-1000.0,0.0,0,0
1771938604.577586,1771938604.4729164,-977.05078125,-1000.0,-202.63671875,-1000.0,0.0,0,0
1771938604.577756,1771938604.4767964,172.8515625,77.63671875,638.18359375,77.63671875,0.0,0,0
1771938604.577812,1771938604.4806764,-789.0625,-767.578125,732.91015625,-768.06640625,0.0,0,0
1771938604.5778549,1771938604.4845567,264.16015625,290.0390625,-373.046875,290.52734375,0.0,0,0
1771938604.5779111,1771938604.4884367,-993.65234375,-968.26171875,-906.25,-968.26171875,0.0,0,0
1771938604.577954,1771938604.4923167,-1000.0,-1000.0,-329.1015625,-1000.0,0.0,0,0
1771938604.578012,1771938604.4961967,-9.765625,-115.234375,542.48046875,-110.83984375,0.0,0,0
1771938604.578059,1771938604.5000768,-826.66015625,-812.5,761.71875,-812.01171875,0.0,0,0
1771938604.578103,1771938604.5039568,447.75390625,478.515625,-233.3984375,482.421875,0.0,0,0
1771938604.578144,1771938604.507837,-898.92578125,-876.953125,-919.43359375,-874.0234375,0.0,0,0
1771938604.578198,1771938604.511717,-1000.0,-1000.0,-453.61328125,-1000.0,0.0,0,0
1771938604.5782359,1771938604.515597,-125.48828125,-228.515625,482.91015625,-227.5390625,0.0,0,0
1771938604.622665,1771938604.5198069,-893.06640625,-899.90234375,770.99609375,-902.34375,0.0,0,0
1771938604.622833,1771938604.5236871,657.2265625,726.07421875,-64.453125,733.3984375,0.0,0,0
1771938604.622881,1771938604.5275671,-695.80078125,-653.3203125,-875.9765625,-643.5546875,0.0,0,0
1771938604.622925,1771938604.5314472,-1000.0,-1000.0,-603.515625,-1000.0,0.0,0,0
1771938604.622968,1771938604.5353274,-137.20703125,-193.359375,466.796875,-192.87109375,0.0,0,0
1771938604.623011,1771938604.5392075,-947.265625,-964.84375,824.21875,-965.8203125,0.0,0,0
1771938604.623073,1771938604.5430877,860.3515625,945.80078125,143.5546875,947.75390625,0.0,0,0
1771938604.623126,1771938604.5469677,-392.578125,-322.75390625,-749.0234375,-319.3359375,0.0,0,0
1771938604.623185,1771938604.5508478,-1000.0,-1000.0,-714.35546875,-1000.0,0.0,0,0
1771938604.623243,1771938604.554728,-211.42578125,-204.58984375,406.25,-200.1953125,0.0,0,0
1771938604.623285,1771938604.558608,-989.2578125,991.69921875,852.05078125,992.67578125,0.0,0,0
1771938604.623328,1771938604.562488,944.3359375,-956.0546875,228.02734375,-956.54296875,0.0,0,0
1771938604.66802,1771938604.566685,-188.96484375,-75.1953125,-663.57421875,-70.80078125,0.0,0,0
1771938604.668206,1771938604.5705652,-1000.0,-1000.0,-759.27734375,-1000.0,0.0,0,0
1771938604.6682692,1771938604.5744455,-364.74609375,-377.9296875,299.8046875,-384.27734375,0.0,0,0
1771938604.668332,1771938604.5783255,931.15234375,908.203125,871.09375,906.73828125,0.0,0,0
1771938604.668392,1771938604.5822058,-983.3984375,-897.94921875,325.1953125,-897.94921875,0.0,0,0
1771938604.668452,1771938604.5860858,0.48828125,122.55859375,-566.89453125,112.3046875,0.0,0,0
1771938604.668511,1771938604.589966,-1000.0,-1000.0,-795.8984375,-1000.0,0.0,0,0
1771938604.668565,1771938604.5938463,-562.98828125,-566.89453125,107.91015625,-561.03515625,0.0,0,0
1771938604.668624,1771938604.5977263,808.59375,815.4296875,874.51171875,816.89453125,0.0,0,0
1771938604.668682,1771938604.6016066,-903.80859375,-857.421875,486.81640625,-858.88671875,0.0,0,0
1771938604.66874,1771938604.6054866,77.63671875,184.08203125,-530.2734375,186.03515625,0.0,0,0
1771938604.668797,1771938604.609367,-1000.0,-1000.0,-799.31640625,-1000.0,0.0,0,0
1771938604.712436,1771938604.6135535,-789.55078125,-845.21484375,-42.96875,-831.54296875,0.0,0,0
1771938604.7125828,1771938604.6174338,540.52734375,507.8125,779.296875,525.87890625,0.0,0,0
1771938604.712627,1771938604.621314,-828.61328125,-800.29296875,625.9765625,-802.734375,0.0,0,0
1771938604.7126698,1771938604.625194,94.7265625,150.390625,-500.0,150.87890625,0.0,0,0
1771938604.712716,1771938604.6290743,-1000.0,-1000.0,-834.47265625,-1000.0,0.0,0,0
1771938604.712754,1771938604.6329546,-939.94140625,-1000.0,-165.52734375,-1000.0,0.0,0,0
1771938604.7127979,1771938604.6368349,268.5546875,181.640625,672.8515625,180.6640625,0.0,0,0
1771938604.7128608,1771938604.6407151,-801.26953125,-766.11328125,689.453125,-765.13671875,0.0,0,0
1771938604.712907,1771938604.6445951,150.87890625,137.6953125,-463.37890625,198.73046875,0.0,0,0
1771938604.7129622,1771938604.6484754,-1000.0,-1000.0,-879.8828125,-1000.0,0.0,0,0
1771938604.7129998,1771938604.6523557,-1000.0,-1000.0,-283.69140625,-1000.0,0.0,0,0
1771938604.713038,1771938604.656236,41.015625,-43.9453125,563.4765625,-31.73828125,0.0,0,0
1771938604.7576709,1771938604.6604111,-804.19921875,-787.109375,745.60546875,-787.59765625,0.0,0,0
1771938604.757824,1771938604.6642914,361.328125,411.1328125,-293.9453125,401.85546875,0.0,0,0
1771938604.757872,1771938604.6681716,-941.40625,-908.203125,-912.59765625,-913.0859375,0.0,0,0
1771938604.757917,1771938604.672052,-1000.0,-1000.0,-423.33984375,-1000.0,0.0,0,0
1771938604.757958,1771938604.6759322,-111.328125,-219.23828125,484.86328125,-209.9609375,0.0,0,0
1771938604.7580009,1771938604.6798124,-864.2578125,-863.76953125,786.1328125,-865.234375,0.0,0,0
1771938604.7580428,1771938604.6836927,552.734375,604.98046875,-122.0703125,621.58203125,0.0,0,0
1771938604.758086,1771938604.687573,-808.10546875,-788.57421875,-907.2265625,-768.06640625,0.0,0,0
1771938604.7581298,1771938604.6914532,-1000.0,-1000.0,-558.59375,-1000.0,0.0,0,0
1771938604.758168,1771938604.6953335,-133.30078125,-206.0546875,461.42578125,-206.54296875,0.0,0,0
1771938604.7582111,1771938604.6992137,-924.8046875,-946.2890625,786.1328125,-942.3828125,0.0,0,0
1771938604.7582521,1771938604.703094,777.83203125,883.30078125,43.45703125,872.55859375,0.0,0,0
1771938604.831682,1771938604.7074232,-520.99609375,-431.15234375,-795.8984375,-447.75390625,0.0,0,0
1771938604.8318982,1771938604.7113035,-1000.0,-1000.0,-692.3828125,-1000.0,0.0,0,0
1771938604.831958,1771938604.715184,-160.15625,-176.7578125,428.22265625,-177.24609375,0.0,0,0
1771938604.832024,1771938604.7190642,-966.30859375,-993.65234375,836.9140625,-993.1640625,0.0,0,0
1771938604.832083,1771938604.7229445,910.64453125,-972.65625,184.5703125,-973.14453125,0.0,0,0
1771938604.832126,1771938604.726825,-261.71875,-126.46484375,-685.546875,-132.8125,0.0,0,0
1771938604.8321779,1771938604.7307053,-1000.0,-1000.0,-759.27734375,-1000.0,0.0,0,0
1771938604.832237,1771938604.7345855,-312.98828125,-333.0078125,322.75390625,-312.5,0.0,0,0
1771938604.832316,1771938604.738466,960.44921875,934.08203125,864.74609375,942.3828125,0.0,0,0
1771938604.832358,1771938604.7423463,999.0234375,-914.0625,300.29296875,-917.96875,0.0,0,0
1771938604.8323998,1771938604.7462265,-70.3125,50.29296875,-601.07421875,50.29296875,0.0,0,0
1771938604.832441,1771938604.750107,-1000.0,-1000.0,-788.0859375,-1000.0,0.0,0,0
1771938604.846988,1771938604.7542605,-456.0546875,-501.953125,200.68359375,-498.046875,0.0,0,0
1771938604.847144,1771938604.758141,877.44140625,845.703125,877.9296875,847.65625,0.0,0,0
1771938604.847188,1771938604.7620213,-925.78125,-865.72265625,432.12890625,-870.60546875,0.0,0,0
1771938604.847232,1771938604.7659018,81.54296875,207.51953125,-520.5078125,202.63671875,0.0,0,0
1771938604.847275,1771938604.769782,-1000.0,-1000.0,-806.15234375,-1000.0,0.0,0,0
1771938604.847323,1771938604.7736626,-629.39453125,-449.21875,37.59765625,-686.5234375,0.0,0,0
1771938604.8473659,1771938604.7775428,729.00390625,897.94921875,846.19140625,708.0078125,0.0,0,0
1771938604.847573,1771938604.7814233,-871.09375,-883.30078125,568.84765625,-835.44921875,0.0,0,0
1771938604.847619,1771938604.7853036,95.21484375,183.10546875,-505.859375,167.48046875,0.0,0,0
1771938604.847661,1771938604.789184,-1000.0,-1000.0,-824.21875,-1000.0,0.0,0,0
1771938604.8476999,1771938604.7930644,-890.625,-948.2421875,-144.53125,-948.73046875,0.0,0,0
1771938604.847741,1771938604.7969449,382.8125,349.12109375,709.47265625,347.16796875,0.0,0,0
1771938604.906066,1771938604.8010771,-809.08203125,-779.296875,671.38671875,-779.78515625,0.0,0,0
1771938604.906214,1771938604.8049574,116.69921875,140.13671875,-480.95703125,141.11328125,0.0,0,0
1771938604.9062521,1771938604.808838,-1000.0,-1000.0,-855.46875,-1000.0,0.0,0,0
1771938604.906285,1771938604.8127184,-986.328125,-1000.0,-245.1171875,-1000.0,0.0,0,0
1771938604.9063191,1771938604.8165987,140.625,41.015625,576.171875,52.734375,0.0,0,0
1771938604.906352,1771938604.8204792,-793.45703125,-770.99609375,771.484375,-770.01953125,0.0,0,0
1771938604.9063911,1771938604.8243597,290.52734375,326.171875,-302.24609375,315.4296875,0.0,0,0
1771938604.906424,1771938604.82824,-973.14453125,-951.66015625,-905.76171875,-956.54296875,0.0,0,0
1771938604.9064598,1771938604.8321204,-1000.0,-1000.0,-383.7890625,-1000.0,0.0,0,0
1771938604.90649,1771938604.836001,-80.56640625,-144.53125,501.953125,-136.23046875,0.0,0,0
1771938604.906523,1771938604.8398812,-833.984375,-824.21875,776.3671875,-821.2890625,0.0,0,0
1771938604.906563,1771938604.8437617,463.37890625,518.5546875,-180.17578125,509.765625,0.0,0,0
1771938604.9670742,1771938604.8480542,-882.8125,-856.4453125,-910.15625,-860.3515625,0.0,0,0
1771938604.967216,1771938604.8519347,-1000.0,-1000.0,-470.703125,-1000.0,0.0,0,0
1771938604.9672801,1771938604.8558152,-131.34765625,-220.21484375,493.65234375,-222.16796875,0.0,0,0
1771938604.967341,1771938604.8596957,-903.3203125,-917.48046875,775.390625,-914.55078125,0.0,0,0
1771938604.9673998,1771938604.8635762,698.2421875,787.109375,-18.5546875,776.3671875,0.0,0,0
1771938604.967457,1771938604.8674567,-640.625,-573.73046875,-837.890625,-587.890625,0.0,0,0
1771938604.967514,1771938604.8713372,-1000.0,-1000.0,-623.53515625,-1000.0,0.0,0,0
1771938604.9675672,1771938604.8752177,-138.671875,-184.5703125,442.3828125,-186.5234375,0.0,0,0
1771938604.967626,1771938604.8790982,-958.984375,-981.93359375,800.78125,-978.02734375,0.0,0,0
1771938604.967684,1771938604.8829787,899.4140625,995.1171875,159.1796875,983.3984375,0.0,0,0
1771938604.967742,1771938604.8868592,-327.63671875,-224.609375,-705.56640625,-247.55859375,0.0,0,0
1771938604.9678001,1771938604.8907397,-1000.0,-1000.0,-730.46875,-1000.0,0.0,0,0
1771938604.996657,1771938604.8949435,-218.75,-236.328125,392.08984375,-231.4453125,0.0,0,0
1771938604.996758,1771938604.898824,-1000.0,975.5859375,857.421875,977.05078125,0.0,0,0
1771938604.9967911,1771938604.9027047,955.56640625,-937.5,253.90625,-940.91796875,0.0,0,0
1771938604.996824,1771938604.9065852,-146.97265625,-12.20703125,-626.953125,-17.578125,0.0,0,0
1771938604.9968588,1771938604.9104657,-1000.0,-1000.0,-777.34375,-1000.0,0.0,0,0
1771938604.996889,1771938604.9143462,-387.6953125,-380.859375,265.13671875,-412.59765625,0.0,0,0
1771938604.996923,1771938604.9182267,926.26953125,919.43359375,893.06640625,893.5546875,0.0,0,0
1771938604.996966,1771938604.9221072,-985.3515625,-904.78515625,342.7734375,-890.625,0.0,0,0
1771938604.996999,1771938604.925988,-4.8828125,82.03125,-588.8671875,147.4609375,0.0,0,0
1771938604.9970298,1771938604.9298685,-1000.0,-1000.0,-791.9921875,-1000.0,0.0,0,0
1771938604.99706,1771938604.933749,-591.796875,-616.2109375,100.09765625,-626.46484375,0.0,0,0
1771938604.9970932,1771938604.9376295,777.83203125,754.39453125,875.0,757.8125,0.0,0,0
1771938605.0419378,1771938604.9418166,-901.85546875,-844.7265625,502.9296875,-846.19140625,0.0,0,0
1771938605.042136,1771938604.9456973,69.3359375,177.24609375,-538.57421875,177.24609375,0.0,0,0
1771938605.042201,1771938604.9495778,-1000.0,-1000.0,-795.41015625,-1000.0,0.0,0,0
1771938605.0422559,1771938604.9534583,-830.078125,-885.7421875,-74.70703125,-882.8125,0.0,0,0
1771938605.0423198,1771938604.957339,492.67578125,445.3125,761.71875,449.70703125,0.0,0,0
1771938605.0423832,1771938604.9612195,-833.984375,-791.9921875,662.59765625,-792.48046875,0.0,0,0
1771938605.042461,1771938604.9651003,66.40625,145.99609375,-492.67578125,145.99609375,0.0,0,0
1771938605.042518,1771938604.9689808,-1000.0,-1000.0,-840.8203125,-1000.0,0.0,0,0
1771938605.0425699,1771938604.9728613,-972.16796875,-1000.0,-194.3359375,-1000.0,0.0,0,0
1771938605.042624,1771938604.976742,210.9375,125.48828125,644.04296875,122.0703125,0.0,0,0
1771938605.04268,1771938604.9806225,-796.875,-763.18359375,715.33203125,-764.16015625,0.0,0,0
1771938605.042737,1771938604.984503,192.87109375,245.1171875,-403.3203125,241.2109375,0.0,0,0
1771938605.1305768,1771938604.9886796,-1000.0,-988.76953125,-899.4140625,-990.72265625,0.0,0,0
1771938605.130774,1771938604.9925604,-1000.0,-1000.0,-345.21484375,-1000.0,0.0,0,0
1771938605.1308491,1771938604.996441,18.06640625,-78.61328125,528.80859375,-73.2421875,0.0,0,0
1771938605.131039,1771938605.0003216,-813.4765625,-798.33984375,758.7890625,-796.875,0.0,0,0
1771938605.131135,1771938605.0042024,400.390625,429.6875,-249.51171875,423.33984375,0.0,0,0
1771938605.1312141,1771938605.0080829,-933.10546875,-902.83203125,-919.921875,-904.78515625,0.0,0,0
1771938605.131381,1771938605.0119636,-1000.0,-1000.0,-437.98828125,-1000.0,0.0,0,0
1771938605.1315122,1771938605.015844,-82.51953125,-223.14453125,501.953125,-229.00390625,0.0,0,0
1771938605.131603,1771938605.0197248,-883.7890625,-882.8125,748.53515625,-881.34765625,0.0,0,0
1771938605.131652,1771938605.0236053,618.65234375,675.78125,-109.375,665.0390625,0.0,0,0
1771938605.131737,1771938605.027486,-745.1171875,-713.8671875,-873.046875,-726.5625,0.0,0,0
1771938605.1317928,1771938605.0313668,-1000.0,-1000.0,-569.3359375,-1000.0,0.0,0,0
1771938605.1327271,1771938605.0355437,-116.69921875,-199.21875,471.6796875,-201.171875,0.0,0,0
1771938605.132811,1771938605.0394242,-939.94140625,-954.58984375,799.8046875,-951.66015625,0.0,0,0
1771938605.1328561,1771938605.043305,828.61328125,913.0859375,101.5625,902.34375,0.0,0,0
1771938605.1328902,1771938605.0471857,-453.61328125,-385.25390625,-759.27734375,-401.3671875,0.0,0,0
1771938605.1329238,1771938605.0510664,-1000.0,-1000.0,-701.171875,-1000.0,0.0,0,0
1771938605.1329548,1771938605.054947,-136.71875,-174.31640625,434.5703125,-174.8046875,0.0,0,0
1771938605.132992,1771938605.0588276,-976.07421875,-996.58203125,823.2421875,-996.09375,0.0,0,0
1771938605.133027,1771938605.0627084,941.40625,-964.84375,185.05859375,-966.30859375,0.0,0,0
1771938605.13306,1771938605.066589,-202.1484375,-95.21484375,-658.69140625,-101.5625,0.0,0,0
1771938605.133093,1771938605.0704699,-1000.0,-1000.0,-747.55859375,-1000.0,0.0,0,0
1771938605.133122,1771938605.0743504,-303.22265625,-338.37890625,325.1953125,-338.8671875,0.0,0,0
1771938605.133155,1771938605.078231,954.58984375,928.22265625,860.3515625,928.7109375,0.0,0,0
1771938605.176357,1771938605.0823834,-988.28125,-908.203125,329.58984375,-909.1796875,0.0,0,0
1771938605.1765618,1771938605.0862641,-22.4609375,95.703125,-553.22265625,87.40234375,0.0,0,0
1771938605.17661,1771938605.0901446,-1000.0,-1000.0,-800.78125,-1000.0,0.0,0,0
1771938605.176646,1771938605.0940254,-512.20703125,-539.0625,118.1640625,-532.2265625,0.0,0,0
1771938605.1766841,1771938605.097906,849.609375,829.1015625,849.609375,832.03125,0.0,0,0
1771938605.1767209,1771938605.1017869,-936.5234375,-862.3046875,472.65625,-863.76953125,0.0,0,0
1771938605.176758,1771938605.1056676,47.8515625,187.98828125,-502.9296875,191.40625,0.0,0,0
1771938605.176794,1771938605.1095483,-1000.0,-1000.0,-806.15234375,-1000.0,0.0,0,0
1771938605.176828,1771938605.113429,-737.3046875,-824.70703125,-77.1484375,-794.921875,0.0,0,0
1771938605.176864,1771938605.1173098,607.91015625,534.66796875,758.30078125,573.2421875,0.0,0,0
1771938605.1769001,1771938605.1211905,-849.609375,-805.6640625,608.3984375,-811.5234375,0.0,0,0
1771938605.176936,1771938605.1250713,85.9375,155.76171875,-483.88671875,156.25,0.0,0,0
1771938605.220792,1771938605.129213,-1000.0,-1000.0,-834.47265625,-1000.0,0.0,0,0
1771938605.220889,1771938605.1330938,-917.96875,-1000.0,-181.640625,-1000.0,0.0,0,0
1771938605.220924,1771938605.1369746,328.125,243.1640625,670.8984375,244.140625,0.0,0,0
1771938605.22096,1771938605.1408553,-816.40625,-770.01953125,688.4765625,-770.5078125,0.0,0,0
1771938605.220994,1771938605.144736,118.65234375,184.5703125,-433.59375,183.10546875,0.0,0,0
1771938605.2210271,1771938605.1486168,-1000.0,-1000.0,-863.76953125,-1000.0,0.0,0,0
1771938605.221059,1771938605.1524975,-1000.0,-1000.0,-318.359375,-1000.0,0.0,0,0
1771938605.221096,1771938605.1563785,87.890625,-19.53125,528.3203125,-2.9296875,0.0,0,0
1771938605.221132,1771938605.1602592,-799.31640625,-782.71484375,745.1171875,-780.76171875,0.0,0,0
1771938605.221168,1771938605.16414,329.1015625,363.76953125,-292.48046875,364.2578125,0.0,0,0
1771938605.2212029,1771938605.1680207,-964.84375,-934.5703125,-900.390625,-933.10546875,0.0,0,0
1771938605.22125,1771938605.1719015,-1000.0,-1000.0,-407.71484375,-1000.0,0.0,0,0
1771938605.281366,1771938605.1760318,-53.22265625,-189.94140625,484.86328125,-184.08203125,0.0,0,0
1771938605.281537,1771938605.1799126,-855.95703125,-845.703125,773.92578125,-842.7734375,0.0,0,0
1771938605.281601,1771938605.1837933,533.203125,566.40625,-121.09375,556.15234375,0.0,0,0
1771938605.281663,1771938605.187674,-843.26171875,-822.265625,-893.06640625,-828.61328125,0.0,0,0
1771938605.281726,1771938605.191555,-1000.0,-1000.0,-540.52734375,-1000.0,0.0,0,0
1771938605.281783,1771938605.1954358,-86.42578125,-219.7265625,472.16796875,-218.26171875,0.0,0,0
1771938605.281845,1771938605.1993165,-913.0859375,-913.0859375,780.76171875,-918.9453125,0.0,0,0
1771938605.281905,1771938605.2031975,729.00390625,770.01953125,-4.8828125,792.48046875,0.0,0,0
1771938605.281964,1771938605.2070782,-609.86328125,-596.19140625,-822.265625,-566.40625,0.0,0,0
1771938605.2820292,1771938605.210959,-1000.0,-1000.0,-624.0234375,-1000.0,0.0,0,0
1771938605.2820811,1771938605.2148397,-107.91015625,-184.08203125,455.56640625,-183.10546875,0.0,0,0
1771938605.282167,1771938605.2187207,-960.44921875,-983.3984375,811.5234375,-984.375,0.0,0,0
1771938605.326476,1771938605.222925,894.53125,998.046875,177.24609375,-997.55859375,0.0,0,0
1771938605.3266098,1771938605.2268057,-318.359375,-215.33203125,-694.3359375,-207.51953125,0.0,0,0
1771938605.326661,1771938605.2306867,-1000.0,-1000.0,-737.79296875,-1000.0,0.0,0,0
1771938605.326703,1771938605.2345674,-219.7265625,-259.27734375,356.4453125,-257.32421875,0.0,0,0
1771938605.3267488,1771938605.2384484,985.83984375,965.33203125,852.5390625,966.796875,0.0,0,0
1771938605.326795,1771938605.2423291,983.3984375,-933.10546875,300.78125,-934.08203125,0.0,0,0
1771938605.326839,1771938605.24621,-108.88671875,5.37109375,-594.23828125,2.44140625,0.0,0,0
1771938605.326884,1771938605.2500908,-1000.0,-1000.0,-795.8984375,-1000.0,0.0,0,0
1771938605.326922,1771938605.2539718,-410.64453125,-455.078125,194.3359375,-447.75390625,0.0,0,0
1771938605.326993,1771938605.2578526,902.34375,869.62890625,860.83984375,873.53515625,0.0,0,0
1771938605.3270369,1771938605.2617335,-952.1484375,-880.37109375,393.5546875,-881.8359375,0.0,0,0
1771938605.327091,1771938605.2656143,61.5234375,190.91796875,-534.1796875,187.01171875,0.0,0,0
1771938605.3721511,1771938605.2698083,-1000.0,-1000.0,-801.7578125,-1000.0,0.0,0,0
1771938605.372313,1771938605.273689,-601.07421875,-642.08984375,55.6640625,-637.6953125,0.0,0,0
1771938605.37238,1771938605.27757,790.52734375,772.4609375,869.140625,774.90234375,0.0,0,0
1771938605.372441,1771938605.281451,-904.78515625,-843.26171875,549.8046875,-844.23828125,0.0,0,0
1771938605.372503,1771938605.2853317,54.6875,170.41015625,-519.53125,170.8984375,0.0,0,0
1771938605.372567,1771938605.2892127,-1000.0,-1000.0,-807.6171875,-1000.0,0.0,0,0
1771938605.372621,1771938605.2930937,-847.16796875,-926.7578125,-120.60546875,-920.41015625,0.0,0,0
1771938605.372679,1771938605.2969744,448.73046875,382.32421875,711.42578125,391.6015625,0.0,0,0
1771938605.372739,1771938605.3008554,-822.75390625,-784.1796875,646.97265625,-785.15625,0.0,0,0
1771938605.372799,1771938605.3047364,95.21484375,143.06640625,-469.7265625,143.06640625,0.0,0,0
1771938605.372874,1771938605.3086174,-1000.0,-1000.0,-840.33203125,-1000.0,0.0,0,0
1771938605.372927,1771938605.312498,-972.16796875,-1000.0,-250.48828125,-1000.0,0.0,0,0
1771938605.4458811,1771938605.3168464,185.546875,80.56640625,590.33203125,84.47265625,0.0,0,0
1771938605.4459908,1771938605.3207273,-801.7578125,-772.4609375,733.88671875,-771.97265625,0.0,0,0
1771938605.4460301,1771938605.3246083,255.37109375,317.3828125,-344.7265625,305.17578125,0.0,0,0
1771938605.446068,1771938605.3284893,-1000.0,-1000.0,-911.1328125,-1000.0,0.0,0,0
1771938605.4461,1771938605.3323703,-932.12890625,-1000.0,-306.15234375,-1000.0,0.0,0,0
1771938605.4461372,1771938605.3362513,189.94140625,127.9296875,607.421875,84.9609375,0.0,0,0
1771938605.446172,1771938605.3401322,-837.40234375,-814.453125,768.5546875,-825.68359375,0.0,0,0
1771938605.446208,1771938605.3440132,425.29296875,425.29296875,-202.1484375,465.33203125,0.0,0,0
1771938605.446243,1771938605.3478942,-909.1796875,-894.53125,-909.66796875,-875.9765625,0.0,0,0
1771938605.4462779,1771938605.3517752,-1000.0,-1000.0,-465.33203125,-1000.0,0.0,0,0
1771938605.4463081,1771938605.3556561,-100.09765625,-234.86328125,475.09765625,-229.98046875,0.0,0,0
1771938605.4463449,1771938605.3595371,-890.625,-891.6015625,773.92578125,-897.94921875,0.0,0,0
1771938605.46119,1771938605.36371,631.34765625,699.21875,-44.921875,719.7265625,0.0,0,0
1771938605.4612632,1771938605.3675911,-715.33203125,-688.96484375,-858.3984375,-661.62109375,0.0,0,0
1771938605.4613068,1771938605.3714721,-1000.0,-1000.0,-607.421875,-1000.0,0.0,0,0
1771938605.4613461,1771938605.375353,-134.765625,-193.84765625,453.61328125,-195.3125,0.0,0,0
1771938605.4613912,1771938605.379234,-944.3359375,-966.30859375,781.25,-960.9375,0.0,0,0
1771938605.4614332,1771938605.383115,851.07421875,946.2890625,140.13671875,932.6171875,0.0,0,0
1771938605.461476,1771938605.3869963,-409.66796875,-320.3125,-700.1953125,-346.6796875,0.0,0,0
1771938605.461517,1771938605.3908772,-1000.0,-1000.0,-741.69921875,-1000.0,0.0,0,0
1771938605.461556,1771938605.3947582,-191.40625,-211.42578125,369.62890625,-194.3359375,0.0,0,0
1771938605.4616,1771938605.3986392,-986.328125,989.74609375,821.2890625,995.60546875,0.0,0,0
1771938605.461644,1771938605.4025204,947.75390625,-954.58984375,225.09765625,-959.47265625,0.0,0,0
1771938605.461689,1771938605.4064014,-190.4296875,-76.171875,-625.0,-82.03125,0.0,0,0
1771938605.506294,1771938605.4105618,-1000.0,-1000.0,-778.80859375,-1000.0,0.0,0,0
1771938605.5064309,1771938605.414443,-345.703125,-368.1640625,260.7421875,-367.1875,0.0,0,0
1771938605.506478,1771938605.418324,937.01171875,916.015625,860.83984375,915.52734375,0.0,0,0
1771938605.506521,1771938605.422205,-970.21484375,-901.85546875,366.69921875,-902.34375,0.0,0,0
1771938605.506565,1771938605.4260862,-0.48828125,105.46875,-547.36328125,100.5859375,0.0,0,0
1771938605.5066109,1771938605.4299672,-1000.0,-1000.0,-770.5078125,-1000.0,0.0,0,0
1771938605.5066502,1771938605.4338484,-551.26953125,-573.73046875,112.79296875,-557.12890625,0.0,0,0
1771938605.5067031,1771938605.4377294,815.91796875,804.19921875,833.0078125,816.89453125,0.0,0,0
1771938605.506748,1771938605.4416103,-923.828125,-855.95703125,479.4921875,-858.88671875,0.0,0,0
1771938605.5067909,1771938605.4454916,52.24609375,187.5,-528.3203125,187.5,0.0,0,0
1771938605.5068521,1771938605.4493725,-1000.0,-1000.0,-791.50390625,-1000.0,0.0,0,0
1771938605.506909,1771938605.4532537,-763.671875,-807.6171875,-50.78125,-817.3828125,0.0,0,0
1771938605.551297,1771938605.4574027,580.56640625,556.640625,764.16015625,543.9453125,0.0,0,0
1771938605.55143,1771938605.4612837,-854.00390625,-808.10546875,594.7265625,-806.15234375,0.0,0,0
1771938605.551479,1771938605.465165,65.91796875,153.3203125,-505.37109375,152.34375,0.0,0,0
1771938605.551525,1771938605.4690459,-1000.0,-1000.0,-815.4296875,-1000.0,0.0,0,0
1771938605.5515652,1771938605.472927,-936.03515625,-1000.0,-186.03515625,-1000.0,0.0,0,0
1771938605.5517209,1771938605.476808,285.64453125,206.54296875,647.94921875,196.77734375,0.0,0,0
1771938605.551766,1771938605.4806893,-806.640625,-767.08984375,699.70703125,-766.6015625,0.0,0,0
1771938605.551809,1771938605.4845705,152.34375,198.2421875,-419.921875,205.56640625,0.0,0,0
1771938605.55185,1771938605.4884515,-1000.0,-1000.0,-874.51171875,-1000.0,0.0,0,0
1771938605.551889,1771938605.4923327,-994.140625,-1000.0,-288.57421875,-1000.0,0.0,0,0
1771938605.5519302,1771938605.4962137,97.16796875,-23.92578125,561.03515625,-25.87890625,0.0,0,0
1771938605.5519722,1771938605.500095,-807.6171875,-786.1328125,746.09375,-786.62109375,0.0,0,0
1771938605.609985,1771938605.5042388,354.98046875,398.4375,-258.30078125,395.5078125,0.0,0,0
1771938605.610156,1771938605.5081198,-954.1015625,-925.29296875,-890.625,-917.96875,0.0,0,0
1771938605.61022,1771938605.512001,-1000.0,-1000.0,-410.15625,-1000.0,0.0,0,0
1771938605.610278,1771938605.5158823,-46.875,-115.72265625,500.48828125,-191.89453125,0.0,0,0
1771938605.610336,1771938605.5197635,-868.1640625,-850.5859375,752.44140625,-861.328125,0.0,0,0
1771938605.6103969,1771938605.5236444,582.03125,644.04296875,-65.4296875,622.0703125,0.0,0,0
1771938605.610456,1771938605.5275257,-781.73828125,-723.14453125,-827.63671875,-763.671875,0.0,0,0
1771938605.610532,1771938605.5314069,-1000.0,-1000.0,-556.15234375,-1000.0,0.0,0,0
1771938605.610604,1771938605.535288,-111.328125,-204.58984375,468.26171875,-206.54296875,0.0,0,0
1771938605.610664,1771938605.539169,-925.29296875,-941.89453125,772.4609375,-940.91796875,0.0,0,0
1771938605.61073,1771938605.5430503,768.06640625,871.09375,58.10546875,868.1640625,0.0,0,0
1771938605.610789,1771938605.5469315,-539.0625,-449.70703125,-760.7421875,-454.58984375,0.0,0,0
1771938605.6572108,1771938605.5510597,-1000.0,-1000.0,-683.59375,-1000.0,0.0,0,0
1771938605.657353,1771938605.554941,-123.046875,-178.22265625,408.69140625,-177.734375,0.0,0,0
1771938605.6574001,1771938605.5588222,-966.30859375,-991.69921875,814.453125,-992.1875,0.0,0,0
1771938605.657451,1771938605.5627034,914.0625,-973.6328125,209.47265625,-975.09765625,0.0,0,0
1771938605.657494,1771938605.5665843,-273.92578125,-145.5078125,-654.296875,-141.6015625,0.0,0,0
1771938605.65754,1771938605.5704656,-1000.0,-1000.0,-724.609375,-1000.0,0.0,0,0
1771938605.6575801,1771938605.5743468,-242.1875,-260.7421875,346.6796875,-300.29296875,0.0,0,0
1771938605.6576278,1771938605.578228,971.6796875,964.84375,839.84375,947.265625,0.0,0,0
1771938605.657679,1771938605.5821092,988.76953125,-928.7109375,289.55078125,-920.41015625,0.0,0,0
1771938605.657727,1771938605.5859904,-70.3125,40.0390625,-583.0078125,48.828125,0.0,0,0
1771938605.657773,1771938605.5898716,-1000.0,-1000.0,-778.3203125,-1000.0,0.0,0,0
1771938605.657815,1771938605.5937529,-440.4296875,-489.74609375,177.24609375,-496.09375,0.0,0,0
1771938605.702231,1771938605.5979576,888.671875,851.07421875,844.23828125,849.609375,0.0,0,0
1771938605.702365,1771938605.6018388,-949.21875,-871.58203125,436.03515625,-871.09375,0.0,0,0
1771938605.7024121,1771938605.60572,49.8046875,200.68359375,-510.7421875,191.40625,0.0,0,0
1771938605.702455,1771938605.6096015,-1000.0,-1000.0,-781.25,-1000.0,0.0,0,0
1771938605.702498,1771938605.6134827,-663.0859375,-719.7265625,10.25390625,-725.5859375,0.0,0,0
1771938605.702543,1771938605.617364,696.77734375,671.875,780.76171875,659.66796875,0.0,0,0
1771938605.702585,1771938605.6212451,-889.16015625,-828.125,559.08203125,-827.1484375,0.0,0,0
1771938605.7026272,1771938605.6251264,54.19921875,165.0390625,-501.46484375,166.50390625,0.0,0,0
1771938605.7026691,1771938605.6290076,-1000.0,-1000.0,-792.96875,-1000.0,0.0,0,0
1771938605.702708,1771938605.6328888,-871.09375,-957.51953125,-150.87890625,-945.80078125,0.0,0,0
1771938605.702755,1771938605.63677,401.85546875,334.47265625,659.66796875,351.5625,0.0,0,0
1771938605.702796,1771938605.6406512,-818.84765625,-777.83203125,688.4765625,-780.2734375,0.0,0,0
1771938605.7473018,1771938605.644848,107.421875,141.11328125,-426.7578125,141.6015625,0.0,0,0
1771938605.747411,1771938605.6487293,-1000.0,-1000.0,-844.23828125,-1000.0,0.0,0,0
1771938605.7474508,1771938605.6526105,-975.09765625,-1000.0,-277.34375,-1000.0,0.0,0,0
1771938605.747493,1771938605.656492,158.69140625,48.33984375,547.36328125,55.17578125,0.0,0,0
1771938605.747535,1771938605.6603732,-801.26953125,-770.5078125,741.69921875,-770.01953125,0.0,0,0
1771938605.7475798,1771938605.6642544,278.80859375,327.63671875,-272.94921875,314.94140625,0.0,0,0
1771938605.747633,1771938605.668136,-979.98046875,-948.73046875,-870.1171875,-956.54296875,0.0,0,0
1771938605.747675,1771938605.672017,-1000.0,-1000.0,-415.0390625,-1000.0,0.0,0,0
1771938605.747723,1771938605.6758983,-33.69140625,-155.2734375,469.23828125,-133.7890625,0.0,0,0
1771938605.747784,1771938605.6797798,-839.35546875,-826.171875,767.578125,-820.3125,0.0,0,0
1771938605.747853,1771938605.683661,478.515625,517.578125,-154.78515625,507.32421875,0.0,0,0
1771938605.747913,1771938605.6875422,-878.90625,-858.88671875,-859.86328125,-861.81640625,0.0,0,0
1771938605.7928991,1771938605.6917238,-1000.0,-1000.0,-505.859375,-1000.0,0.0,0,0
1771938605.793035,1771938605.6956053,-107.91015625,-221.19140625,429.6875,-222.65625,0.0,0,0
1771938605.793104,1771938605.6994865,-902.83203125,-915.52734375,778.3203125,-912.109375,0.0,0,0
1771938605.7931688,1771938605.703368,689.453125,779.78515625,19.53125,768.06640625,0.0,0,0
1771938605.793229,1771938605.7072492,-660.64453125,-583.0078125,-799.31640625,-598.6328125,0.0,0,0
1771938605.793289,1771938605.7111306,-1000.0,-1000.0,-611.81640625,-1000.0,0.0,0,0
1771938605.793343,1771938605.715012,-95.21484375,-199.70703125,423.33984375,-189.94140625,0.0,0,0
1771938605.7934022,1771938605.7188933,-948.73046875,-943.84765625,783.203125,-969.7265625,0.0,0,0
1771938605.79346,1771938605.7227747,848.6328125,881.34765625,150.390625,960.44921875,0.0,0,0
1771938605.793517,1771938605.726656,-406.73828125,-422.36328125,-696.77734375,-289.55078125,0.0,0,0
1771938605.793576,1771938605.7305374,-1000.0,-1000.0,-714.35546875,-1000.0,0.0,0,0
1771938605.793629,1771938605.7344186,-180.17578125,-237.3046875,340.8203125,-233.3984375,0.0,0,0
1771938605.836572,1771938605.7385902,999.0234375,968.75,804.19921875,975.5859375,0.0,0,0
1771938605.8366668,1771938605.7424715,950.68359375,-940.91796875,255.37109375,-942.3828125,0.0,0,0
1771938605.83671,1771938605.746353,-161.62109375,-20.5078125,-593.26171875,-24.4140625,0.0,0,0
1771938605.836753,1771938605.7502344,-1000.0,-1000.0,-769.04296875,-1000.0,0.0,0,0
1771938605.8367932,1771938605.7541156,-372.0703125,-439.453125,172.36328125,-422.36328125,0.0,0,0
1771938605.836837,1771938605.757997,925.78125,882.32421875,810.05859375,888.18359375,0.0,0,0
1771938605.836879,1771938605.7618785,-996.58203125,-886.71875,386.71875,-888.18359375,0.0,0,0
1771938605.836921,1771938605.7657597,-20.01953125,123.53515625,-528.80859375,145.99609375,0.0,0,0
1771938605.836971,1771938605.7696412,-1000.0,-1000.0,-805.6640625,-1000.0,0.0,0,0
1771938605.83701,1771938605.7735226,-567.87109375,-629.39453125,24.90234375,-629.39453125,0.0,0,0
1771938605.8370812,1771938605.777404,790.52734375,750.0,790.52734375,754.8828125,0.0,0,0
1771938605.837122,1771938605.7812853,-915.52734375,-844.23828125,509.27734375,-845.21484375,0.0,0,0
1771938605.882477,1771938605.7854478,54.6875,177.734375,-503.41796875,177.24609375,0.0,0,0
1771938605.882633,1771938605.789329,-1000.0,-1000.0,-785.15625,-1000.0,0.0,0,0
1771938605.882676,1771938605.7932105,-774.90234375,-879.39453125,-94.23828125,-882.32421875,0.0,0,0
1771938605.882721,1771938605.797092,531.25,455.078125,680.17578125,450.1953125,0.0,0,0
1771938605.882763,1771938605.8009734,-840.33203125,-792.96875,603.02734375,-792.96875,0.0,0,0
1771938605.882806,1771938605.8048549,89.35546875,145.01953125,-457.03125,146.97265625,0.0,0,0
1771938605.882856,1771938605.8087363,-1000.0,-1000.0,-811.5234375,-1000.0,0.0,0,0
1771938605.882894,1771938605.8126178,-941.40625,-1000.0,-254.39453125,-1000.0,0.0,0,0
1771938605.882933,1771938605.8164992,246.09375,110.3515625,569.82421875,135.7421875,0.0,0,0
1771938605.8829749,1771938605.8203807,-797.36328125,-764.6484375,709.47265625,-765.13671875,0.0,0,0
1771938605.883115,1771938605.824262,214.84375,245.1171875,-355.95703125,241.2109375,0.0,0,0
1771938605.883159,1771938605.8281434,-1000.0,-993.1640625,-860.83984375,-992.1875,0.0,0,0
1771938605.926261,1771938605.8322935,-1000.0,-1000.0,-345.703125,-1000.0,0.0,0,0
1771938605.926375,1771938605.836175,74.70703125,-56.15234375,512.20703125,-56.15234375,0.0,0,0
1771938605.92641,1771938605.8400564,-819.3359375,-793.9453125,749.0234375,-793.9453125,0.0,0,0
1771938605.9264379,1771938605.8439379,373.53515625,427.24609375,-215.8203125,419.43359375,0.0,0,0
1771938605.9264681,1771938605.8478193,-942.87109375,-905.2734375,-880.859375,-906.25,0.0,0,0
1771938605.9265049,1771938605.8517008,-1000.0,-1000.0,-442.3828125,-1000.0,0.0,0,0
1771938605.926532,1771938605.8555822,-46.38671875,-190.91796875,487.3046875,-220.703125,0.0,0,0
1771938605.9265761,1771938605.859464,-884.765625,-874.0234375,738.76953125,-877.44140625,0.0,0,0
1771938605.926604,1771938605.8633454,607.421875,668.9453125,-67.87109375,658.203125,0.0,0,0
1771938605.926631,1771938605.8672268,-756.34765625,-713.8671875,-813.4765625,-731.4453125,0.0,0,0
1771938605.926659,1771938605.8711083,-1000.0,-1000.0,-589.84375,-1000.0,0.0,0,0
1771938605.926684,1771938605.8749897,-88.8671875,-200.68359375,431.640625,-202.63671875,0.0,0,0
1771938605.971124,1771938605.8791292,-936.03515625,-951.171875,767.08984375,-948.73046875,0.0,0,0
1771938605.971191,1771938605.8830109,808.59375,901.85546875,100.5859375,893.06640625,0.0,0,0
1771938605.9712288,1771938605.8868923,-488.76953125,-402.83203125,-720.21484375,-416.015625,0.0,0,0
1771938605.971266,1771938605.8907738,-1000.0,-1000.0,-676.26953125,-1000.0,0.0,0,0
1771938605.9713001,1771938605.8946552,-118.65234375,-175.78125,394.53125,-175.78125,0.0,0,0
1771938605.971335,1771938605.898537,-975.5859375,-994.140625,810.05859375,-995.1171875,0.0,0,0
1771938605.9714088,1771938605.9024184,925.29296875,-970.21484375,228.515625,-969.23828125,0.0,0,0
1771938605.971488,1771938605.9062998,-238.28125,-115.234375,-634.765625,-111.328125,0.0,0,0
1771938605.97153,1771938605.9101813,-1000.0,-1000.0,-752.44140625,-1000.0,0.0,0,0
1771938605.971565,1771938605.9140627,-285.15625,-337.40234375,277.34375,-336.42578125,0.0,0,0
1771938605.971602,1771938605.9179444,954.58984375,927.24609375,819.3359375,930.17578125,0.0,0,0
1771938605.9716392,1771938605.921826,-989.74609375,-908.203125,358.88671875,-910.64453125,0.0,0,0
1771938606.0468428,1771938605.9261143,-36.62109375,91.30859375,-520.5078125,77.63671875,0.0,0,0
1771938606.0469902,1771938605.9299958,-1000.0,-1000.0,-784.1796875,-1000.0,0.0,0,0
1771938606.047053,1771938605.9338775,-461.42578125,-531.73828125,118.1640625,-525.390625,0.0,0,0
1771938606.047117,1771938605.937759,865.234375,833.0078125,808.59375,834.9609375,0.0,0,0
1771938606.047176,1771938605.9416406,-937.98828125,-863.76953125,461.42578125,-865.234375,0.0,0,0
1771938606.0472372,1771938605.945522,62.5,189.94140625,-498.53515625,192.3828125,0.0,0,0
1771938606.047294,1771938605.9494038,-1000.0,-1000.0,-792.96875,-1000.0,0.0,0,0
1771938606.047352,1771938605.9532852,-723.6328125,-811.5234375,-49.31640625,-784.1796875,0.0,0,0
1771938606.04741,1771938605.957167,628.90625,551.7578125,755.859375,587.40234375,0.0,0,0
1771938606.047468,1771938605.9610484,-861.328125,-808.10546875,599.609375,-813.96484375,0.0,0,0
1771938606.047544,1771938605.96493,73.73046875,156.25,-480.95703125,158.203125,0.0,0,0
1771938606.04761,1771938605.9688115,-1000.0,-1000.0,-818.359375,-1000.0,0.0,0,0
1771938606.076556,1771938605.973008,-890.13671875,-999.51171875,-168.9453125,-993.1640625,0.0,0,0
1771938606.07668,1771938605.9768896,354.98046875,253.41796875,661.62109375,263.671875,0.0,0,0
1771938606.0767272,1771938605.980771,-802.734375,-772.4609375,696.77734375,-772.4609375,0.0,0,0
1771938606.076774,1771938605.9846528,145.5078125,153.3203125,-423.33984375,163.57421875,0.0,0,0
1771938606.076822,1771938605.9885345,-1000.0,-1000.0,-868.65234375,-1000.0,0.0,0,0
1771938606.076864,1771938605.9924161,-987.3046875,-1000.0,-271.97265625,-1000.0,0.0,0,0
1771938606.0769038,1771938605.9962976,135.25390625,40.0390625,573.2421875,18.5546875,0.0,0,0
1771938606.0769658,1771938606.0001793,-804.6875,-771.97265625,739.2578125,-776.3671875,0.0,0,0
1771938606.0770078,1771938606.004061,292.48046875,337.890625,-313.96484375,348.6328125,0.0,0,0
1771938606.07707,1771938606.0079424,-971.6796875,-945.80078125,-893.06640625,-942.3828125,0.0,0,0
1771938606.07713,1771938606.0118241,-1000.0,-1000.0,-387.6953125,-1000.0,0.0,0,0
1771938606.0771682,1771938606.0157058,-52.24609375,-149.90234375,489.2578125,-151.3671875,0.0,0,0
1771938606.120667,1771938606.0198882,-844.23828125,-827.1484375,766.6015625,-829.1015625,0.0,0,1
1771938606.120777,1771938606.0237699,507.32421875,530.76171875,-152.34375,530.2734375,0.0,0,0
1771938606.1208162,1771938606.0276515,-854.00390625,-849.609375,-890.625,-847.16796875,0.0,0,0
1771938606.120854,1771938606.0315332,-1000.0,-1000.0,-502.44140625,-1000.0,0.0,0,0
1771938606.120887,1771938606.035415,-107.91015625,-217.7734375,476.07421875,-219.23828125,0.0,0,0
1771938606.120924,1771938606.0392966,-912.59765625,-921.875,777.83203125,-918.45703125,0.0,0,0
1771938606.12096,1771938606.0431783,726.07421875,803.22265625,31.73828125,791.015625,0.0,0,0
1771938606.120996,1771938606.04706,-615.72265625,-552.734375,-809.08203125,-568.84765625,0.0,0,0
1771938606.121037,1771938606.0509417,-1000.0,-1000.0,-658.203125,-1000.0,0.0,0,0
1771938606.1210701,1771938606.0548232,-95.21484375,-182.6171875,442.87109375,-184.08203125,0.0,0,0
1771938606.121106,1771938606.0587049,-958.984375,-984.375,808.59375,-982.91015625,0.0,0,0
1771938606.121141,1771938606.0625865,887.6953125,-996.09375,191.89453125,997.55859375,0.0,0,0
1771938606.1661801,1771938606.0667593,-327.63671875,-206.0546875,-670.8984375,-217.7734375,0.0,0,0
1771938606.166278,1771938606.070641,-1000.0,-1000.0,-735.83984375,-1000.0,0.0,0,0
1771938606.166315,1771938606.0745227,-209.47265625,-250.0,353.02734375,-248.53515625,0.0,0,0
1771938606.166353,1771938606.0784044,990.72265625,967.28515625,834.47265625,969.7265625,0.0,0,0
1771938606.1663911,1771938606.0822861,980.46875,-932.12890625,302.734375,-935.546875,0.0,0,0
1771938606.166429,1771938606.0861678,-105.95703125,16.6015625,-563.96484375,0.0,0.0,0,0
1771938606.1664672,1771938606.0900495,-1000.0,-1000.0,-790.0390625,-1000.0,0.0,0,0
1771938606.166501,1771938606.0939312,-405.76171875,-447.75390625,192.87109375,-439.453125,0.0,0,0
1771938606.166538,1771938606.0978131,911.62109375,876.46484375,850.09765625,878.90625,0.0,0,0
1771938606.166574,1771938606.1016948,-977.05078125,-881.8359375,389.16015625,-883.30078125,0.0,0,0
1771938606.166611,1771938606.1055765,14.16015625,171.38671875,-534.66796875,172.36328125,0.0,0,0
1771938606.166647,1771938606.1094582,-1000.0,-1000.0,-788.0859375,-1000.0,0.0,0,0
1771938606.211263,1771938606.1136258,-618.65234375,-691.40625,41.9921875,-672.36328125,0.0,0,0
1771938606.211377,1771938606.1175075,739.74609375,694.82421875,797.8515625,715.33203125,0.0,0,0
1771938606.211415,1771938606.1213894,-891.11328125,-833.49609375,520.01953125,-837.40234375,0.0,0,0
1771938606.211452,1771938606.125271,71.77734375,171.875,-500.9765625,171.875,0.0,0,0
1771938606.2114859,1771938606.1291528,-1000.0,-1000.0,-801.7578125,-1000.0,0.0,0,0
1771938606.211516,1771938606.1330345,-823.2421875,-907.71484375,-111.328125,-912.59765625,0.0,0,0
1771938606.21155,1771938606.1369164,477.05078125,411.62109375,721.6796875,403.80859375,0.0,0,0
1771938606.211592,1771938606.140798,-838.8671875,-787.59765625,629.39453125,-786.62109375,0.0,0,0
1771938606.211626,1771938606.1446798,70.3125,143.5546875,-511.23046875,144.53125,0.0,0,0
1771938606.211661,1771938606.1485615,-1000.0,-1000.0,-835.44921875,-1000.0,0.0,0,0
1771938606.21169,1771938606.1524434,-964.35546875,-1000.0,-203.125,-1000.0,0.0,0,0
1771938606.211721,1771938606.156325,199.70703125,89.84375,629.39453125,98.14453125,0.0,0,0
1771938606.2571242,1771938606.160482,-793.45703125,-767.08984375,706.54296875,-766.11328125,0.0,0,0
1771938606.257243,1771938606.1643636,243.1640625,280.2734375,-389.16015625,273.92578125,0.0,0,0
1771938606.257453,1771938606.1682453,-1000.0,-976.5625,-878.90625,-977.5390625,0.0,0,0
1771938606.25749,1771938606.1721272,-1000.0,-1000.0,-314.453125,-1000.0,0.0,0,0
1771938606.257524,1771938606.176009,27.34375,-78.125,544.43359375,-83.984375,0.0,0,0
1771938606.257557,1771938606.1798909,-817.87109375,-800.78125,793.45703125,-802.734375,0.0,0,0
1771938606.2575932,1771938606.1837726,408.69140625,440.4296875,-215.8203125,447.75390625,0.0,0,0
1771938606.257626,1771938606.1876545,-921.875,-895.5078125,-918.45703125,-891.6015625,0.0,0,0
1771938606.257658,1771938606.1915362,-1000.0,-1000.0,-448.2421875,-1000.0,0.0,0,0
1771938606.257688,1771938606.195418,-112.79296875,-234.86328125,479.4921875,-232.91015625,0.0,0,0
1771938606.2577212,1771938606.1992998,-884.765625,-888.671875,781.25,-887.6953125,0.0,0,0
1771938606.257756,1771938606.2031815,637.6953125,687.01171875,-67.87109375,682.12890625,0.0,0,0
1771938606.3013608,1771938606.207329,-730.46875,-704.1015625,-877.44140625,-708.0078125,0.0,0,0
1771938606.301517,1771938606.211211,-1000.0,-1000.0,-548.828125,-1000.0,0.0,0,0
1771938606.301566,1771938606.2150927,-91.30859375,-198.73046875,503.90625,-199.70703125,0.0,0,0
1771938606.30161,1771938606.2189746,-941.89453125,-956.0546875,780.2734375,-953.61328125,0.0,0,0
1771938606.301653,1771938606.2228565,833.49609375,916.015625,75.68359375,910.15625,0.0,0,0
1771938606.301697,1771938606.2267382,-443.359375,-377.9296875,-763.671875,-389.6484375,0.0,0,0
1771938606.301738,1771938606.2306201,-1000.0,-1000.0,-683.10546875,-1000.0,0.0,0,0
1771938606.301779,1771938606.2345018,-144.53125,-191.40625,431.640625,-174.31640625,0.0,0,0
1771938606.301821,1771938606.2383838,-984.375,996.58203125,826.171875,-997.0703125,0.0,0,0
1771938606.301864,1771938606.2422657,940.91796875,-960.9375,213.37890625,-964.84375,0.0,0,0
1771938606.301905,1771938606.2461474,-200.68359375,-87.890625,-651.85546875,-92.7734375,0.0,0,0
1771938606.3019469,1771938606.2500293,-1000.0,-1000.0,-760.25390625,-1000.0,0.0,0,0
1771938606.347897,1771938606.2541714,-315.91796875,-359.375,300.78125,-350.5859375,0.0,0,0
1771938606.348046,1771938606.2580533,942.87109375,918.45703125,874.0234375,923.33984375,0.0,0,0
1771938606.348094,1771938606.261935,-964.35546875,-902.83203125,351.5625,-906.25,0.0,0,0
1771938606.348143,1771938606.265817,7.8125,105.46875,-566.89453125,92.7734375,0.0,0,0
1771938606.348186,1771938606.2696989,-1000.0,-1000.0,-788.57421875,-1000.0,0.0,0,0
1771938606.348226,1771938606.2735808,-499.0234375,-535.15625,172.36328125,-539.0625,0.0,0,0
1771938606.3482711,1771938606.2774627,851.5625,833.0078125,889.6484375,828.61328125,0.0,0,0
1771938606.3483121,1771938606.2813444,-931.15234375,-863.76953125,432.6171875,-862.3046875,0.0,0,0
1771938606.348354,1771938606.2852263,61.5234375,189.453125,-562.01171875,189.94140625,0.0,0,0
1771938606.348397,1771938606.2891083,-1000.0,-1000.0,-779.78515625,-1000.0,0.0,0,0
1771938606.348455,1771938606.2929902,-751.46484375,-813.96484375,9.27734375,-803.7109375,0.0,0,0
1771938606.3485298,1771938606.296872,591.30859375,548.828125,805.6640625,562.01171875,0.0,0,0
1771938606.408297,1771938606.3009984,-841.796875,-806.640625,599.12109375,-809.08203125,0.0,0,0
1771938606.408463,1771938606.3048804,91.796875,153.3203125,-506.8359375,154.78515625,0.0,0,0
1771938606.408632,1771938606.3087623,-1000.0,-1000.0,-816.89453125,-1000.0,0.0,0,0
1771938606.4087129,1771938606.3126442,-927.734375,-1000.0,-152.83203125,-1000.0,0.0,0,0
1771938606.4088058,1771938606.3165262,300.78125,207.03125,681.640625,226.07421875,0.0,0,0
1771938606.408855,1771938606.320408,-795.8984375,-767.08984375,734.375,-768.5546875,0.0,0,0
1771938606.4089,1771938606.32429,167.96875,207.51953125,-415.52734375,189.94140625,0.0,0,0
1771938606.4089441,1771938606.328172,-1000.0,-1000.0,-880.37109375,-1000.0,0.0,0,0
1771938606.408984,1771938606.332054,-985.3515625,-1000.0,-255.859375,-1000.0,0.0,0,0
1771938606.409068,1771938606.3359358,118.65234375,-16.6015625,596.6796875,-8.30078125,0.0,0,0
1771938606.409121,1771938606.3398175,-802.734375,-783.69140625,741.2109375,-782.2265625,0.0,0,0
1771938606.409167,1771938606.3436995,342.7734375,369.62890625,-323.73046875,373.046875,0.0,0,0
1771938606.451651,1771938606.347896,-957.51953125,-933.10546875,-903.80859375,-929.19921875,0.0,0,0
1771938606.451784,1771938606.3517783,-1000.0,-1000.0,-373.53515625,-1000.0,0.0,0,0
1771938606.451825,1771938606.3556602,-70.80078125,-178.22265625,506.8359375,-183.59375,0.0,0,0
1771938606.4518652,1771938606.3595421,-852.5390625,-840.8203125,769.04296875,-844.7265625,0.0,0,0
