timestamp,lsl_timestamp,TP9,AF7,AF8,TP10,Right AUX,keypress_A,keypress_B
1771943999.512598,1771943999.4523408,-1000.0,-515.625,-936.5234375,-1000.0,0.0,0,0
1771943999.512718,1771943999.4562395,-793.45703125,-112.3046875,186.03515625,-240.234375,0.0,0,0
1771943999.512761,1771943999.4601383,574.70703125,214.35546875,-933.59375,973.14453125,0.0,0,0
1771943999.512794,1771943999.4640372,-812.5,144.53125,585.44921875,-938.4765625,0.0,0,0
1771943999.512827,1771943999.467936,155.2734375,-266.6015625,-607.91015625,-7.8125,0.0,0,0
1771943999.5128572,1771943999.471835,-1000.0,-472.65625,-1000.0,-1000.0,0.0,0,0
1771943999.512884,1771943999.4757338,-1000.0,-175.29296875,-2.44140625,-430.6640625,0.0,0,0
1771943999.5129118,1771943999.4796326,234.86328125,123.53515625,-970.21484375,882.32421875,0.0,0,0
1771943999.51294,1771943999.4835312,-770.5078125,92.7734375,679.19921875,-884.27734375,0.0,0,0
1771943999.5129678,1771943999.48743,193.84765625,-281.73828125,-470.703125,173.828125,0.0,0,0
1771943999.512995,1771943999.491329,-1000.0,-499.51171875,-1000.0,-1000.0,0.0,0,0
1771943999.513021,1771943999.4952278,-1000.0,-267.578125,-166.015625,-663.57421875,0.0,0,0
1771943999.555043,1771943999.4991918,-5.37109375,68.359375,962.40234375,724.609375,0.0,0,0
1771943999.555116,1771943999.5030906,-783.203125,81.54296875,775.87890625,-838.8671875,0.0,0,0
1771943999.555146,1771943999.5069895,377.44140625,-368.65234375,-359.86328125,172.8515625,0.0,0,0
1771943999.5551739,1771943999.5108883,-926.26953125,-662.59765625,-1000.0,-1000.0,0.0,0,0
1771943999.555201,1771943999.5147872,-1000.0,-471.19140625,-385.25390625,-908.69140625,0.0,0,0
1771943999.555229,1771943999.518686,-181.15234375,-56.640625,821.77734375,410.15625,0.0,0,0
1771943999.555257,1771943999.522585,-850.09765625,41.015625,843.75,-787.59765625,0.0,0,0
1771943999.555284,1771943999.5264838,587.890625,-354.00390625,-318.359375,143.5546875,0.0,0,0
1771943999.5553112,1771943999.5303826,-796.875,-597.65625,-1000.0,-1000.0,0.0,0,0
1771943999.555337,1771943999.5342815,-1000.0,-398.92578125,-575.1953125,-1000.0,0.0,0,0
1771943999.5553632,1771943999.5381804,-211.42578125,50.78125,619.62890625,86.42578125,0.0,0,0
1771943999.55539,1771943999.5420792,-934.08203125,198.73046875,941.40625,-767.578125,0.0,0,0
1771943999.613888,1771943999.5460327,840.8203125,-188.4765625,-187.01171875,294.43359375,0.0,0,0
1771943999.614005,1771943999.5499315,-495.60546875,-556.640625,-1000.0,-966.796875,0.0,0,0
1771943999.614044,1771943999.5538304,-1000.0,-461.42578125,-691.40625,-1000.0,0.0,0,0
1771943999.614079,1771943999.5577292,-179.6875,-5.37109375,459.9609375,-104.00390625,0.0,0,0
1771943999.614113,1771943999.5616279,-991.2109375,214.35546875,-992.67578125,-811.5234375,0.0,0,0
1771943999.614149,1771943999.5655267,-980.46875,-82.51953125,-15.13671875,485.83984375,0.0,0,0
1771943999.614182,1771943999.5694256,-163.0859375,-510.25390625,-1000.0,-871.09375,0.0,0,0
1771943999.614215,1771943999.5733244,-1000.0,-533.69140625,-788.0859375,-1000.0,0.0,0,0
1771943999.6142652,1771943999.5772233,-281.25,-137.6953125,311.5234375,-226.07421875,0.0,0,0
1771943999.6142988,1771943999.5811222,955.56640625,63.4765625,-951.66015625,-906.73828125,0.0,0,0
1771943999.614337,1771943999.585021,-925.78125,-177.734375,188.96484375,749.51171875,0.0,0,0
1771943999.614398,1771943999.5889199,32.2265625,-602.5390625,-972.65625,-623.046875,0.0,0,0
1771943999.6601942,1771943999.5928624,-1000.0,-668.45703125,-845.703125,-1000.0,0.0,0,0
1771943999.660358,1771943999.5967612,-476.5625,-214.35546875,259.765625,-196.77734375,0.0,0,0
1771943999.660427,1771943999.60066,880.859375,114.74609375,-929.19921875,-953.61328125,0.0,0,0
1771943999.6605031,1771943999.604559,-932.6171875,-74.70703125,351.5625,910.15625,0.0,0,0
1771943999.6605709,1771943999.6084578,113.76953125,-523.92578125,-869.140625,-370.1171875,0.0,0,0
1771943999.6606321,1771943999.6123567,-1000.0,-676.26953125,-897.4609375,-1000.0,0.0,0,0
1771943999.6606998,1771943999.6162555,-720.21484375,-355.46875,222.65625,-214.84375,0.0,0,0
1771943999.660764,1771943999.6201544,668.45703125,-18.06640625,-934.5703125,981.4453125,0.0,0,0
1771943999.660831,1771943999.6240532,-828.61328125,-70.3125,544.921875,-946.77734375,0.0,0,0
1771943999.660915,1771943999.627952,164.55078125,-519.53125,-646.484375,-32.2265625,0.0,0,0
1771943999.660972,1771943999.631851,-1000.0,-746.58203125,-999.0234375,-1000.0,0.0,0,0
1771943999.661027,1771943999.6357498,-957.51953125,-378.90625,44.921875,-405.2734375,0.0,0,0
1771943999.705408,1771943999.6397727,334.47265625,21.97265625,-959.9609375,895.5078125,0.0,0,0
1771943999.705503,1771943999.6436715,-778.3203125,-8.30078125,639.6484375,-891.11328125,0.0,0,0
1771943999.705575,1771943999.6475704,139.6484375,-453.61328125,-515.625,152.34375,0.0,0,0
1771943999.7056231,1771943999.6514692,-1000.0,-715.8203125,-1000.0,-1000.0,0.0,0,0
1771943999.705665,1771943999.655368,-1000.0,-439.94140625,-120.60546875,-615.72265625,0.0,0,0
1771943999.705708,1771943999.659267,40.0390625,-50.29296875,-999.51171875,770.5078125,0.0,0,0
1771943999.705751,1771943999.6631658,-771.97265625,-7.8125,706.0546875,-848.6328125,0.0,0,0
1771943999.705794,1771943999.6670647,334.47265625,-354.4921875,-437.5,178.22265625,0.0,0,0
1771943999.70584,1771943999.6709638,-947.265625,-562.98828125,-1000.0,-1000.0,0.0,0,0
1771943999.705882,1771943999.6748626,-1000.0,-360.3515625,-356.93359375,-879.8828125,0.0,0,0
1771943999.7059252,1771943999.6787615,-150.87890625,43.9453125,844.7265625,454.1015625,0.0,0,0
1771943999.7059689,1771943999.6826603,-828.125,94.23828125,824.21875,-792.96875,0.0,0,0
1771943999.7502651,1771943999.6866717,532.71484375,-346.6796875,-335.44921875,145.5078125,0.0,0,0
1771943999.750379,1771943999.6905706,-848.14453125,-595.703125,-1000.0,-1000.0,0.0,0,0
1771943999.750425,1771943999.6944695,-1000.0,-429.6875,-535.64453125,-1000.0,0.0,0,0
1771943999.750467,1771943999.6983683,-217.28515625,-14.6484375,645.01953125,113.28125,0.0,0,0
1771943999.7505112,1771943999.7022674,-925.29296875,159.1796875,934.08203125,-764.6484375,0.0,0,0
1771943999.750556,1771943999.7061663,812.01171875,-232.91015625,-201.66015625,262.20703125,0.0,0,0
1771943999.750599,1771943999.7100651,-540.52734375,-604.00390625,-1000.0,-981.4453125,0.0,0,0
1771943999.7506409,1771943999.713964,-1000.0,-535.15625,-670.41015625,-1000.0,0.0,0,0
1771943999.7506812,1771943999.7178628,-181.15234375,-105.95703125,493.1640625,-82.51953125,0.0,0,0
1771943999.750724,1771943999.7217617,-988.76953125,87.40234375,997.0703125,-803.22265625,0.0,0,0
1771943999.750767,1771943999.7256608,-988.28125,-234.86328125,-51.7578125,460.44921875,0.0,0,0
1771943999.7508092,1771943999.7295597,-187.01171875,-612.79296875,-1000.0,-883.30078125,0.0,0,0
1771943999.796569,1771943999.7335587,-1000.0,-606.93359375,-737.79296875,-1000.0,0.0,0,0
1771943999.7967181,1771943999.7374575,-270.01953125,-166.9921875,359.86328125,-230.95703125,0.0,0,0
1771943999.7967849,1771943999.7413566,960.9375,76.171875,-978.515625,-896.97265625,0.0,0,0
1771943999.7968462,1771943999.7452555,-931.15234375,-191.89453125,128.90625,714.35546875,0.0,0,0
1771943999.7969122,1771943999.7491543,12.6953125,-613.28125,-987.3046875,-668.45703125,0.0,0,0
1771943999.7969742,1771943999.7530532,-1000.0,-657.71484375,-825.68359375,-1000.0,0.0,0,0
1771943999.797042,1771943999.7569523,-464.84375,-231.4453125,283.69140625,-193.359375,0.0,0,0
1771943999.797107,1771943999.7608511,863.76953125,44.921875,-952.63671875,-966.30859375,0.0,0,0
1771943999.797164,1771943999.76475,-877.44140625,-119.62890625,330.56640625,948.73046875,0.0,0,0
1771943999.7972212,1771943999.7686489,192.3828125,-492.1875,-838.37890625,-320.3125,0.0,0,0
1771943999.7972732,1771943999.772548,-1000.0,-585.44921875,-925.78125,-1000.0,0.0,0,0
1771943999.7973142,1771943999.7764468,-709.47265625,-186.03515625,193.84765625,-185.546875,0.0,0,0
1771943999.8404531,1771943999.7804344,680.17578125,145.99609375,-928.7109375,995.60546875,0.0,0,0
1771943999.8405719,1771943999.7843332,-830.56640625,36.1328125,509.27734375,-954.58984375,0.0,0,0
1771943999.840621,1771943999.788232,166.50390625,-359.86328125,-674.31640625,-52.24609375,0.0,0,0
1771943999.84115,1771943999.7921312,-1000.0,-513.671875,-999.0234375,-1000.0,0.0,0,0
1771943999.841197,1771943999.79603,-945.80078125,-150.87890625,49.31640625,-377.9296875,0.0,0,0
1771943999.841244,1771943999.799929,351.5625,243.1640625,-951.66015625,909.66796875,0.0,0,0
1771943999.841287,1771943999.8038278,-780.76171875,208.49609375,602.05078125,-897.4609375,0.0,0,0
1771943999.841331,1771943999.8077269,140.625,-250.0,-556.640625,134.765625,0.0,0,0
1771943999.8413708,1771943999.8116257,-1000.0,-516.6015625,-1000.0,-1000.0,0.0,0,0
1771943999.841411,1771943999.8155246,-1000.0,-220.21484375,-121.09375,-579.1015625,0.0,0,0
1771943999.8414521,1771943999.8194237,53.7109375,170.41015625,994.140625,805.6640625,0.0,0,0
1771943999.841493,1771943999.8233225,-770.5078125,204.1015625,726.07421875,-855.46875,0.0,0,0
1771943999.902268,1771943999.8274004,320.80078125,-187.98828125,-418.9453125,182.6171875,0.0,0,0
1771943999.9024189,1771943999.8312993,-954.1015625,-446.77734375,-1000.0,-1000.0,0.0,0,0
1771943999.9024808,1771943999.8351984,-1000.0,-208.0078125,-325.68359375,-855.95703125,0.0,0,0
1771943999.902549,1771943999.8390973,-136.71875,173.33984375,854.00390625,490.72265625,0.0,0,0
1771943999.9026089,1771943999.8429964,-823.2421875,235.3515625,814.453125,-797.8515625,0.0,0,0
1771943999.9026802,1771943999.8468952,519.53125,-147.94921875,-346.6796875,147.94921875,0.0,0,0
1771943999.902739,1771943999.850794,-854.4921875,-429.19921875,-1000.0,-1000.0,0.0,0,0
1771943999.902795,1771943999.8546932,-1000.0,-325.1953125,-573.73046875,-1000.0,0.0,0,0
1771943999.90286,1771943999.858592,-220.21484375,68.84765625,649.4140625,149.4140625,0.0,0,0
1771943999.9029388,1771943999.8624911,-918.45703125,258.30078125,887.6953125,-763.671875,0.0,0,0
1771943999.902999,1771943999.86639,787.59765625,-114.2578125,-283.203125,240.72265625,0.0,0,0
1771943999.9030569,1771943999.870289,-572.265625,-454.58984375,-1000.0,-992.67578125,0.0,0,0
1771943999.9321752,1771943999.8742633,-1000.0,-358.3984375,-690.4296875,-1000.0,0.0,0,0
1771943999.9322848,1771943999.8781621,-183.59375,91.30859375,484.86328125,-46.38671875,0.0,0,0
1771943999.9323509,1771943999.8820612,-984.375,323.73046875,965.33203125,-793.45703125,0.0,0,0
1771943999.9324129,1771943999.88596,-1000.0,30.2734375,-124.0234375,429.19921875,0.0,0,0
1771943999.9324732,1771943999.8898592,-213.37890625,-330.56640625,-1000.0,-897.94921875,0.0,0,0
1771943999.932532,1771943999.893758,-1000.0,-297.36328125,-764.16015625,-1000.0,0.0,0,0
1771943999.932588,1771943999.8976572,-242.1875,122.0703125,342.28515625,-225.09765625,0.0,0,0
1771943999.9326458,1771943999.901556,971.19140625,348.6328125,-994.140625,-883.30078125,0.0,0,0
1771943999.932705,1771943999.9054549,-937.01171875,67.87109375,58.59375,675.78125,0.0,0,0
1771943999.9327629,1771943999.909354,1.953125,-375.0,-1000.0,-713.37890625,0.0,0,0
1771943999.932817,1771943999.9132528,-1000.0,-471.6796875,-843.75,-1000.0,0.0,0,0
1771943999.9328902,1771943999.917152,-437.98828125,-62.01171875,263.18359375,-199.70703125,0.0,0,0
1771943999.975841,1771943999.921109,877.9296875,243.65234375,-956.0546875,-954.58984375,0.0,0,0
1771943999.975968,1771943999.925008,-883.30078125,76.66015625,264.16015625,912.109375,0.0,0,0
1771943999.9760342,1771943999.928907,182.6171875,-320.3125,-875.9765625,-386.71875,0.0,0,0
1771943999.976096,1771943999.932806,-1000.0,-427.24609375,-913.57421875,-1000.0,0.0,0,0
1771943999.976154,1771943999.9367049,-668.9453125,-14.6484375,190.4296875,-173.828125,0.0,0,0
1771943999.976213,1771943999.940604,720.703125,299.8046875,-929.6875,-997.55859375,0.0,0,0
1771943999.9762719,1771943999.9445028,-839.35546875,106.4453125,464.84375,-963.8671875,0.0,0,0
1771943999.976318,1771943999.948402,170.8984375,-391.11328125,-716.796875,-88.37890625,0.0,0,0
1771943999.976363,1771943999.9523008,-1000.0,-564.453125,-979.98046875,-1000.0,0.0,0,0
1771943999.9764218,1771943999.9562,-921.38671875,-204.1015625,60.05859375,-354.4921875,0.0,0,0
1771943999.9764638,1771943999.960099,390.13671875,162.59765625,-949.21875,920.8984375,0.0,0,0
1771943999.9765198,1771943999.9639978,-786.1328125,112.79296875,578.61328125,-904.296875,0.0,0,0
1771944000.0523598,1771943999.967942,142.578125,-298.828125,-591.30859375,103.02734375,0.0,0,0
1771944000.052591,1771943999.971841,-1000.0,-492.67578125,-1000.0,-1000.0,0.0,0,0
1771944000.052653,1771943999.97574,-1000.0,-205.56640625,-114.74609375,-548.828125,0.0,0,0
1771944000.052712,1771943999.979639,81.0546875,187.98828125,-997.0703125,824.21875,0.0,0,0
1771944000.052771,1771943999.983538,-768.5546875,226.07421875,686.03515625,-860.83984375,0.0,0,0
1771944000.052844,1771943999.987437,299.8046875,-181.640625,-450.1953125,187.98828125,0.0,0,0
1771944000.052903,1771943999.9913359,-963.8671875,-465.33203125,-1000.0,-1000.0,0.0,0,0
1771944000.052958,1771943999.995235,-1000.0,-249.0234375,-387.20703125,-819.3359375,0.0,0,0
1771944000.053041,1771943999.9991338,-109.86328125,194.3359375,862.79296875,541.50390625,0.0,0,0
1771944000.0531101,1771944000.003033,-814.94140625,283.69140625,776.3671875,-805.17578125,0.0,0,0
1771944000.053186,1771944000.006932,495.1171875,-115.234375,-403.80859375,151.3671875,0.0,0,0
1771944000.0532439,1771944000.0108309,-865.72265625,-410.15625,-1000.0,-1000.0,0.0,0,0
1771944000.082346,1771944000.0148618,-1000.0,-278.3203125,-559.5703125,-1000.0,0.0,0,0
1771944000.082459,1771944000.0187607,-225.09765625,178.22265625,673.33984375,183.10546875,0.0,0,0
1771944000.082525,1771944000.0226598,-908.69140625,371.09375,864.2578125,-765.13671875,0.0,0,0
1771944000.082586,1771944000.0265589,753.41796875,-19.53125,-325.68359375,217.28515625,0.0,0,0
1771944000.0826461,1771944000.0304577,-617.1875,-335.9375,-1000.0,-1000.0,0.0,0,0
1771944000.082701,1771944000.0343568,-1000.0,-247.55859375,-650.390625,-1000.0,0.0,0,0
1771944000.082756,1771944000.038256,-189.453125,145.01953125,517.578125,-34.1796875,0.0,0,0
1771944000.0828218,1771944000.0421548,-973.6328125,344.7265625,950.68359375,-789.0625,0.0,0,0
1771944000.082881,1771944000.046054,968.26171875,42.96875,-141.11328125,408.69140625,0.0,0,0
1771944000.082939,1771944000.049953,-277.34375,-290.52734375,-1000.0,-909.1796875,0.0,0,0
1771944000.083004,1771944000.0538518,-1000.0,-274.90234375,-772.94921875,-1000.0,0.0,0,0
1771944000.0830588,1771944000.057751,-219.7265625,138.671875,333.0078125,-213.8671875,0.0,0,0
1771944000.125652,1771944000.0617645,981.4453125,375.0,-987.79296875,-873.53515625,0.0,0,0
1771944000.125752,1771944000.0656636,-946.77734375,89.35546875,42.96875,648.92578125,0.0,0,0
1771944000.1257951,1771944000.0695627,-31.73828125,-326.171875,-1000.0,-739.74609375,0.0,0,0
1771944000.125838,1771944000.0734618,-1000.0,-377.9296875,-824.21875,-1000.0,0.0,0,0
1771944000.125877,1771944000.0773606,-411.1328125,8.30078125,267.578125,-202.63671875,0.0,0,0
1771944000.125921,1771944000.0812597,891.6015625,275.390625,-954.1015625,-949.21875,0.0,0,0
1771944000.125964,1771944000.0851588,-890.625,107.421875,272.94921875,895.01953125,0.0,0,0
1771944000.1260061,1771944000.089058,153.3203125,-323.73046875,-885.25390625,-413.0859375,0.0,0,0
1771944000.1260512,1771944000.0929568,-1000.0,-472.16796875,-905.2734375,-1000.0,0.0,0,0
1771944000.126112,1771944000.0968559,-626.953125,-109.375,200.68359375,-175.29296875,0.0,0,0
1771944000.1261451,1771944000.100755,758.30078125,180.6640625,-932.12890625,-996.09375,0.0,0,0
1771944000.1261911,1771944000.104654,-846.6796875,41.015625,459.9609375,-967.28515625,0.0,0,0
1771944000.215708,1771944000.1088402,177.24609375,-388.671875,-718.26171875,-104.00390625,0.0,0,0
1771944000.215947,1771944000.1127393,-1000.0,-562.98828125,-1000.0,-1000.0,0.0,0,0
1771944000.216053,1771944000.1166384,-881.34765625,-230.95703125,44.43359375,-335.44921875,0.0,0,0
1771944000.216151,1771944000.1205375,451.171875,98.6328125,-942.3828125,929.6875,0.0,0,0
1771944000.2162151,1771944000.1244366,-793.45703125,39.55078125,582.03125,-909.66796875,0.0,0,0
1771944000.216276,1771944000.1283355,145.5078125,-375.0,-583.0078125,88.8671875,0.0,0,0
1771944000.216417,1771944000.1322346,-1000.0,-604.00390625,-1000.0,-1000.0,0.0,0,0
1771944000.216539,1771944000.1361337,-1000.0,-294.921875,-129.8828125,-530.2734375,0.0,0,0
1771944000.216751,1771944000.1400328,116.69921875,87.890625,-989.74609375,833.0078125,0.0,0,0
1771944000.2168,1771944000.1439319,-765.625,97.65625,683.59375,-864.2578125,0.0,0,0
1771944000.216842,1771944000.147831,268.5546875,-282.2265625,-460.44921875,190.4296875,0.0,0,0
1771944000.216913,1771944000.15173,-979.00390625,-533.69140625,-1000.0,-1000.0,0.0,0,0
1771944000.21808,1771944000.1557364,-1000.0,-298.828125,-297.36328125,-802.734375,0.0,0,0
1771944000.218144,1771944000.1596355,-74.21875,131.34765625,888.671875,562.98828125,0.0,0,0
1771944000.218189,1771944000.1635346,-802.24609375,219.23828125,785.64453125,-809.08203125,0.0,0,0
1771944000.2182982,1771944000.1674337,452.63671875,-215.8203125,-383.7890625,154.296875,0.0,0,0
1771944000.218378,1771944000.1713328,-886.71875,-483.3984375,-1000.0,-1000.0,0.0,0,0
1771944000.218522,1771944000.175232,-1000.0,-283.203125,-493.65234375,-1000.0,0.0,0,0
1771944000.218579,1771944000.179131,-231.93359375,125.9765625,707.03125,217.28515625,0.0,0,0
1771944000.2186172,1771944000.1830301,-895.99609375,271.97265625,870.1171875,-768.06640625,0.0,0,0
1771944000.218698,1771944000.1869292,708.49609375,-92.28515625,-309.5703125,199.70703125,0.0,0,0
1771944000.2187479,1771944000.1908283,-675.29296875,-425.78125,-1000.0,-1000.0,0.0,0,0
1771944000.218783,1771944000.1947274,-1000.0,-350.09765625,-648.92578125,-1000.0,0.0,0,0
1771944000.218816,1771944000.1986265,-196.2890625,64.453125,538.57421875,-17.578125,0.0,0,0
1771944000.2608619,1771944000.202604,-960.44921875,253.90625,950.68359375,-785.15625,0.0,0,0
1771944000.26098,1771944000.2065032,930.17578125,-90.8203125,-157.2265625,392.08984375,0.0,0,0
1771944000.2610402,1771944000.2104023,-354.4921875,-435.546875,-1000.0,-917.96875,0.0,0,0
1771944000.261098,1771944000.2143013,-1000.0,-401.85546875,-739.74609375,-1000.0,0.0,0,0
1771944000.2611551,1771944000.2182004,-179.6875,24.4140625,376.46484375,-198.73046875,0.0,0,0
1771944000.261222,1771944000.2220995,998.046875,302.734375,-981.4453125,-861.328125,0.0,0,0
1771944000.261281,1771944000.2259986,-959.9609375,41.50390625,43.9453125,616.69921875,0.0,0,0
1771944000.261338,1771944000.2298977,-71.77734375,-415.52734375,-1000.0,-770.5078125,0.0,0,0
1771944000.261396,1771944000.2337968,-1000.0,-482.421875,-820.80078125,-1000.0,0.0,0,0
1771944000.26145,1771944000.2376962,-367.67578125,-24.90234375,271.484375,-206.54296875,0.0,0,0
1771944000.261514,1771944000.2415953,914.0625,261.23046875,-948.73046875,-942.87109375,0.0,0,0
1771944000.2615628,1771944000.2454944,-900.87890625,87.40234375,262.6953125,873.046875,0.0,0,0
1771944000.306474,1771944000.2494597,117.67578125,-315.4296875,-912.109375,-447.265625,0.0,0,0
1771944000.306571,1771944000.2533588,-1000.0,-446.2890625,-878.41796875,-1000.0,0.0,0,0
1771944000.306616,1771944000.257258,-565.91796875,-61.03515625,237.79296875,-176.7578125,0.0,0,0
1771944000.3066602,1771944000.261157,814.94140625,252.44140625,-937.5,-994.140625,0.0,0,0
1771944000.306701,1771944000.2650561,-858.3984375,143.5546875,466.796875,-972.16796875,0.0,0,0
1771944000.306744,1771944000.2689552,184.08203125,-270.99609375,-722.65625,-126.46484375,0.0,0,0
1771944000.306792,1771944000.2728546,-1000.0,-451.66015625,-974.12109375,-1000.0,0.0,0,0
1771944000.3068318,1771944000.2767537,-845.21484375,-113.76953125,105.46875,-316.40625,0.0,0,0
1771944000.306874,1771944000.2806528,507.32421875,242.1875,-943.359375,938.96484375,0.0,0,0
1771944000.306915,1771944000.2845519,-800.29296875,189.94140625,588.8671875,-915.0390625,0.0,0,0
1771944000.306957,1771944000.288451,147.4609375,-260.25390625,-586.9140625,69.3359375,0.0,0,0
1771944000.306999,1771944000.29235,-1000.0,-452.1484375,-1000.0,-1000.0,0.0,0,0
1771944000.355328,1771944000.2963371,-1000.0,-128.41796875,-32.71484375,-510.7421875,0.0,0,0
1771944000.355443,1771944000.3002362,145.5078125,235.3515625,-983.3984375,842.7734375,0.0,0,0
1771944000.355541,1771944000.3041356,-762.6953125,245.60546875,701.66015625,-867.67578125,0.0,0,0
1771944000.355606,1771944000.3080347,236.328125,-171.875,-437.01171875,194.3359375,0.0,0,0
1771944000.3556402,1771944000.3119338,-993.1640625,-406.73828125,-1000.0,-1000.0,0.0,0,0
1771944000.355669,1771944000.3158329,-1000.0,-144.04296875,-213.8671875,-774.90234375,0.0,0,0
1771944000.355731,1771944000.319732,-56.15234375,208.984375,924.31640625,599.609375,0.0,0,0
1771944000.355799,1771944000.323631,-794.921875,259.27734375,781.25,-815.4296875,0.0,0,0
1771944000.355832,1771944000.3275304,432.12890625,-129.39453125,-365.72265625,157.71484375,0.0,0,0
1771944000.3559098,1771944000.3314295,-896.97265625,-408.69140625,-1000.0,-1000.0,0.0,0,0
1771944000.355996,1771944000.3353286,-1000.0,-221.19140625,-443.84765625,-994.62890625,0.0,0,0
1771944000.3560588,1771944000.3392277,-235.3515625,199.21875,749.0234375,258.7890625,0.0,0,0
1771944000.4099169,1771944000.3431718,-889.6484375,323.73046875,882.8125,-771.484375,0.0,0,0
1771944000.410007,1771944000.347071,686.5234375,-65.4296875,-286.62109375,173.828125,0.0,0,0
1771944000.410038,1771944000.35097,-704.58984375,-370.1171875,-1000.0,-1000.0,0.0,0,0
1771944000.410066,1771944000.3548691,-1000.0,-277.83203125,-597.65625,-1000.0,0.0,0,0
1771944000.410093,1771944000.3587682,-197.75390625,128.41796875,570.80078125,4.8828125,0.0,0,0
1771944000.410121,1771944000.3626676,-958.984375,353.515625,959.47265625,-779.296875,0.0,0,0
1771944000.410149,1771944000.3665667,924.31640625,2.44140625,-131.8359375,367.1875,0.0,0,0
1771944000.410176,1771944000.3704658,-367.67578125,-356.93359375,-1000.0,-930.6640625,0.0,0,0
1771944000.410203,1771944000.3743649,-1000.0,-307.6171875,-728.515625,-1000.0,0.0,0,0
1771944000.410229,1771944000.3782642,-173.828125,73.73046875,405.2734375,-180.17578125,0.0,0,0
1771944000.410256,1771944000.3821633,-999.0234375,302.24609375,-973.14453125,-846.6796875,0.0,0,0
1771944000.410284,1771944000.3860624,-962.40234375,35.64453125,62.01171875,579.58984375,0.0,0,0
1771944000.456506,1771944000.3899944,-78.61328125,-361.81640625,-1000.0,-805.6640625,0.0,0,0
1771944000.456625,1771944000.3938937,-1000.0,-392.578125,-800.78125,-1000.0,0.0,0,0
1771944000.456672,1771944000.3977928,-367.1875,29.296875,299.31640625,-210.9375,0.0,0,0
1771944000.456716,1771944000.401692,913.57421875,321.77734375,-951.171875,-935.05859375,0.0,0,0
1771944000.4567602,1771944000.405591,-900.87890625,147.94921875,290.52734375,847.16796875,0.0,0,0
1771944000.456804,1771944000.4094903,117.67578125,-304.19921875,-897.94921875,-486.81640625,0.0,0,0
1771944000.456848,1771944000.4133894,-1000.0,-440.4296875,-875.9765625,-1000.0,0.0,0,0
1771944000.4568892,1771944000.4172885,-562.5,-1.46484375,249.0234375,-178.22265625,0.0,0,0
1771944000.456933,1771944000.4211876,816.89453125,311.5234375,-936.03515625,-992.1875,0.0,0,0
1771944000.456981,1771944000.425087,-858.88671875,170.41015625,492.67578125,-976.07421875,0.0,0,0
1771944000.457031,1771944000.428986,185.05859375,-250.48828125,-717.28515625,-145.99609375,0.0,0,0
1771944000.4570801,1771944000.4328852,-1000.0,-404.296875,-959.9609375,-1000.0,0.0,0,0
1771944000.501981,1771944000.4369037,-836.42578125,-39.0625,146.97265625,-295.41015625,0.0,0,0
1771944000.502084,1771944000.440803,518.5546875,282.2265625,-942.3828125,948.73046875,0.0,0,0
1771944000.50213,1771944000.4447021,-802.24609375,211.42578125,602.05078125,-920.8984375,0.0,0,0
1771944000.502167,1771944000.4486012,148.4375,-228.515625,-582.03125,47.8515625,0.0,0,0
1771944000.5022001,1771944000.4525006,-1000.0,-450.68359375,-1000.0,-1000.0,0.0,0,0
1771944000.502233,1771944000.4563997,-1000.0,-128.90625,11.23046875,-490.234375,0.0,0,0
1771944000.502265,1771944000.4602988,158.203125,229.00390625,-981.4453125,852.5390625,0.0,0,0
1771944000.5022988,1771944000.464198,-764.16015625,224.12109375,696.2890625,-871.58203125,0.0,0,0
1771944000.502333,1771944000.4680972,225.5859375,-192.3828125,-439.94140625,198.2421875,0.0,0,0
1771944000.502366,1771944000.4719963,-998.046875,-439.453125,-1000.0,-1000.0,0.0,0,0
1771944000.5023968,1771944000.4758956,-1000.0,-177.24609375,-210.44921875,-746.58203125,0.0,0,0
1771944000.50243,1771944000.4797947,-48.33984375,236.81640625,933.59375,636.71875,0.0,0,0
1771944000.544924,1771944000.4837885,-792.48046875,318.84765625,791.9921875,-822.265625,0.0,0,0
1771944000.544986,1771944000.4876876,418.9453125,-94.23828125,-349.609375,162.109375,0.0,0,0
1771944000.5450082,1771944000.491587,-903.80859375,-391.6015625,-1000.0,-1000.0,0.0,0,0
1771944000.545027,1771944000.495486,-1000.0,-226.07421875,-441.89453125,-972.65625,0.0,0,0
1771944000.545045,1771944000.499385,-229.00390625,213.37890625,767.578125,302.24609375,0.0,0,0
1771944000.5450618,1771944000.5032845,-881.34765625,348.14453125,864.2578125,-774.90234375,0.0,0,0
1771944000.54508,1771944000.5071836,661.1328125,-75.1953125,-306.640625,159.1796875,0.0,0,0
1771944000.5450969,1771944000.511083,-729.98046875,-378.41796875,-1000.0,-1000.0,0.0,0,0
1771944000.545113,1771944000.514982,-1000.0,-292.96875,-583.0078125,-1000.0,0.0,0,0
1771944000.545129,1771944000.518881,-201.66015625,116.2109375,584.47265625,27.34375,0.0,0,0
1771944000.545147,1771944000.5227804,-952.1484375,349.12109375,963.37890625,-774.90234375,0.0,0,0
1771944000.545164,1771944000.5266795,901.85546875,6.8359375,-129.8828125,347.65625,0.0,0,0
1771944000.5898821,1771944000.5306609,-401.3671875,-345.21484375,-1000.0,-941.89453125,0.0,0,0
1771944000.589951,1771944000.5345602,-1000.0,-301.26953125,-703.125,-1000.0,0.0,0,0
1771944000.589969,1771944000.5384593,-174.31640625,119.140625,432.6171875,-150.390625,0.0,0,0
1771944000.589986,1771944000.5423586,-998.53515625,341.796875,-976.07421875,-831.54296875,0.0,0,0
1771944000.5900018,1771944000.5462577,-965.33203125,59.5703125,60.05859375,547.8515625,0.0,0,0
1771944000.590017,1771944000.550157,-90.8203125,-315.91796875,-1000.0,-833.0078125,0.0,0,0
1771944000.5900328,1771944000.5540562,-1000.0,-337.40234375,-786.1328125,-1000.0,0.0,0,0
1771944000.590047,1771944000.5579553,-352.5390625,54.19921875,309.5703125,-215.33203125,0.0,0,0
1771944000.5900621,1771944000.5618546,921.875,282.2265625,-958.0078125,-927.24609375,0.0,0,0
1771944000.590077,1771944000.5657537,-905.76171875,91.30859375,270.5078125,820.3125,0.0,0,0
1771944000.590092,1771944000.569653,97.16796875,-305.6640625,-915.52734375,-528.3203125,0.0,0,0
1771944000.590107,1771944000.5735521,-1000.0,-389.16015625,-852.5390625,-1000.0,0.0,0,0
1771944000.635759,1771944000.577521,-542.48046875,34.66796875,282.71484375,-181.15234375,0.0,0,0
1771944000.635803,1771944000.5814204,826.66015625,321.77734375,-937.01171875,-987.3046875,0.0,0,0
1771944000.6358242,1771944000.5853195,-862.79296875,186.03515625,458.984375,-989.2578125,0.0,0,0
1771944000.635846,1771944000.5892189,187.98828125,-235.3515625,-749.0234375,-187.5,0.0,0,0
1771944000.635865,1771944000.593118,-1000.0,-399.90234375,-938.4765625,-1000.0,0.0,0,0
1771944000.6358862,1771944000.5970173,-814.94140625,-13.671875,178.7109375,-266.6015625,0.0,0,0
1771944000.635906,1771944000.6009164,546.38671875,321.2890625,-939.453125,962.890625,0.0,0,0
1771944000.635926,1771944000.6048157,-807.12890625,193.359375,600.09765625,-930.6640625,0.0,0,0
1771944000.635946,1771944000.6087148,152.34375,-263.18359375,-586.42578125,14.16015625,0.0,0,0
1771944000.635966,1771944000.6126142,-1000.0,-425.29296875,-1000.0,-1000.0,0.0,0,0
1771944000.635984,1771944000.6165133,-1000.0,-99.12109375,12.6953125,-456.0546875,0.0,0,0
1771944000.636003,1771944000.6204126,198.73046875,265.625,-979.4921875,869.140625,0.0,0,0
1771944000.679879,1771944000.6243715,-767.08984375,258.30078125,699.70703125,-878.41796875,0.0,0,0
1771944000.679934,1771944000.6282709,212.890625,-180.17578125,-442.3828125,193.84765625,0.0,0,0
1771944000.6799622,1771944000.63217,-1000.0,-440.4296875,-1000.0,-1000.0,0.0,0,0
1771944000.679984,1771944000.6360693,-1000.0,-199.21875,-182.12890625,-700.68359375,0.0,0,0
1771944000.680007,1771944000.6399684,-25.87890625,202.63671875,947.75390625,689.94140625,0.0,0,0
1771944000.680032,1771944000.6438677,-788.0859375,270.99609375,776.3671875,-832.03125,0.0,0,0
1771944000.6800551,1771944000.6477668,404.78515625,-173.33984375,-366.2109375,167.48046875,0.0,0,0
1771944000.68008,1771944000.6516662,-911.1328125,-497.55859375,-1000.0,-1000.0,0.0,0,0
1771944000.6801019,1771944000.6555653,-1000.0,-309.5703125,-417.48046875,-941.40625,0.0,0,0
1771944000.6801238,1771944000.6594646,-205.56640625,159.1796875,778.3203125,359.375,0.0,0,0
1771944000.680147,1771944000.6633637,-869.140625,278.80859375,873.046875,-780.76171875,0.0,0,0
1771944000.6801689,1771944000.667263,636.71875,-160.15625,-290.52734375,141.6015625,0.0,0,0
1771944000.72497,1771944000.67121,-750.48828125,-460.9375,-1000.0,-1000.0,0.0,0,0
1771944000.725021,1771944000.6751091,-1000.0,-319.3359375,-576.66015625,-1000.0,0.0,0,0
1771944000.7250571,1771944000.6790085,-204.58984375,113.28125,593.26171875,56.15234375,0.0,0,0
1771944000.7250938,1771944000.6829078,-946.77734375,300.29296875,946.77734375,-770.01953125,0.0,0,0
1771944000.725129,1771944000.686807,883.7890625,-51.7578125,-160.15625,319.3359375,0.0,0,0
1771944000.7251651,1771944000.6907063,-429.19921875,-383.30078125,-1000.0,-954.58984375,0.0,0,0
1771944000.7252,1771944000.6946054,-1000.0,-364.74609375,-701.171875,-1000.0,0.0,0,0
1771944000.725234,1771944000.6985047,-176.26953125,38.0859375,431.15234375,-135.25390625,0.0,0,0
1771944000.725269,1771944000.7024038,-996.09375,328.61328125,-980.95703125,-821.77734375,0.0,0,0
1771944000.725305,1771944000.7063031,-970.21484375,63.96484375,34.1796875,515.625,0.0,0,0
1771944000.72534,1771944000.7102025,-114.74609375,-335.44921875,-1000.0,-856.93359375,0.0,0,0
1771944000.725374,1771944000.7141016,-1000.0,-355.46875,-775.390625,-1000.0,0.0,0,0
1771944000.800765,1771944000.7182171,-327.63671875,65.91796875,325.1953125,-220.21484375,0.0,0,0
1771944000.800859,1771944000.7221162,933.10546875,342.7734375,-957.51953125,-917.96875,0.0,0,0
1771944000.8008919,1771944000.7260156,-913.0859375,125.9765625,232.91015625,789.55078125,0.0,0,0
1771944000.800937,1771944000.729915,76.66015625,-315.91796875,-937.98828125,-570.3125,0.0,0,0
1771944000.8009868,1771944000.7338142,-1000.0,-409.1796875,-851.5625,-1000.0,0.0,0,0
1771944000.801017,1771944000.7377133,-521.97265625,14.6484375,271.484375,-183.59375,0.0,0,0
1771944000.8010461,1771944000.7416127,835.9375,278.80859375,-937.98828125,-982.91015625,0.0,0,0
1771944000.801087,1771944000.745512,-866.2109375,151.3671875,438.4765625,998.53515625,0.0,0,0
1771944000.8011231,1771944000.7494113,192.87109375,-218.26171875,-766.11328125,-216.30859375,0.0,0,0
1771944000.801172,1771944000.7533104,-1000.0,-365.234375,-933.10546875,-1000.0,0.0,0,0
1771944000.8011992,1771944000.7572098,-783.69140625,7.8125,183.59375,-248.53515625,0.0,0,0
1771944000.801236,1771944000.761109,587.890625,323.2421875,-935.05859375,969.7265625,0.0,0,0
1771944000.83023,1771944000.7650392,-814.453125,221.19140625,580.078125,-935.546875,0.0,0,0
1771944000.830315,1771944000.7689385,155.76171875,-234.86328125,-611.328125,1.953125,0.0,0,0
1771944000.8303502,1771944000.7728376,-1000.0,-437.5,-1000.0,-1000.0,0.0,0,0
1771944000.830382,1771944000.776737,-1000.0,-101.5625,23.92578125,-441.89453125,0.0,0,0
1771944000.830415,1771944000.7806363,234.86328125,266.11328125,-970.703125,876.46484375,0.0,0,0
1771944000.830453,1771944000.7845356,-770.5078125,254.8828125,667.48046875,-881.8359375,0.0,0,0
1771944000.830487,1771944000.7884347,179.19921875,-193.359375,-486.81640625,183.59375,0.0,0,0
1771944000.830521,1771944000.792334,-1000.0,-435.05859375,-1000.0,-1000.0,0.0,0,0
1771944000.830553,1771944000.7962334,-1000.0,-166.50390625,-149.90234375,-681.15234375,0.0,0,0
1771944000.83059,1771944000.8001328,-1.953125,232.91015625,960.9375,708.49609375,0.0,0,0
1771944000.830623,1771944000.8040318,-781.73828125,289.55078125,770.01953125,-835.44921875,0.0,0,0
1771944000.83067,1771944000.8079312,370.60546875,-135.7421875,-375.9765625,170.41015625,0.0,0,0
1771944000.876659,1771944000.811945,-928.7109375,-390.625,-1000.0,-1000.0,0.0,0,0
1771944000.876797,1771944000.815844,-1000.0,-200.68359375,-368.65234375,-927.24609375,0.0,0,0
1771944000.876862,1771944000.8197434,-188.4765625,213.8671875,801.7578125,381.34765625,0.0,0,0
1771944000.8769221,1771944000.8236427,-851.5625,351.07421875,847.16796875,-783.69140625,0.0,0,0
1771944000.877172,1771944000.827542,588.37890625,-60.05859375,-311.5234375,142.578125,0.0,0,0
1771944000.877219,1771944000.8314414,-797.8515625,-374.51171875,-1000.0,-1000.0,0.0,0,0
1771944000.87726,1771944000.8353407,-1000.0,-267.08984375,-585.9375,-1000.0,0.0,0,0
1771944000.8773031,1771944000.8392398,-211.9140625,149.90234375,596.19140625,73.2421875,0.0,0,0
1771944000.877345,1771944000.8431392,-933.59375,332.51953125,937.5,-768.5546875,0.0,0,0
1771944000.877399,1771944000.8470385,839.84375,-42.96875,-190.4296875,303.7109375,0.0,0,0
1771944000.877441,1771944000.8509378,-497.0703125,-400.390625,-1000.0,-961.9140625,0.0,0,0
1771944000.877481,1771944000.8548372,-1000.0,-346.19140625,-662.109375,-1000.0,0.0,0,0
1771944000.923187,1771944000.8588352,-178.7109375,69.3359375,479.98046875,-118.65234375,0.0,0,0
1771944000.923313,1771944000.8627343,-992.67578125,278.80859375,985.83984375,-816.40625,0.0,0,0
1771944000.923381,1771944000.8666337,-978.02734375,-26.3671875,-31.73828125,501.46484375,0.0,0,0
1771944000.923451,1771944000.870533,-151.3671875,-407.71484375,-1000.0,-863.28125,0.0,0,0
1771944000.92351,1771944000.8744323,-1000.0,-427.734375,-754.8828125,-1000.0,0.0,0,0
1771944000.923566,1771944000.8783317,-293.9453125,1.46484375,350.5859375,-222.65625,0.0,0,0
1771944000.923624,1771944000.882231,948.73046875,226.5625,-977.05078125,-913.0859375,0.0,0,0
1771944000.923685,1771944000.8861303,-921.875,-5.859375,175.29296875,772.4609375,0.0,0,0
1771944000.923747,1771944000.8900297,47.8515625,-411.1328125,-952.1484375,-592.7734375,0.0,0,0
1771944000.923824,1771944000.893929,-1000.0,-510.25390625,-854.4921875,-1000.0,0.0,0,0
1771944000.923878,1771944000.8978283,-487.3046875,-66.89453125,262.6953125,-186.03515625,0.0,0,0
1771944000.923955,1771944000.9017274,853.515625,230.95703125,-942.87109375,-979.00390625,0.0,0,0
1771944000.966024,1771944000.9057145,-872.55859375,101.07421875,390.13671875,986.328125,0.0,0,0
1771944000.96612,1771944000.9096138,199.21875,-297.8515625,-798.33984375,-241.69921875,0.0,0,0
1771944000.9661682,1771944000.9135132,-1000.0,-439.94140625,-912.109375,-1000.0,0.0,0,0
1771944000.9662101,1771944000.9174125,-740.72265625,-53.7109375,208.0078125,-233.3984375,0.0,0,0
1771944000.966252,1771944000.9213119,644.04296875,259.765625,-933.10546875,976.07421875,0.0,0,0
1771944000.966298,1771944000.9252112,-824.21875,192.3828125,563.4765625,-940.4296875,0.0,0,0
1771944000.96634,1771944000.9291105,162.59765625,-190.4296875,-628.41796875,-12.6953125,0.0,0,0
1771944000.9663858,1771944000.9330099,-1000.0,-400.390625,-996.09375,-1000.0,0.0,0,0
1771944000.9664261,1771944000.9369092,-965.8203125,-124.0234375,38.0859375,-425.29296875,0.0,0,0
1771944000.966468,1771944000.9408085,316.89453125,258.7890625,-967.28515625,885.25390625,0.0,0,0
1771944000.966524,1771944000.9447079,-776.85546875,257.8125,658.203125,-886.23046875,0.0,0,0
1771944000.966584,1771944000.948607,148.4375,-188.4765625,-502.9296875,168.45703125,0.0,0,0
1771944001.01112,1771944000.9525833,-1000.0,-430.17578125,-1000.0,-1000.0,0.0,0,0
1771944001.011265,1771944000.9564826,-1000.0,-158.203125,-117.1875,-657.71484375,0.0,0,0
1771944001.011314,1771944000.960382,29.78515625,244.140625,972.65625,729.4921875,0.0,0,0
1771944001.011359,1771944000.9642813,-773.92578125,302.24609375,754.8828125,-839.84375,0.0,0,0
1771944001.011403,1771944000.9681807,340.33203125,-122.55859375,-387.20703125,172.8515625,0.0,0,0
1771944001.011447,1771944000.97208,-943.84765625,-388.18359375,-1000.0,-1000.0,0.0,0,0
1771944001.011489,1771944000.9759793,-1000.0,-190.91796875,-356.4453125,-909.1796875,0.0,0,0
1771944001.011531,1771944000.9798787,-161.62109375,192.3828125,813.96484375,409.1796875,0.0,0,0
1771944001.011575,1771944000.983778,-831.0546875,322.75390625,832.51953125,-787.109375,0.0,0,0
1771944001.01162,1771944000.9876773,535.64453125,-55.17578125,-333.0078125,144.04296875,0.0,0,0
1771944001.0116632,1771944000.9915767,-847.65625,-367.67578125,-1000.0,-1000.0,0.0,0,0
1771944001.011704,1771944000.995476,-1000.0,-245.60546875,-544.43359375,-1000.0,0.0,0,0
1771944001.058689,1771944000.9994457,-217.28515625,176.26953125,636.71875,91.796875,0.0,0,0
1771944001.05885,1771944001.003345,-925.29296875,357.91015625,924.8046875,-767.08984375,0.0,0,0
1771944001.0589151,1771944001.0072443,812.01171875,6.8359375,-208.49609375,290.52734375,0.0,0,0
1771944001.0589771,1771944001.0111437,-540.52734375,-327.1484375,-1000.0,-968.75,0.0,0,0
1771944001.059038,1771944001.015043,-1000.0,-248.53515625,-622.55859375,-1000.0,0.0,0,0
1771944001.059097,1771944001.0189424,-180.6640625,186.03515625,525.87890625,-100.09765625,0.0,0,0
1771944001.059157,1771944001.0228417,-990.234375,368.65234375,989.74609375,-810.546875,0.0,0,0
1771944001.0592158,1771944001.026741,-983.88671875,9.765625,-32.71484375,483.88671875,0.0,0,0
1771944001.059274,1771944001.0306404,-178.7109375,-374.51171875,-1000.0,-871.58203125,0.0,0,0
1771944001.059336,1771944001.03454,-1000.0,-353.515625,-736.328125,-1000.0,0.0,0,0
1771944001.059393,1771944001.0384393,-269.53125,65.4296875,358.88671875,-226.07421875,0.0,0,0
1771944001.059459,1771944001.0423386,959.9609375,333.0078125,-961.9140625,-905.76171875,0.0,0,0
1771944001.100847,1771944001.0462918,-929.19921875,109.375,210.44921875,747.55859375,0.0,0,0
1771944001.100939,1771944001.0501912,22.94921875,-313.4765625,-964.35546875,-625.48828125,0.0,0,0
1771944001.100992,1771944001.0540905,-1000.0,-375.9765625,-822.75390625,-1000.0,0.0,0,0
1771944001.101038,1771944001.0579898,-465.33203125,47.8515625,291.015625,-189.94140625,0.0,0,0
1771944001.101082,1771944001.0618892,863.28125,341.30859375,-935.05859375,-972.16796875,0.0,0,0
1771944001.101126,1771944001.0657885,-876.46484375,169.921875,429.6875,965.8203125,0.0,0,0
1771944001.1011682,1771944001.0696878,202.63671875,-299.8046875,-802.24609375,-282.71484375,0.0,0,0
1771944001.101224,1771944001.0735874,-1000.0,-440.4296875,-912.109375,-1000.0,0.0,0,0
1771944001.1012638,1771944001.0774868,-719.7265625,-28.80859375,225.09765625,-217.28515625,0.0,0,0
1771944001.10132,1771944001.081386,670.8984375,312.98828125,-933.10546875,982.91015625,0.0,0,0
1771944001.101363,1771944001.0852854,-828.61328125,224.12109375,546.875,-946.2890625,0.0,0,0
1771944001.1014159,1771944001.0891848,164.55078125,-220.21484375,-643.06640625,-31.73828125,0.0,0,0
1771944001.161098,1771944001.093129,-1000.0,-395.99609375,-987.3046875,-1000.0,0.0,0,0
1771944001.161244,1771944001.0970283,-957.51953125,-39.0625,60.546875,-408.69140625,0.0,0,0
1771944001.161313,1771944001.1009276,333.984375,317.87109375,-964.35546875,893.5546875,0.0,0,0
1771944001.161376,1771944001.104827,-778.3203125,281.73828125,666.50390625,-890.13671875,0.0,0,0
1771944001.161439,1771944001.1087263,139.6484375,-135.25390625,-491.2109375,155.2734375,0.0,0,0
1771944001.1614988,1771944001.1126256,-1000.0,-356.4453125,-1000.0,-1000.0,0.0,0,0
1771944001.161555,1771944001.116525,-1000.0,-149.4140625,-102.05078125,-624.0234375,0.0,0,0
1771944001.161613,1771944001.1204243,40.0390625,226.5625,988.28125,762.6953125,0.0,0,0
1771944001.161671,1771944001.1243238,-772.4609375,309.08203125,750.0,-846.6796875,0.0,0,0
1771944001.1617339,1771944001.1282232,334.47265625,-127.44140625,-383.30078125,176.7578125,0.0,0,0
1771944001.161793,1771944001.1321225,-947.265625,-409.1796875,-1000.0,-1000.0,0.0,0,0
1771944001.161848,1771944001.1360219,-1000.0,-184.5703125,-354.00390625,-887.6953125,0.0,0,0
1771944001.206414,1771944001.1399734,-150.87890625,266.11328125,841.796875,441.89453125,0.0,0,0
1771944001.2065291,1771944001.1438727,-828.125,341.30859375,813.4765625,-791.50390625,0.0,0,0
1771944001.2065752,1771944001.147772,533.203125,-95.703125,-360.83984375,145.01953125,0.0,0,0
1771944001.206617,1771944001.1516714,-848.14453125,-370.1171875,-1000.0,-1000.0,0.0,0,0
1771944001.206662,1771944001.1555707,-1000.0,-226.07421875,-509.765625,-1000.0,0.0,0,0
1771944001.2067032,1771944001.1594703,-217.28515625,191.40625,668.45703125,108.88671875,0.0,0,0
1771944001.2067451,1771944001.1633697,-925.29296875,355.95703125,909.66796875,-765.625,0.0,0,0
1771944001.206798,1771944001.167269,811.5234375,-11.71875,-225.5859375,270.99609375,0.0,0,0
1771944001.2070441,1771944001.1711683,-540.52734375,-345.703125,-1000.0,-977.5390625,0.0,0,0
1771944001.207089,1771944001.1750677,-1000.0,-262.20703125,-638.18359375,-1000.0,0.0,0,0
1771944001.2071302,1771944001.178967,-180.6640625,123.53515625,516.6015625,-87.40234375,0.0,0,0
1771944001.2071722,1771944001.1828666,-989.74609375,320.3125,987.79296875,-805.17578125,0.0,0,0
1771944001.252084,1771944001.1868787,-983.3984375,58.10546875,-44.921875,466.30859375,0.0,0,0
1771944001.2522051,1771944001.190778,-179.19921875,-299.31640625,-1000.0,-880.37109375,0.0,0,0
1771944001.252255,1771944001.1946776,-1000.0,-317.3828125,-750.9765625,-1000.0,0.0,0,0
1771944001.2522979,1771944001.198577,-261.23046875,105.95703125,349.12109375,-229.00390625,0.0,0,0
1771944001.252346,1771944001.2024763,962.890625,379.8828125,-964.35546875,-900.390625,0.0,0,0
1771944001.2523909,1771944001.2063756,-930.17578125,140.13671875,173.828125,727.5390625,0.0,0,0
1771944001.252435,1771944001.210275,23.4375,-296.38671875,-978.515625,-651.85546875,0.0,0,0
1771944001.252477,1771944001.2141745,-1000.0,-363.76953125,-816.89453125,-1000.0,0.0,0,0
1771944001.252519,1771944001.2180738,-458.0078125,72.75390625,305.6640625,-192.3828125,0.0,0,0
1771944001.2525609,1771944001.2219732,868.65234375,332.51953125,-953.61328125,-967.7734375,0.0,0,0
1771944001.2526028,1771944001.2258725,-878.90625,163.57421875,358.3984375,953.125,0.0,0,0
1771944001.252645,1771944001.229772,193.84765625,-220.703125,-823.73046875,-310.05859375,0.0,0,0
1771944001.296448,1771944001.233771,-1000.0,-335.9375,-899.90234375,-1000.0,0.0,0,0
1771944001.296608,1771944001.2376707,-699.21875,41.9921875,232.91015625,-195.80078125,0.0,0,0
1771944001.2966568,1771944001.24157,691.40625,330.078125,-936.03515625,991.2109375,0.0,0,0
1771944001.2967072,1771944001.2454693,-833.0078125,216.796875,534.66796875,-952.1484375,0.0,0,0
1771944001.29675,1771944001.249369,166.9921875,-204.1015625,-657.71484375,-46.38671875,0.0,0,0
1771944001.296813,1771944001.2532682,-1000.0,-390.625,-959.9609375,-1000.0,0.0,0,0
1771944001.296866,1771944001.2571676,-946.77734375,-58.59375,104.4921875,-390.625,0.0,0,0
1771944001.296909,1771944001.2610672,350.5859375,301.26953125,-963.37890625,903.3203125,0.0,0,0
1771944001.296952,1771944001.2649665,-780.76171875,247.55859375,654.78515625,-895.01953125,0.0,0,0
1771944001.2969978,1771944001.2688658,141.11328125,-171.875,-508.30078125,136.71875,0.0,0,0
1771944001.297036,1771944001.2727654,-1000.0,-371.09375,-1000.0,-1000.0,0.0,0,0
1771944001.2970712,1771944001.2766647,-1000.0,-90.8203125,-71.2890625,-601.07421875,0.0,0,0
1771944001.343447,1771944001.2806497,56.15234375,313.4765625,991.2109375,782.2265625,0.0,0,0
1771944001.343563,1771944001.284549,-770.5078125,335.9375,742.67578125,-851.07421875,0.0,0,0
1771944001.3436291,1771944001.2884486,317.87109375,-106.93359375,-392.578125,180.17578125,0.0,0,0
1771944001.343689,1771944001.292348,-955.078125,-357.91015625,-1000.0,-1000.0,0.0,0,0
1771944001.343745,1771944001.2962475,-1000.0,-128.90625,-295.41015625,-866.2109375,0.0,0,0
1771944001.343804,1771944001.3001468,-134.27734375,273.4375,857.421875,475.09765625,0.0,0,0
1771944001.343869,1771944001.3040462,-821.77734375,355.95703125,815.91796875,-795.41015625,0.0,0,0
1771944001.343928,1771944001.3079457,511.23046875,-87.40234375,-340.33203125,146.97265625,0.0,0,0
1771944001.343986,1771944001.311845,-859.375,-402.34375,-1000.0,-1000.0,0.0,0,0
1771944001.344039,1771944001.3157444,-1000.0,-253.90625,-521.97265625,-1000.0,0.0,0,0
1771944001.344092,1771944001.319644,-221.6796875,154.78515625,670.41015625,130.37109375,0.0,0,0
1771944001.34416,1771944001.3235433,-916.50390625,317.87109375,908.69140625,-763.18359375,0.0,0,0
1771944001.4006872,1771944001.327601,780.76171875,-62.01171875,-227.05078125,254.39453125,0.0,0,0
1771944001.400845,1771944001.3315003,-581.0546875,-393.06640625,-1000.0,-985.3515625,0.0,0,0
1771944001.400893,1771944001.3353999,-1000.0,-295.8984375,-658.203125,-1000.0,0.0,0,0
1771944001.400942,1771944001.3392992,-184.5703125,110.3515625,512.20703125,-67.87109375,0.0,0,0
1771944001.4009879,1771944001.3431988,-982.91015625,318.359375,983.88671875,-799.31640625,0.0,0,0
1771944001.401032,1771944001.347098,994.62890625,41.9921875,-64.94140625,450.68359375,0.0,0,0
1771944001.401088,1771944001.3509974,-222.65625,-318.84765625,-1000.0,-887.6953125,0.0,0,0
1771944001.401145,1771944001.354897,-1000.0,-364.2578125,-754.39453125,-1000.0,0.0,0,0
1771944001.401205,1771944001.3587964,-249.0234375,27.83203125,354.00390625,-226.5625,0.0,0,0
1771944001.4012659,1771944001.362696,969.7265625,309.5703125,-966.30859375,-892.08984375,0.0,0,0
1771944001.4013271,1771944001.3665953,-937.5,58.59375,160.15625,703.125,0.0,0,0
1771944001.401373,1771944001.3704948,-5.37109375,-349.609375,-981.93359375,-681.640625,0.0,0,0
1771944001.4310179,1771944001.374456,-1000.0,-376.46484375,-823.2421875,-1000.0,0.0,0,0
1771944001.431186,1771944001.3783553,-440.91796875,62.98828125,294.921875,-195.80078125,0.0,0,0
1771944001.4312341,1771944001.3822548,875.9765625,348.6328125,-952.1484375,-961.9140625,0.0,0,0
1771944001.431278,1771944001.3861542,-882.8125,174.8046875,346.19140625,934.5703125,0.0,0,0
1771944001.4313211,1771944001.3900537,177.24609375,-256.34765625,-837.890625,-346.6796875,0.0,0,0
1771944001.431364,1771944001.393953,-1000.0,-380.37109375,-897.94921875,-1000.0,0.0,0,0
1771944001.431405,1771944001.3978527,-678.22265625,16.6015625,235.83984375,-183.10546875,0.0,0,0
1771944001.4314492,1771944001.401752,709.47265625,319.82421875,-935.05859375,999.0234375,0.0,0,0
1771944001.4314911,1771944001.4056516,-836.42578125,206.0546875,540.52734375,-959.9609375,0.0,0,0
1771944001.431535,1771944001.409551,170.41015625,-234.86328125,-655.76171875,-75.68359375,0.0,0,0
1771944001.4315789,1771944001.4134505,-1000.0,-431.15234375,-971.6796875,-1000.0,0.0,0,0
1771944001.431623,1771944001.4173498,-920.41015625,-75.1953125,98.14453125,-361.328125,0.0,0,0
1771944001.475895,1771944001.4212961,391.11328125,294.43359375,-958.0078125,917.96875,0.0,0,0
1771944001.4759948,1771944001.4251957,-785.64453125,244.62890625,643.5546875,-902.34375,0.0,0,0
1771944001.476026,1771944001.429095,142.578125,-182.12890625,-523.92578125,112.3046875,0.0,0,0
1771944001.4760551,1771944001.4329946,-1000.0,-395.99609375,-1000.0,-1000.0,0.0,0,0
1771944001.4760818,1771944001.436894,-1000.0,-105.46875,-70.3125,-557.12890625,0.0,0,0
1771944001.476108,1771944001.4407935,79.58984375,284.66796875,999.0234375,819.82421875,0.0,0,0
1771944001.476136,1771944001.4446929,-769.04296875,264.6484375,726.07421875,-859.375,0.0,0,0
1771944001.476164,1771944001.4485924,299.8046875,-179.19921875,-410.15625,186.5234375,0.0,0,0
1771944001.476191,1771944001.452492,-963.37890625,-383.30078125,-1000.0,-1000.0,0.0,0,0
1771944001.476217,1771944001.4563913,-1000.0,-149.4140625,-275.87890625,-829.1015625,0.0,0,0
1771944001.476244,1771944001.460291,-114.74609375,234.86328125,871.58203125,528.80859375,0.0,0,0
1771944001.4762712,1771944001.4641902,-815.91796875,323.73046875,817.87109375,-803.22265625,0.0,0,0
1771944001.533858,1771944001.4681256,495.60546875,-75.68359375,-329.58984375,149.90234375,0.0,0,0
1771944001.5339332,1771944001.472025,-866.2109375,-369.62890625,-1000.0,-1000.0,0.0,0,0
1771944001.5339599,1771944001.4759245,-1000.0,-224.609375,-498.53515625,-1000.0,0.0,0,0
1771944001.533984,1771944001.4798238,-224.609375,187.5,685.546875,171.38671875,0.0,0,0
1771944001.5340102,1771944001.4837234,-910.15625,337.40234375,914.0625,-764.16015625,0.0,0,0
1771944001.534034,1771944001.4876227,760.25390625,-48.828125,-229.4921875,222.16796875,0.0,0,0
1771944001.534058,1771944001.4915223,-608.88671875,-393.5546875,-1000.0,-999.51171875,0.0,0,0
1771944001.534081,1771944001.495422,-1000.0,-285.15625,-618.65234375,-1000.0,0.0,0,0
1771944001.534104,1771944001.4993212,-188.4765625,175.78125,542.48046875,-41.015625,0.0,0,0
1771944001.5341702,1771944001.5032208,-975.5859375,378.90625,984.86328125,-790.52734375,0.0,0,0
1771944001.534216,1771944001.5071201,974.12109375,45.41015625,-64.94140625,416.50390625,0.0,0,0
1771944001.534243,1771944001.5110197,-264.6484375,-328.125,-1000.0,-904.78515625,0.0,0,0
1771944001.578699,1771944001.5149434,-1000.0,-307.12890625,-696.2890625,-1000.0,0.0,0,0
1771944001.578738,1771944001.5188427,-226.5625,111.328125,409.1796875,-223.6328125,0.0,0,0
1771944001.578752,1771944001.5227423,979.00390625,345.703125,-973.6328125,-879.39453125,0.0,0,0
1771944001.578766,1771944001.5266418,-944.82421875,108.3984375,131.8359375,662.59765625,0.0,0,0
1771944001.578778,1771944001.5305412,-26.85546875,-270.99609375,-1000.0,-727.5390625,0.0,0,0
1771944001.578791,1771944001.5344408,-1000.0,-331.0546875,-791.015625,-1000.0,0.0,0,0
1771944001.578803,1771944001.53834,-418.45703125,87.890625,320.80078125,-200.68359375,0.0,0,0
1771944001.578816,1771944001.5422397,887.6953125,406.25,-952.63671875,-952.63671875,0.0,0,0
1771944001.578828,1771944001.5461392,-888.671875,255.37109375,346.19140625,905.76171875,0.0,0,0
1771944001.57884,1771944001.5500386,159.1796875,-170.8984375,-850.09765625,-396.484375,0.0,0,0
1771944001.5788522,1771944001.5539382,-1000.0,-307.12890625,-880.37109375,-1000.0,0.0,0,0
1771944001.578864,1771944001.5578375,-642.578125,99.12109375,254.8828125,-174.31640625,0.0,0,0
1771944001.6254091,1771944001.5618365,743.1640625,389.6484375,-937.01171875,-997.0703125,0.0,0,0
1771944001.6254458,1771944001.565736,-843.75,270.5078125,529.78515625,-965.33203125,0.0,0,0
1771944001.625458,1771944001.5696354,175.29296875,-164.0625,-672.8515625,-93.75,0.0,0,0
1771944001.625468,1771944001.573535,-1000.0,-358.3984375,-958.0078125,-1000.0,0.0,0,0
1771944001.6254778,1771944001.5774345,-891.6015625,-18.06640625,127.44140625,-348.14453125,0.0,0,0
1771944001.625518,1771944001.5813339,436.03515625,309.5703125,-954.58984375,924.31640625,0.0,0,0
1771944001.6255412,1771944001.5852334,-791.50390625,265.625,626.953125,-906.73828125,0.0,0,0
1771944001.625576,1771944001.589133,144.53125,-145.99609375,-543.45703125,94.7265625,0.0,0,0
1771944001.625613,1771944001.5930324,-1000.0,-348.14453125,-1000.0,-1000.0,0.0,0,0
1771944001.6256251,1771944001.596932,-1000.0,-42.48046875,-34.66796875,-543.45703125,0.0,0,0
1771944001.625648,1771944001.6008315,109.375,354.98046875,-995.60546875,826.171875,0.0,0,0
1771944001.6256661,1771944001.6047308,-766.11328125,377.44140625,716.796875,-861.328125,0.0,0,0
1771944001.699737,1771944001.6088886,269.04296875,-44.43359375,-414.0625,188.4765625,0.0,0,0
1771944001.699778,1771944001.6127882,-978.515625,-295.8984375,-1000.0,-1000.0,0.0,0,0
1771944001.69979,1771944001.6166878,-1000.0,-91.796875,-271.97265625,-816.40625,0.0,0,0
1771944001.6998012,1771944001.6205873,-85.44921875,318.359375,888.18359375,544.921875,0.0,0,0
1771944001.6998131,1771944001.624487,-804.19921875,434.08203125,806.640625,-806.15234375,0.0,0,0
1771944001.6998248,1771944001.6283863,453.61328125,27.34375,-343.26171875,151.85546875,0.0,0,0
1771944001.699836,1771944001.6322858,-887.6953125,-247.0703125,-1000.0,-1000.0,0.0,0,0
1771944001.6998458,1771944001.6361854,-1000.0,-87.40234375,-469.7265625,-1000.0,0.0,0,0
1771944001.6998558,1771944001.640085,-232.91015625,303.22265625,704.58984375,195.3125,0.0,0,0
1771944001.6998668,1771944001.6439846,-894.04296875,446.77734375,897.94921875,-766.11328125,0.0,0,0
1771944001.699878,1771944001.6478841,701.171875,71.77734375,-259.27734375,206.0546875,0.0,0,0
1771944001.6998882,1771944001.6517835,-685.05859375,-262.20703125,-1000.0,-1000.0,0.0,0,0
1771944001.728108,1771944001.655766,-1000.0,-165.0390625,-583.984375,-1000.0,0.0,0,0
1771944001.7281349,1771944001.6596656,-195.3125,245.60546875,570.80078125,-30.2734375,0.0,0,0
1771944001.728152,1771944001.6635652,-963.8671875,410.15625,964.84375,-787.59765625,0.0,0,0
1771944001.7281651,1771944001.6674647,938.96484375,36.1328125,-95.703125,402.83203125,0.0,0,0
1771944001.728178,1771944001.6713643,-336.42578125,-337.40234375,-1000.0,-912.59765625,0.0,0,0
1771944001.728192,1771944001.675264,-1000.0,-264.6484375,-695.80078125,-1000.0,0.0,0,0
1771944001.728204,1771944001.6791635,-193.84765625,161.1328125,409.66796875,-212.40234375,0.0,0,0
1771944001.7282162,1771944001.683063,991.69921875,385.25390625,-989.74609375,-870.60546875,0.0,0,0
1771944001.728229,1771944001.6869624,-955.56640625,98.14453125,93.75,639.6484375,0.0,0,0
1771944001.728241,1771944001.690862,-58.59375,-331.0546875,-1000.0,-749.51171875,0.0,0,0
1771944001.728253,1771944001.6947615,-1000.0,-384.27734375,-785.64453125,-1000.0,0.0,0,0
1771944001.728265,1771944001.698661,-384.27734375,42.96875,325.1953125,-203.61328125,0.0,0,0
1771944001.760322,1771944001.7026262,905.2734375,302.734375,-956.54296875,-947.265625,0.0,0,0
1771944001.760354,1771944001.7065258,-897.4609375,93.26171875,321.2890625,888.671875,0.0,0,0
1771944001.760372,1771944001.7104254,130.37109375,-310.546875,-867.67578125,-423.33984375,0.0,0,0
1771944001.7603881,1771944001.714325,-1000.0,-440.91796875,-878.90625,-1000.0,0.0,0,0
1771944001.760403,1771944001.7182245,-581.54296875,-64.453125,259.27734375,-175.29296875,0.0,0,0
1771944001.760418,1771944001.722124,801.7578125,263.18359375,-939.94140625,-996.09375,0.0,0,0
1771944001.760434,1771944001.7260237,-855.46875,140.13671875,493.65234375,-967.7734375,0.0,0,0
1771944001.760448,1771944001.7299232,182.12890625,-338.37890625,-695.80078125,-107.91015625,0.0,0,0
1771944001.760464,1771944001.7338228,-1000.0,-520.01953125,-953.61328125,-1000.0,0.0,0,0
1771944001.760478,1771944001.7377224,-855.95703125,-93.26171875,133.7890625,-331.0546875,0.0,0,0
1771944001.760493,1771944001.7416217,490.72265625,292.96875,-949.21875,931.640625,0.0,0,0
1771944001.7605069,1771944001.7455213,-798.33984375,233.88671875,626.953125,-910.64453125,0.0,0,0
1771944001.8048482,1771944001.7494776,146.484375,-193.359375,-549.31640625,85.9375,0.0,0,0
1771944001.804906,1771944001.7533772,-1000.0,-419.43359375,-1000.0,-1000.0,0.0,0,0
1771944001.8049228,1771944001.7572768,-1000.0,-145.5078125,-39.55078125,-529.78515625,0.0,0,0
1771944001.804939,1771944001.7611763,132.8125,239.74609375,-998.046875,833.49609375,0.0,0,0
1771944001.8049548,1771944001.765076,-764.16015625,276.3671875,729.4921875,-864.2578125,0.0,0,0
1771944001.804971,1771944001.7689755,250.0,-140.13671875,-403.3203125,190.91796875,0.0,0,0
1771944001.804987,1771944001.772875,-987.3046875,-393.5546875,-1000.0,-1000.0,0.0,0,0
1771944001.805002,1771944001.7767746,-1000.0,-192.3828125,-247.55859375,-799.31640625,0.0,0,0
1771944001.805017,1771944001.7806742,-65.4296875,231.93359375,893.06640625,567.87109375,0.0,0,0
1771944001.805032,1771944001.7845738,-797.8515625,353.515625,810.546875,-810.05859375,0.0,0,0
1771944001.805047,1771944001.7884734,437.01171875,-59.5703125,-341.796875,154.296875,0.0,0,0
1771944001.8050618,1771944001.792373,-895.01953125,-348.14453125,-1000.0,-1000.0,0.0,0,0
1771944001.8498518,1771944001.79632,-1000.0,-224.12109375,-410.15625,-1000.0,0.0,0,0
1771944001.8499122,1771944001.8002195,-235.3515625,154.296875,749.0234375,218.26171875,0.0,0,0
1771944001.84993,1771944001.804119,-889.6484375,296.875,888.671875,-768.06640625,0.0,0,0
1771944001.849947,1771944001.8080187,686.5234375,-69.3359375,-261.23046875,197.75390625,0.0,0,0
1771944001.8499641,1771944001.8119183,-704.1015625,-371.09375,-1000.0,-1000.0,0.0,0,0
1771944001.849982,1771944001.8158178,-1000.0,-247.55859375,-547.36328125,-1000.0,0.0,0,0
1771944001.849998,1771944001.8197174,-197.75390625,121.58203125,599.609375,-13.18359375,0.0,0,0
1771944001.850015,1771944001.823617,-958.984375,280.76171875,965.33203125,-784.1796875,0.0,0,0
1771944001.850032,1771944001.8275166,923.828125,1.953125,-93.75,390.625,0.0,0,0
1771944001.850049,1771944001.8314161,-367.67578125,-366.69921875,-1000.0,-918.45703125,0.0,0,0
1771944001.850065,1771944001.8353157,-1000.0,-354.00390625,-693.84765625,-1000.0,0.0,0,0
1771944001.850081,1771944001.8392153,-173.33984375,54.6875,423.33984375,-196.77734375,0.0,0,0
1771944001.909087,1771944001.8431501,-1000.0,290.0390625,-980.46875,-862.3046875,0.0,0,0
1771944001.909125,1771944001.8470497,-961.42578125,39.0625,91.796875,622.0703125,0.0,0,0
1771944001.909149,1771944001.8509493,-73.73046875,-353.515625,-1000.0,-764.6484375,0.0,0,0
1771944001.909172,1771944001.8548489,-1000.0,-387.6953125,-792.96875,-1000.0,0.0,0,0
1771944001.909193,1771944001.8587484,-367.67578125,25.390625,317.3828125,-206.0546875,0.0,0,0
1771944001.909315,1771944001.862648,913.57421875,293.9453125,-956.54296875,-943.359375,0.0,0,0
1771944001.90934,1771944001.8665476,-900.87890625,71.77734375,285.64453125,874.51171875,0.0,0,0
1771944001.909364,1771944001.8704472,117.67578125,-365.72265625,-891.6015625,-444.3359375,0.0,0,0
1771944001.909387,1771944001.8743467,-1000.0,-471.19140625,-872.55859375,-1000.0,0.0,0,0
1771944001.909409,1771944001.8782463,-566.40625,-61.03515625,253.90625,-176.26953125,0.0,0,0
1771944001.909431,1771944001.882146,814.94140625,229.98046875,-939.453125,-994.62890625,0.0,0,0
1771944001.909454,1771944001.8860455,-858.3984375,85.44921875,504.39453125,-970.703125,0.0,0,0
1771944001.9545112,1771944001.8899686,184.08203125,-331.54296875,-695.80078125,-121.58203125,0.0,0,0
1771944001.9545941,1771944001.8938682,-1000.0,-504.39453125,-959.47265625,-1000.0,0.0,0,0
1771944001.954638,1771944001.8977678,-845.21484375,-136.71875,130.37109375,-319.82421875,0.0,0,0
1771944001.954677,1771944001.9016674,507.32421875,231.4453125,-950.68359375,937.01171875,0.0,0,0
1771944001.954714,1771944001.905567,-800.29296875,192.3828125,629.39453125,-914.0625,0.0,0,0
1771944001.95475,1771944001.9094665,147.4609375,-219.7265625,-543.9453125,71.77734375,0.0,0,0
1771944001.9547908,1771944001.913366,-1000.0,-408.69140625,-1000.0,-1000.0,0.0,0,0
1771944001.954825,1771944001.9172657,-1000.0,-79.1015625,-32.2265625,-516.11328125,0.0,0,0
1771944001.95486,1771944001.9211652,145.5078125,301.7578125,-988.76953125,839.84375,0.0,0,0
1771944001.954896,1771944001.9250648,-762.6953125,285.15625,716.30859375,-866.69921875,0.0,0,0
1771944001.954932,1771944001.9289644,236.328125,-165.0390625,-421.38671875,193.359375,0.0,0,0
1771944001.954967,1771944001.932864,-993.1640625,-409.1796875,-1000.0,-1000.0,0.0,0,0
1771944001.9999151,1771944001.9368627,-1000.0,-193.359375,-215.8203125,-780.76171875,0.0,0,0
1771944001.999965,1771944001.9407623,-56.15234375,215.8203125,920.8984375,592.28515625,0.0,0,0
1771944001.999995,1771944001.944662,-794.921875,312.5,796.38671875,-814.453125,0.0,0,0
1771944002.0000231,1771944001.9485617,432.12890625,-108.3984375,-352.5390625,157.2265625,0.0,0,0
1771944002.000051,1771944001.9524612,-896.97265625,-395.5078125,-1000.0,-1000.0,0.0,0,0
1771944002.000078,1771944001.9563608,-1000.0,-259.27734375,-426.7578125,-998.53515625,0.0,0,0
1771944002.000106,1771944001.9602604,-235.3515625,136.71875,750.9765625,250.48828125,0.0,0,0
1771944002.000133,1771944001.96416,-889.6484375,285.15625,882.8125,-770.99609375,0.0,0,0
1771944002.000161,1771944001.9680595,686.5234375,-112.79296875,-278.3203125,185.05859375,0.0,0,0
1771944002.0001879,1771944001.971959,-704.1015625,-468.26171875,-1000.0,-1000.0,0.0,0,0
1771944002.000215,1771944001.9758587,-1000.0,-379.8828125,-595.21484375,-1000.0,0.0,0,0
1771944002.0002692,1771944001.9797583,-197.75390625,49.8046875,575.1953125,-0.9765625,0.0,0,0
1771944002.045612,1771944001.9837456,-958.984375,279.296875,959.47265625,-781.25,0.0,0,0
1771944002.045762,1771944001.9876454,923.828125,-70.80078125,-126.953125,375.9765625,0.0,0,0
1771944002.04587,1771944001.991545,-367.67578125,-447.265625,-1000.0,-926.26953125,0.0,0,0
1771944002.045921,1771944001.9954445,-1000.0,-410.64453125,-704.1015625,-1000.0,0.0,0,0
1771944002.045974,1771944001.999344,-172.8515625,41.50390625,428.7109375,-184.08203125,0.0,0,0
1771944002.04599,1771944002.0032437,-1000.0,302.24609375,-979.98046875,-852.5390625,0.0,0,0
1771944002.046006,1771944002.0071433,-961.42578125,-12.20703125,55.6640625,598.14453125,0.0,0,0
1771944002.046022,1771944002.011043,-73.2421875,-411.62109375,-1000.0,-787.109375,0.0,0,0
1771944002.046037,1771944002.0149426,-1000.0,-452.1484375,-785.64453125,-1000.0,0.0,0,0
1771944002.046052,1771944002.0188422,-368.65234375,-35.64453125,314.94140625,-208.984375,0.0,0,0
1771944002.046068,1771944002.0227418,915.0390625,271.484375,-952.63671875,-937.5,0.0,0,0
1771944002.046083,1771944002.0266414,-902.34375,87.890625,290.0390625,855.95703125,0.0,0,0
1771944002.089726,1771944002.030618,106.93359375,-336.42578125,-905.76171875,-473.14453125,0.0,0,0
1771944002.0897589,1771944002.0345175,-1000.0,-442.87109375,-846.6796875,-1000.0,0.0,0,0
1771944002.089778,1771944002.038417,-564.94140625,-14.16015625,286.1328125,-177.734375,0.0,0,0
1771944002.089797,1771944002.0423167,813.96484375,283.69140625,-943.84765625,-992.67578125,0.0,0,0
1771944002.0898151,1771944002.0462162,-857.91015625,151.3671875,508.30078125,-975.09765625,0.0,0,0
1771944002.089833,1771944002.050116,185.05859375,-288.0859375,-698.73046875,-141.11328125,0.0,0,0
1771944002.0898519,1771944002.0540156,-1000.0,-488.76953125,-954.1015625,-1000.0,0.0,0,0
1771944002.089868,1771944002.0579152,-834.9609375,-143.06640625,154.78515625,-302.734375,0.0,0,0
1771944002.089886,1771944002.0618148,520.5078125,187.98828125,-944.82421875,945.3125,0.0,0,0
1771944002.089903,1771944002.0657146,-802.734375,176.7578125,618.65234375,-919.43359375,0.0,0,0
1771944002.08992,1771944002.0696142,148.92578125,-207.51953125,-568.359375,53.22265625,0.0,0,0
1771944002.089938,1771944002.0735137,-1000.0,-440.91796875,-998.046875,-1000.0,0.0,0,0
1771944002.134895,1771944002.07748,-1000.0,-133.30078125,28.80859375,-497.55859375,0.0,0,0
1771944002.134985,1771944002.0813797,163.0859375,236.81640625,-982.421875,848.6328125,0.0,0,0
1771944002.135006,1771944002.0852792,-764.16015625,224.609375,711.42578125,-870.1171875,0.0,0,0
1771944002.135026,1771944002.089179,225.5859375,-213.37890625,-415.0390625,196.77734375,0.0,0,0
1771944002.135045,1771944002.0930786,-997.55859375,-492.67578125,-1000.0,-1000.0,0.0,0,0
1771944002.1350641,1771944002.0969782,-1000.0,-223.14453125,-189.453125,-759.765625,0.0,0,0
1771944002.135084,1771944002.1008778,-47.36328125,221.19140625,934.08203125,619.140625,0.0,0,0
1771944002.135103,1771944002.1047776,-792.96875,267.578125,794.43359375,-818.84765625,0.0,0,0
1771944002.135123,1771944002.1086771,422.36328125,-154.78515625,-344.23828125,159.66796875,0.0,0,0
1771944002.1351418,1771944002.1125767,-901.85546875,-426.7578125,-1000.0,-1000.0,0.0,0,0
1771944002.1351612,1771944002.1164765,-1000.0,-254.39453125,-417.48046875,-984.86328125,0.0,0,0
1771944002.135181,1771944002.120376,-227.05078125,194.82421875,762.6953125,278.3203125,0.0,0,0
1771944002.180694,1771944002.124331,-882.32421875,349.609375,883.30078125,-772.94921875,0.0,0,0
1771944002.1807501,1771944002.1282306,666.9921875,-60.05859375,-277.34375,169.921875,0.0,0,0
1771944002.180779,1771944002.1321304,-723.6328125,-415.0390625,-1000.0,-1000.0,0.0,0,0
1771944002.180804,1771944002.13603,-1000.0,-332.51953125,-568.359375,-1000.0,0.0,0,0
1771944002.180827,1771944002.1399295,-200.68359375,88.37890625,577.1484375,14.6484375,0.0,0,0
1771944002.180851,1771944002.143829,-953.61328125,308.10546875,934.5703125,-777.83203125,0.0,0,0
1771944002.1808739,1771944002.147729,906.25,-25.87890625,-129.39453125,362.79296875,0.0,0,0
1771944002.180898,1771944002.1516285,-395.01953125,-413.0859375,-1000.0,-932.6171875,0.0,0,0
1771944002.180921,1771944002.155528,-1000.0,-377.44140625,-678.22265625,-1000.0,0.0,0,0
1771944002.180943,1771944002.159428,-174.31640625,51.7578125,448.73046875,-174.31640625,0.0,0,0
1771944002.1809669,1771944002.1633275,-998.046875,267.578125,-980.46875,-843.26171875,0.0,0,0
1771944002.180989,1771944002.167227,-965.33203125,-16.11328125,60.546875,570.3125,0.0,0,0
1771944002.225843,1771944002.1711726,-91.30859375,-379.39453125,-1000.0,-813.96484375,0.0,0,0
1771944002.2259462,1771944002.1750722,-1000.0,-400.87890625,-766.11328125,-1000.0,0.0,0,0
1771944002.225976,1771944002.1789718,-352.5390625,-9.27734375,337.890625,-211.9140625,0.0,0,0
1771944002.226036,1771944002.1828716,920.8984375,242.1875,-960.9375,-933.10546875,0.0,0,0
1771944002.22611,1771944002.1867712,-905.76171875,64.453125,280.2734375,840.33203125,0.0,0,0
1771944002.226144,1771944002.1906707,101.07421875,-319.82421875,-900.87890625,-497.0703125,0.0,0,0
1771944002.226198,1771944002.1945705,-1000.0,-454.58984375,-867.67578125,-1000.0,0.0,0,0
1771944002.2262511,1771944002.19847,-550.78125,-80.56640625,259.765625,-178.7109375,0.0,0,0
1771944002.226304,1771944002.2023697,821.77734375,246.09375,-941.89453125,-991.69921875,0.0,0,0
1771944002.2265248,1771944002.2062695,-860.83984375,143.5546875,473.14453125,-978.02734375,0.0,0,0
1771944002.226582,1771944002.210169,187.01171875,-278.3203125,-734.375,-154.296875,0.0,0,0
1771944002.22662,1771944002.2140687,-1000.0,-444.82421875,-917.96875,-1000.0,0.0,0,0
1771944002.3141801,1771944002.218179,-823.2421875,-43.9453125,207.03125,-289.55078125,0.0,0,1
1771944002.314431,1771944002.2220788,535.64453125,293.45703125,-941.89453125,951.171875,0.0,0,0
1771944002.3144808,1771944002.2259784,-805.6640625,206.54296875,572.265625,-922.36328125,0.0,0,0
1771944002.314528,1771944002.2298782,151.3671875,-208.0078125,-602.5390625,45.8984375,0.0,0,0
1771944002.314572,1771944002.2337778,-1000.0,-414.55078125,-995.1171875,-1000.0,0.0,0,0
1771944002.314613,1771944002.2376776,-1000.0,-105.95703125,26.3671875,-484.375,0.0,0,0
1771944002.314655,1771944002.2415771,190.91796875,217.28515625,-977.5390625,855.46875,0.0,0,0
1771944002.314698,1771944002.2454767,-766.6015625,185.546875,680.6640625,-872.55859375,0.0,0,0
1771944002.31474,1771944002.2493765,208.984375,-209.47265625,-447.75390625,199.21875,0.0,0,0
1771944002.314782,1771944002.253276,-1000.0,-445.3125,-1000.0,-1000.0,0.0,0,0
1771944002.31482,1771944002.257176,-1000.0,-173.828125,-177.24609375,-744.140625,0.0,0,0
1771944002.31486,1771944002.2610755,-34.66796875,282.2265625,934.5703125,639.6484375,0.0,0,0
1771944002.3300018,1771944002.2650113,-789.55078125,390.625,795.8984375,-822.75390625,0.0,0,0
1771944002.330127,1771944002.2689111,407.71484375,-14.6484375,-348.14453125,162.109375,0.0,0,0
1771944002.330194,1771944002.2728107,-909.66796875,-301.26953125,-1000.0,-1000.0,0.0,0,0
1771944002.330252,1771944002.2767105,-1000.0,-122.0703125,-395.01953125,-972.16796875,0.0,0,0
1771944002.3303108,1771944002.28061,-213.37890625,291.015625,772.4609375,304.6875,0.0,0,0
1771944002.330369,1771944002.28451,-871.09375,390.625,875.48828125,-775.390625,0.0,0,0
1771944002.330427,1771944002.2884095,637.6953125,-25.390625,-292.48046875,155.2734375,0.0,0,0
1771944002.330485,1771944002.2923093,-751.46484375,-329.1015625,-1000.0,-1000.0,0.0,0,0
1771944002.3305411,1771944002.2962089,-1000.0,-217.28515625,-525.390625,-1000.0,0.0,0,0
1771944002.3305962,1771944002.3001087,-204.1015625,215.8203125,612.79296875,34.66796875,0.0,0,0
1771944002.3306649,1771944002.3040082,-948.73046875,415.0390625,950.1953125,-773.92578125,0.0,0,0
1771944002.330724,1771944002.307908,890.13671875,51.26953125,-125.9765625,344.7265625,0.0,0,0
1771944002.375982,1771944002.3119087,-420.41015625,-326.171875,-1000.0,-943.359375,0.0,0,0
1771944002.3761358,1771944002.3158083,-1000.0,-331.0546875,-670.41015625,-1000.0,0.0,0,0
1771944002.376181,1771944002.319708,-175.29296875,95.21484375,471.6796875,-146.97265625,0.0,0,0
1771944002.376225,1771944002.3236077,-997.0703125,337.890625,998.53515625,-831.54296875,0.0,0,0
1771944002.376269,1771944002.3275075,-967.7734375,54.6875,29.296875,551.26953125,0.0,0,0
1771944002.376312,1771944002.331407,-103.515625,-326.66015625,-1000.0,-828.61328125,0.0,0,0
1771944002.376357,1771944002.335307,-1000.0,-361.328125,-795.41015625,-1000.0,0.0,0,0
1771944002.376408,1771944002.3392065,-335.44921875,66.40625,310.05859375,-214.84375,0.0,0,0
1771944002.37646,1771944002.3431063,929.19921875,346.19140625,-965.33203125,-927.734375,0.0,0,0
1771944002.376503,1771944002.347006,-910.15625,134.765625,252.44140625,822.75390625,0.0,0,0
1771944002.376545,1771944002.3509057,89.35546875,-317.3828125,-914.0625,-523.4375,0.0,0,0
1771944002.376587,1771944002.3548055,-1000.0,-469.23828125,-844.23828125,-1000.0,0.0,0,0
1771944002.421094,1771944002.358796,-529.78515625,-66.40625,290.0390625,-181.640625,0.0,0,0
1771944002.4212859,1771944002.3626957,833.49609375,254.39453125,-941.89453125,-985.83984375,0.0,0,0
1771944002.4213371,1771944002.3665953,-865.234375,126.953125,449.21875,-991.69921875,0.0,0,0
1771944002.421382,1771944002.370495,190.91796875,-294.43359375,-757.8125,-193.84765625,0.0,0,0
1771944002.4214249,1771944002.374395,-1000.0,-453.61328125,-900.87890625,-1000.0,0.0,0,0
1771944002.4214668,1771944002.3782945,-795.41015625,-64.94140625,228.02734375,-265.625,0.0,0,0
1771944002.421519,1771944002.3821943,572.265625,270.01953125,-942.87109375,962.890625,0.0,0,0
1771944002.4215832,1771944002.3860939,-811.5234375,185.05859375,593.26171875,-931.15234375,0.0,0,0
1771944002.421639,1771944002.3899937,154.296875,-273.92578125,-593.26171875,10.25390625,0.0,0,0
1771944002.4216902,1771944002.3938935,-1000.0,-501.46484375,-984.375,-1000.0,0.0,0,0
1771944002.42175,1771944002.397793,-1000.0,-149.90234375,40.52734375,-453.125,0.0,0,0
1771944002.42179,1771944002.4016929,222.16796875,243.1640625,-978.02734375,870.1171875,0.0,0,0
1771944002.465879,1771944002.405672,-769.04296875,251.953125,685.546875,-878.90625,0.0,0,0
1771944002.466065,1771944002.4095716,194.3359375,-164.0625,-465.8203125,193.84765625,0.0,0,0
1771944002.4661162,1771944002.4134715,-1000.0,-405.2734375,-1000.0,-1000.0,0.0,0,0
1771944002.466159,1771944002.4173713,-1000.0,-141.6015625,-136.23046875,-700.1953125,0.0,0,0
1771944002.466201,1771944002.4212708,-13.671875,247.0703125,955.56640625,690.4296875,0.0,0,0
1771944002.466243,1771944002.4251707,-784.66796875,280.76171875,764.16015625,-832.03125,0.0,0,0
1771944002.466295,1771944002.4290705,389.6484375,-160.64453125,-374.0234375,167.96875,0.0,0,0
1771944002.466332,1771944002.43297,-918.9453125,-462.890625,-1000.0,-1000.0,0.0,0,0
1771944002.466371,1771944002.4368699,-1000.0,-316.40625,-387.6953125,-940.4296875,0.0,0,0
1771944002.4664161,1771944002.4407697,-196.77734375,91.30859375,791.50390625,360.83984375,0.0,0,0
1771944002.466458,1771944002.4446692,-860.83984375,226.07421875,845.703125,-781.25,0.0,0,0
1771944002.4665,1771944002.448569,614.2578125,-175.78125,-313.96484375,141.6015625,0.0,0,0
1771944002.511043,1771944002.4525385,-772.4609375,-504.39453125,-1000.0,-1000.0,0.0,0,0
1771944002.511213,1771944002.4564383,-1000.0,-424.8046875,-586.9140625,-1000.0,0.0,0,0
1771944002.5112598,1771944002.460338,-207.03125,10.25390625,591.30859375,58.10546875,0.0,0,0
1771944002.511307,1771944002.464238,-942.87109375,208.0078125,940.4296875,-769.53125,0.0,0,0
1771944002.5113611,1771944002.4681375,869.62890625,-142.578125,-166.50390625,319.3359375,0.0,0,0
1771944002.511405,1771944002.4720373,-451.171875,-469.23828125,-1000.0,-954.1015625,0.0,0,0
1771944002.5114481,1771944002.4759371,-1000.0,-400.87890625,-654.296875,-1000.0,0.0,0,0
1771944002.511489,1771944002.4798367,-177.24609375,3.41796875,476.07421875,-135.7421875,0.0,0,0
1771944002.51155,1771944002.4837365,-994.140625,213.8671875,-994.62890625,-821.77734375,0.0,0,0
1771944002.511602,1771944002.4876363,-973.6328125,-24.4140625,27.83203125,515.13671875,0.0,0,0
1771944002.511654,1771944002.4915361,-131.8359375,-385.25390625,-1000.0,-857.421875,0.0,0,0
1771944002.511714,1771944002.4954357,-1000.0,-413.57421875,-737.79296875,-1000.0,0.0,0,0
1771944002.555958,1771944002.4993954,-313.96484375,18.5546875,360.83984375,-220.21484375,0.0,0,0
1771944002.556125,1771944002.503295,939.94140625,292.96875,-964.84375,-917.48046875,0.0,0,0
1771944002.556176,1771944002.5071948,-916.9921875,72.265625,250.9765625,788.0859375,0.0,0,0
1771944002.5562198,1771944002.5110946,61.03515625,-349.609375,-930.17578125,-572.75390625,0.0,0,0
1771944002.556264,1771944002.5149944,-1000.0,-433.59375,-833.984375,-1000.0,0.0,0,0
1771944002.556305,1771944002.518894,-504.39453125,-14.16015625,298.828125,-183.59375,0.0,0,0
1771944002.5563478,1771944002.5227938,845.21484375,241.69921875,-946.2890625,-983.3984375,0.0,0,0
1771944002.556392,1771944002.5266936,-869.62890625,36.62109375,431.640625,999.51171875,0.0,0,0
1771944002.556434,1771944002.5305934,195.80078125,-380.859375,-769.53125,-213.8671875,0.0,0,0
1771944002.5564768,1771944002.534493,-1000.0,-503.90625,-904.78515625,-1000.0,0.0,0,0
1771944002.5565171,1771944002.5383928,-763.671875,-122.0703125,229.4921875,-247.55859375,0.0,0,0
1771944002.556559,1771944002.5422926,613.76953125,187.98828125,-940.91796875,970.21484375,0.0,0,0
1771944002.6307762,1771944002.5464044,-818.84765625,100.09765625,580.078125,-935.05859375,0.0,0,0
1771944002.6311622,1771944002.5503042,159.1796875,-309.5703125,-599.609375,2.9296875,0.0,0,0
1771944002.631202,1771944002.554204,-1000.0,-506.8359375,-992.67578125,-1000.0,0.0,0,0
1771944002.6312351,1771944002.5581038,-986.328125,-170.41015625,40.52734375,-441.89453125,0.0,0,0
1771944002.63127,1771944002.5620036,273.92578125,206.0546875,-973.14453125,876.46484375,0.0,0,0
1771944002.631304,1771944002.5659034,-773.4375,193.359375,684.5703125,-881.8359375,0.0,0,0
1771944002.631339,1771944002.5698032,175.78125,-276.3671875,-462.40234375,183.59375,0.0,0,0
1771944002.631371,1771944002.5737028,-1000.0,-544.921875,-1000.0,-1000.0,0.0,0,0
1771944002.631417,1771944002.5776026,-1000.0,-237.3046875,-132.8125,-683.10546875,0.0,0,0
1771944002.631449,1771944002.5815024,12.6953125,204.58984375,963.37890625,706.0546875,0.0,0,0
1771944002.6314812,1771944002.5854023,-779.296875,298.828125,773.4375,-834.9609375,0.0,0,0
1771944002.631514,1771944002.589302,364.2578125,-108.3984375,-375.0,169.921875,0.0,0,0
1771944002.659277,1771944002.5932422,-932.12890625,-370.1171875,-1000.0,-1000.0,0.0,0,0
1771944002.659425,1771944002.597142,-1000.0,-182.6171875,-321.2890625,-928.7109375,0.0,0,0
1771944002.659488,1771944002.6010418,-171.38671875,236.81640625,804.19921875,378.41796875,0.0,0,0
1771944002.659549,1771944002.6049416,-844.7265625,403.80859375,849.609375,-783.203125,0.0,0,0
1771944002.659615,1771944002.6088414,576.171875,12.20703125,-309.08203125,142.08984375,0.0,0,0
1771944002.6596742,1771944002.6127412,-807.12890625,-300.29296875,-1000.0,-1000.0,0.0,0,0
1771944002.659731,1771944002.616641,-1000.0,-196.77734375,-545.8984375,-1000.0,0.0,0,0
1771944002.659787,1771944002.6205409,-212.40234375,214.35546875,614.2578125,69.3359375,0.0,0,0
1771944002.6598442,1771944002.6244407,-933.59375,422.36328125,936.5234375,-769.04296875,0.0,0,0
1771944002.659903,1771944002.6283405,837.890625,67.3828125,-166.50390625,308.59375,0.0,0,0
1771944002.65996,1771944002.6322403,-500.0,-298.828125,-1000.0,-959.9609375,0.0,0,0
1771944002.6600142,1771944002.6361399,-1000.0,-241.69921875,-643.5546875,-1000.0,0.0,0,0
1771944002.7052438,1771944002.6400642,-178.7109375,215.8203125,509.27734375,-120.60546875,0.0,0,0
1771944002.705405,1771944002.643964,-992.1875,439.94140625,979.00390625,-817.3828125,0.0,0,0
1771944002.705473,1771944002.6478639,-978.02734375,127.9296875,-23.92578125,504.39453125,0.0,0,0
1771944002.7055402,1771944002.6517637,-155.2734375,-212.890625,-1000.0,-861.81640625,0.0,0,0
1771944002.705599,1771944002.6556635,-1000.0,-201.66015625,-755.37109375,-1000.0,0.0,0,0
1771944002.705659,1771944002.6595633,-283.69140625,185.546875,356.4453125,-222.16796875,0.0,0,0
1771944002.705717,1771944002.6634629,954.1015625,394.53125,-977.05078125,-914.0625,0.0,0,0
1771944002.705775,1771944002.6673627,-924.8046875,159.1796875,190.4296875,774.90234375,0.0,0,0
1771944002.705833,1771944002.6712625,39.55078125,-250.9765625,-948.2421875,-589.35546875,0.0,0,0
1771944002.70589,1771944002.6751623,-1000.0,-338.37890625,-826.171875,-1000.0,0.0,0,0
1771944002.705965,1771944002.6790621,-480.95703125,70.80078125,293.9453125,-186.03515625,0.0,0,0
1771944002.706023,1771944002.682962,856.4453125,360.83984375,-942.3828125,-979.00390625,0.0,0,0
1771944002.751776,1771944002.6869614,-873.53515625,194.3359375,418.9453125,986.81640625,0.0,0,0
1771944002.7519848,1771944002.6908612,199.70703125,-241.2109375,-791.50390625,-240.234375,0.0,0,0
1771944002.7520509,1771944002.694761,-1000.0,-383.30078125,-898.92578125,-1000.0,0.0,0,0
1771944002.7521122,1771944002.6986609,-737.79296875,13.18359375,229.00390625,-236.328125,0.0,0,0
1771944002.752172,1771944002.7025607,647.4609375,341.30859375,-937.98828125,975.09765625,0.0,0,0
1771944002.7522318,1771944002.7064605,-824.70703125,261.23046875,571.77734375,-939.94140625,0.0,0,0
1771944002.7522979,1771944002.7103603,162.109375,-144.04296875,-621.58203125,-11.71875,0.0,0,0
1771944002.752384,1771944002.71426,-1000.0,-347.65625,-982.91015625,-1000.0,0.0,0,0
1771944002.752448,1771944002.71816,-973.14453125,-62.98828125,52.24609375,-432.12890625,0.0,0,0
1771944002.752506,1771944002.7220597,305.17578125,264.16015625,-973.6328125,881.34765625,0.0,0,0
1771944002.752565,1771944002.7259595,-776.3671875,269.53125,667.48046875,-884.27734375,0.0,0,0
1771944002.752631,1771944002.7298594,139.6484375,-144.53125,-482.91015625,170.8984375,0.0,0,0
1771944002.795748,1771944002.733848,-1000.0,-397.4609375,-1000.0,-1000.0,0.0,0,0
1771944002.795918,1771944002.737748,-1000.0,-171.38671875,-137.6953125,-665.0390625,0.0,0,0
1771944002.795965,1771944002.7416477,25.87890625,167.48046875,964.84375,722.16796875,0.0,0,0
1771944002.796012,1771944002.7455475,-773.92578125,212.890625,750.9765625,-838.37890625,0.0,0,0
1771944002.7960582,1771944002.7494473,334.9609375,-153.3203125,-398.4375,172.36328125,0.0,0,0
1771944002.796101,1771944002.7533472,-946.77734375,-387.20703125,-1000.0,-1000.0,0.0,0,0
1771944002.796157,1771944002.757247,-1000.0,-226.07421875,-348.6328125,-914.0625,0.0,0,0
1771944002.7962189,1771944002.7611468,-163.57421875,190.91796875,817.87109375,401.85546875,0.0,0,0
1771944002.796267,1771944002.7650466,-831.54296875,292.48046875,840.33203125,-786.1328125,0.0,0,0
1771944002.79631,1771944002.7689464,534.66796875,-113.28125,-320.80078125,143.5546875,0.0,0,0
1771944002.796371,1771944002.7728462,-849.12109375,-359.86328125,-1000.0,-1000.0,0.0,0,0
1771944002.796423,1771944002.7767463,-1000.0,-217.7734375,-527.83203125,-1000.0,0.0,0,0
1771944002.840349,1771944002.7807236,-217.28515625,196.2890625,636.71875,83.984375,0.0,0,0
1771944002.840501,1771944002.7846234,-925.78125,378.41796875,925.29296875,-767.08984375,0.0,0,0
1771944002.840548,1771944002.7885232,811.5234375,32.2265625,-197.265625,291.9921875,0.0,0,0
1771944002.840592,1771944002.792423,-540.52734375,-325.1953125,-1000.0,-967.28515625,0.0,0,0
1771944002.8406348,1771944002.7963228,-1000.0,-282.2265625,-657.2265625,-1000.0,0.0,0,0
1771944002.840676,1771944002.8002229,-180.6640625,155.76171875,498.046875,-110.3515625,0.0,0,0
1771944002.840729,1771944002.8041227,-990.234375,395.99609375,978.02734375,-813.4765625,0.0,0,0
1771944002.840787,1771944002.8080225,-983.88671875,107.91015625,-51.26953125,489.2578125,0.0,0,0
1771944002.8408298,1771944002.8119223,-178.7109375,-281.25,-1000.0,-869.140625,0.0,0,0
1771944002.8408802,1771944002.8158221,-1000.0,-262.20703125,-741.69921875,-1000.0,0.0,0,0
1771944002.8409212,1771944002.819722,-270.99609375,187.01171875,355.46875,-224.609375,0.0,0,0
1771944002.840982,1771944002.8236217,959.47265625,436.03515625,-982.91015625,-909.1796875,0.0,0,0
1771944002.901377,1771944002.8276696,-928.7109375,216.30859375,179.19921875,759.27734375,0.0,0,0
1771944002.901545,1771944002.8315694,22.94921875,-190.4296875,-956.0546875,-609.86328125,0.0,0,0
1771944002.901593,1771944002.8354695,-1000.0,-289.0625,-825.68359375,-1000.0,0.0,0,0
1771944002.9016361,1771944002.8393693,-471.19140625,95.21484375,291.9921875,-187.98828125,0.0,0,0
1771944002.9016802,1771944002.843269,859.86328125,371.58203125,-947.75390625,-975.09765625,0.0,0,0
1771944002.901723,1771944002.847169,-875.48828125,246.58203125,413.0859375,974.609375,0.0,0,0
1771944002.901772,1771944002.8510687,201.66015625,-154.78515625,-793.9453125,-265.13671875,0.0,0,0
1771944002.901815,1771944002.8549688,-1000.0,-337.890625,-898.92578125,-1000.0,0.0,0,0
1771944002.901856,1771944002.8588686,-719.7265625,56.640625,237.3046875,-227.5390625,0.0,0,0
1771944002.901898,1771944002.8627684,670.8984375,399.90234375,-938.96484375,978.515625,0.0,0,0
1771944002.901946,1771944002.8666682,-828.61328125,305.6640625,548.828125,-943.359375,0.0,0,0
1771944002.901988,1771944002.870568,164.55078125,-137.6953125,-636.71875,-23.4375,0.0,0,0
1771944002.931977,1771944002.874532,-1000.0,-376.46484375,-980.95703125,-1000.0,0.0,0,0
1771944002.932163,1771944002.8784318,-957.51953125,-56.640625,65.91796875,-418.45703125,0.0,0,0
1771944002.932226,1771944002.8823316,333.49609375,297.36328125,-970.21484375,888.18359375,0.0,0,0
1771944002.932273,1771944002.8862314,-778.3203125,263.671875,679.6875,-887.6953125,0.0,0,0
1771944002.932317,1771944002.8901312,140.13671875,-175.78125,-470.703125,162.109375,0.0,0,0
1771944002.93253,1771944002.8940313,-1000.0,-402.83203125,-1000.0,-1000.0,0.0,0,0
1771944002.932575,1771944002.897931,-1000.0,-125.48828125,-122.55859375,-647.4609375,0.0,0,0
1771944002.932617,1771944002.901831,40.0390625,257.8125,973.6328125,739.2578125,0.0,0,0
1771944002.932671,1771944002.9057307,-771.97265625,316.40625,764.16015625,-841.796875,0.0,0,0
1771944002.932713,1771944002.9096308,334.47265625,-86.42578125,-375.9765625,174.8046875,0.0,0,0
1771944002.932755,1771944002.9135306,-947.265625,-384.27734375,-1000.0,-1000.0,0.0,0,0
1771944002.9328032,1771944002.9174304,-1000.0,-210.44921875,-303.7109375,-899.90234375,0.0,0,0
1771944002.9754891,1771944002.9213753,-150.390625,220.21484375,845.703125,423.33984375,0.0,0,0
1771944002.975608,1771944002.925275,-828.125,317.87109375,823.2421875,-789.0625,0.0,0,0
1771944002.9756742,1771944002.9291751,532.71484375,-109.86328125,-333.0078125,144.04296875,0.0,0,0
1771944002.975735,1771944002.933075,-848.14453125,-417.96875,-1000.0,-1000.0,0.0,0,0
1771944002.9757912,1771944002.9369748,-1000.0,-274.90234375,-513.18359375,-1000.0,0.0,0,0
1771944002.975847,1771944002.9408746,-217.28515625,160.15625,654.296875,96.19140625,0.0,0,0
1771944002.975904,1771944002.9447746,-925.29296875,306.640625,916.50390625,-766.6015625,0.0,0,0
1771944002.9759538,1771944002.9486744,812.01171875,-66.40625,-208.49609375,286.1328125,0.0,0,0
1771944002.975996,1771944002.9525743,-540.52734375,-370.60546875,-1000.0,-970.21484375,0.0,0,0
1771944002.976036,1771944002.956474,-1000.0,-265.625,-635.25390625,-1000.0,0.0,0,0
1771944002.976075,1771944002.960374,-180.6640625,182.6171875,506.8359375,-99.609375,0.0,0,0
1771944002.976116,1771944002.964274,-990.234375,386.71875,986.81640625,-810.05859375,0.0,0,0
1771944003.035108,1771944002.9682121,-983.88671875,86.9140625,-24.4140625,480.95703125,0.0,0,0
1771944003.035302,1771944002.9721122,-178.7109375,-287.109375,-1000.0,-873.046875,0.0,0,0
1771944003.035379,1771944002.976012,-1000.0,-314.94140625,-725.09765625,-1000.0,0.0,0,0
1771944003.035437,1771944002.9799118,-269.53125,61.03515625,372.55859375,-226.5625,0.0,0,0
1771944003.0354948,1771944002.9838116,959.9609375,300.78125,-972.16796875,-906.25,0.0,0,0
1771944003.035548,1771944002.9877117,-929.19921875,75.1953125,211.9140625,748.046875,0.0,0,0
1771944003.035593,1771944002.9916115,22.94921875,-369.62890625,-952.63671875,-625.0,0.0,0,0
1771944003.0356429,1771944002.9955113,-1000.0,-431.640625,-826.171875,-1000.0,0.0,0,0
1771944003.035684,1771944002.9994113,-465.33203125,25.390625,295.41015625,-189.453125,0.0,0,0
1771944003.035744,1771944003.0033112,863.76953125,343.26171875,-946.77734375,-972.65625,0.0,0,0
1771944003.035806,1771944003.007211,-876.46484375,208.984375,415.52734375,967.7734375,0.0,0,0
1771944003.035851,1771944003.0111108,202.1484375,-219.7265625,-799.8046875,-281.25,0.0,0,0
1771944003.080411,1771944003.015037,-1000.0,-351.5625,-888.18359375,-1000.0,0.0,0,0
1771944003.080589,1771944003.0189369,-719.7265625,24.90234375,253.90625,-207.03125,0.0,0,0
1771944003.080658,1771944003.0228367,670.8984375,323.73046875,-939.94140625,985.83984375,0.0,0,0
1771944003.080726,1771944003.0267367,-828.61328125,210.9375,550.78125,-947.265625,0.0,0,0
1771944003.0807848,1771944003.0306365,165.0390625,-198.73046875,-638.18359375,-29.78515625,0.0,0,0
1771944003.0808551,1771944003.0345364,-1000.0,-374.0234375,-965.8203125,-1000.0,0.0,0,0
1771944003.0809112,1771944003.0384364,-953.125,-67.87109375,89.84375,-402.83203125,0.0,0,0
1771944003.080975,1771944003.0423362,340.33203125,281.25,-969.7265625,896.484375,0.0,0,0
1771944003.081035,1771944003.046236,-779.296875,262.20703125,667.48046875,-891.11328125,0.0,0,0
1771944003.081099,1771944003.0501359,140.13671875,-177.734375,-476.5625,154.78515625,0.0,0,0
1771944003.0811698,1771944003.054036,-1000.0,-425.29296875,-1000.0,-1000.0,0.0,0,0
1771944003.0812118,1771944003.0579357,-1000.0,-149.4140625,-112.79296875,-619.140625,0.0,0,0
1771944003.12528,1771944003.0619316,40.0390625,254.8828125,987.79296875,767.578125,0.0,0,0
1771944003.125412,1771944003.0658314,-772.4609375,304.19921875,736.328125,-847.65625,0.0,0,0
1771944003.12546,1771944003.0697315,334.9609375,-109.375,-398.92578125,177.24609375,0.0,0,0
1771944003.125505,1771944003.0736313,-947.75390625,-363.28125,-1000.0,-1000.0,0.0,0,0
1771944003.125547,1771944003.077531,-1000.0,-167.96875,-327.63671875,-885.25390625,0.0,0,0
1771944003.12559,1771944003.0814312,-144.04296875,220.703125,843.26171875,446.2890625,0.0,0,0
1771944003.125634,1771944003.085331,-826.66015625,303.22265625,817.87109375,-791.9921875,0.0,0,0
1771944003.125678,1771944003.0892308,531.73828125,-85.44921875,-346.19140625,145.5078125,0.0,0,0
1771944003.125721,1771944003.0931308,-847.65625,-343.26171875,-1000.0,-1000.0,0.0,0,0
1771944003.125761,1771944003.0970306,-1000.0,-222.16796875,-507.8125,-1000.0,0.0,0,0
1771944003.125802,1771944003.1009305,-217.28515625,186.5234375,654.78515625,112.79296875,0.0,0,0
1771944003.125838,1771944003.1048305,-925.29296875,365.234375,916.9921875,-765.13671875,0.0,0,0
1771944003.201687,1771944003.108979,811.5234375,4.8828125,-210.44921875,273.4375,0.0,0,0
1771944003.201893,1771944003.1128788,-541.015625,-345.703125,-1000.0,-976.07421875,0.0,0,0
1771944003.201958,1771944003.1167789,-1000.0,-291.9921875,-647.4609375,-1000.0,0.0,0,0
1771944003.202016,1771944003.1206787,-180.6640625,134.27734375,498.53515625,-85.9375,0.0,0,0
1771944003.2020748,1771944003.1245787,-990.234375,353.02734375,986.328125,-805.6640625,0.0,0,0
1771944003.2021341,1771944003.1284785,-983.3984375,42.96875,-34.66796875,468.75,0.0,0,0
1771944003.202191,1771944003.1323786,-179.19921875,-348.6328125,-1000.0,-878.41796875,0.0,0,0
1771944003.202247,1771944003.1362784,-1000.0,-363.28125,-741.2109375,-1000.0,0.0,0,0
1771944003.202301,1771944003.1401784,-263.18359375,7.32421875,364.2578125,-228.515625,0.0,0,0
1771944003.202368,1771944003.1440783,962.890625,222.65625,-982.91015625,-901.85546875,0.0,0,0
1771944003.2024262,1771944003.1479783,-930.6640625,20.5078125,156.73828125,732.421875,0.0,0,0
1771944003.202488,1771944003.151878,19.53125,-363.76953125,-970.703125,-645.01953125,0.0,0,0
1771944003.216023,1771944003.1558578,-1000.0,-403.3203125,-820.3125,-1000.0,0.0,0,0
1771944003.216126,1771944003.1597579,-457.51953125,-9.27734375,294.921875,-192.3828125,0.0,0,0
1771944003.216188,1771944003.1636577,868.65234375,229.4921875,-958.984375,-967.28515625,0.0,0,0
1771944003.216249,1771944003.1675577,-878.90625,80.56640625,354.98046875,951.66015625,0.0,0,0
1771944003.216307,1771944003.1714575,190.4296875,-280.76171875,-812.01171875,-310.546875,0.0,0,0
1771944003.216375,1771944003.1753576,-1000.0,-375.9765625,-937.5,-1000.0,0.0,0,0
1771944003.216429,1771944003.1792576,-717.7734375,-1.953125,177.24609375,-209.9609375,0.0,0,0
1771944003.216486,1771944003.1831574,670.41015625,303.7109375,-936.03515625,988.28125,0.0,0,0
1771944003.216544,1771944003.1870575,-828.125,231.93359375,476.07421875,-953.125,0.0,0,0
1771944003.2166028,1771944003.1909573,163.0859375,-161.62109375,-684.5703125,-58.59375,0.0,0,0
1771944003.216692,1771944003.1948574,-1000.0,-348.14453125,-998.53515625,-1000.0,0.0,0,0
1771944003.216757,1771944003.1987572,-966.796875,-19.04296875,14.16015625,-411.62109375,0.0,0,0
1771944003.2599711,1771944003.2027206,315.91796875,318.359375,-961.42578125,892.578125,0.0,0,0
1771944003.2600498,1771944003.2066205,-776.85546875,243.1640625,581.54296875,-891.6015625,0.0,0,0
1771944003.260074,1771944003.2105205,138.18359375,-214.35546875,-567.87109375,117.67578125,0.0,0,0
1771944003.260098,1771944003.2144203,-1000.0,-470.21484375,-1000.0,-1000.0,0.0,0,0
1771944003.2601202,1771944003.2183204,-1000.0,-197.265625,-158.69140625,-635.7421875,0.0,0,0
1771944003.2601442,1771944003.2222204,14.6484375,223.14453125,975.5859375,741.2109375,0.0,0,0
1771944003.260166,1771944003.2261202,-773.4375,278.80859375,717.7734375,-841.796875,0.0,0,0
1771944003.2601888,1771944003.2300203,273.4375,-153.80859375,-437.5,175.78125,0.0,0,0
1771944003.260211,1771944003.2339203,-976.07421875,-418.45703125,-1000.0,-1000.0,0.0,0,0
1771944003.260233,1771944003.2378201,-1000.0,-203.125,-277.34375,-892.578125,0.0,0,0
1771944003.260305,1771944003.2417202,-160.15625,166.9921875,847.65625,434.5703125,0.0,0,0
1771944003.26033,1771944003.24562,-822.75390625,267.08984375,832.03125,-791.015625,0.0,0,0
1771944003.305486,1771944003.249573,496.09375,-125.0,-321.2890625,145.5078125,0.0,0,0
1771944003.305536,1771944003.253473,-872.0703125,-419.43359375,-1000.0,-1000.0,0.0,0,0
1771944003.305551,1771944003.257373,-1000.0,-294.43359375,-468.75,-1000.0,0.0,0,0
1771944003.3055649,1771944003.261273,-223.14453125,101.5625,666.9921875,114.74609375,0.0,0,0
1771944003.3055801,1771944003.265173,-915.52734375,267.08984375,920.41015625,-764.6484375,0.0,0,0
1771944003.3055959,1771944003.269073,778.3203125,-90.8203125,-187.01171875,259.27734375,0.0,0,0
1771944003.305612,1771944003.2729728,-584.47265625,-432.12890625,-1000.0,-983.88671875,0.0,0,0
1771944003.3056262,1771944003.2768729,-1000.0,-392.08984375,-600.5859375,-1000.0,0.0,0,0
1771944003.30564,1771944003.280773,-183.10546875,33.203125,537.59765625,-74.70703125,0.0,0,0
1771944003.305655,1771944003.2846727,-986.328125,267.578125,986.81640625,-801.7578125,0.0,0,0
1771944003.3056698,1771944003.2885728,-995.60546875,-22.94921875,-20.01953125,459.9609375,0.0,0,0
1771944003.305685,1771944003.2924728,-205.078125,-400.87890625,-1000.0,-882.8125,0.0,0,0
1771944003.349518,1771944003.296419,-1000.0,-386.23046875,-685.546875,-1000.0,0.0,0,0
1771944003.349561,1771944003.300319,-244.140625,44.921875,423.33984375,-227.05078125,0.0,0,0
1771944003.3495831,1771944003.3042188,969.23828125,234.86328125,-985.83984375,-898.4375,0.0,0,0
1771944003.3496032,1771944003.3081188,-934.08203125,-21.484375,171.875,722.65625,0.0,0,0
1771944003.3496199,1771944003.3120189,13.671875,-395.5078125,-974.609375,-656.73828125,0.0,0,0
1771944003.349637,1771944003.3159187,-1000.0,-435.05859375,-779.296875,-1000.0,0.0,0,0
1771944003.349653,1771944003.3198187,-437.01171875,-40.0390625,344.23828125,-192.87109375,0.0,0,0
1771944003.349671,1771944003.3237188,878.41796875,252.44140625,-957.51953125,-966.796875,0.0,0,0
1771944003.349688,1771944003.3276186,-882.8125,174.31640625,405.2734375,950.68359375,0.0,0,0
1771944003.349705,1771944003.3315187,197.265625,-224.609375,-806.15234375,-316.40625,0.0,0,0
1771944003.3497221,1771944003.3354187,-1000.0,-360.83984375,-875.48828125,-1000.0,0.0,0,0
1771944003.3497658,1771944003.3393185,-673.33984375,36.1328125,271.97265625,-185.05859375,0.0,0,0
1771944003.408691,1771944003.3432512,719.23828125,328.61328125,-945.3125,994.62890625,0.0,0,0
1771944003.408743,1771944003.3471513,-838.8671875,219.23828125,564.94140625,-953.125,0.0,0,0
1771944003.4087732,1771944003.351051,171.38671875,-212.40234375,-634.27734375,-44.921875,0.0,0,0
1771944003.408798,1771944003.3549511,-1000.0,-426.7578125,-932.6171875,-1000.0,0.0,0,0
1771944003.40882,1771944003.3588512,-917.96875,-98.14453125,146.97265625,-373.53515625,0.0,0,0
1771944003.408845,1771944003.362751,395.01953125,259.27734375,-972.65625,911.62109375,0.0,0,0
1771944003.408868,1771944003.366651,-786.62109375,183.10546875,666.015625,-897.94921875,0.0,0,0
1771944003.408892,1771944003.370551,142.578125,-220.703125,-484.86328125,141.6015625,0.0,0,0
1771944003.408915,1771944003.3744512,-1000.0,-413.0859375,-1000.0,-1000.0,0.0,0,0
1771944003.408936,1771944003.378351,-1000.0,-156.25,-41.9921875,-572.75390625,0.0,0,0
1771944003.408958,1771944003.382251,80.56640625,224.12109375,988.76953125,810.546875,0.0,0,0
1771944003.408981,1771944003.386151,-769.53125,240.234375,746.09375,-857.421875,0.0,0,0
1771944003.45491,1771944003.3900728,324.21875,-181.640625,-373.53515625,184.5703125,0.0,0,0
1771944003.455036,1771944003.3939726,-953.61328125,-433.10546875,-1000.0,-1000.0,0.0,0,0
1771944003.4550688,1771944003.3978727,-1000.0,-234.86328125,-267.578125,-841.796875,0.0,0,0
1771944003.455126,1771944003.4017727,-106.93359375,120.1171875,860.83984375,510.25390625,0.0,0,0
1771944003.455189,1771944003.4056728,-818.359375,206.0546875,840.8203125,-800.78125,0.0,0,0
1771944003.455221,1771944003.4095726,518.5546875,-178.22265625,-298.828125,148.92578125,0.0,0,0
1771944003.455253,1771944003.4134727,-850.5859375,-460.44921875,-1000.0,-1000.0,0.0,0,0
1771944003.45528,1771944003.4173727,-1000.0,-327.1484375,-486.81640625,-1000.0,0.0,0,0
1771944003.4553092,1771944003.4212725,-219.23828125,72.75390625,666.50390625,159.1796875,0.0,0,0
1771944003.455337,1771944003.4251726,-920.8984375,249.51171875,905.2734375,-764.16015625,0.0,0,0
1771944003.4553652,1771944003.4290726,795.8984375,-97.16796875,-232.421875,257.8125,0.0,0,0
1771944003.455393,1771944003.4329727,-561.03515625,-410.15625,-1000.0,-984.86328125,0.0,0,0
1771944003.501299,1771944003.436975,-1000.0,-304.6875,-591.30859375,-1000.0,0.0,0,0
1771944003.5014322,1771944003.440875,-182.6171875,112.79296875,536.1328125,-45.8984375,0.0,0,0
1771944003.5014799,1771944003.444775,-986.328125,283.69140625,985.83984375,-794.921875,0.0,0,0
1771944003.501526,1771944003.448675,-992.67578125,-27.34375,-36.1328125,439.453125,0.0,0,0
1771944003.501573,1771944003.452575,-202.63671875,-361.328125,-1000.0,-891.6015625,0.0,0,0
1771944003.501615,1771944003.456475,-1000.0,-313.96484375,-674.8046875,-1000.0,0.0,0,0
1771944003.501656,1771944003.460375,-225.09765625,99.609375,416.015625,-225.09765625,0.0,0,0
1771944003.501717,1771944003.4642751,977.05078125,329.58984375,-998.53515625,-890.13671875,0.0,0,0
1771944003.50177,1771944003.468175,-937.98828125,94.7265625,154.78515625,697.75390625,0.0,0,0
1771944003.501813,1771944003.472075,8.30078125,-301.26953125,-972.16796875,-686.5234375,0.0,0,0
1771944003.501857,1771944003.475975,-1000.0,-369.140625,-800.29296875,-1000.0,0.0,0,0
1771944003.501889,1771944003.479875,-422.36328125,13.671875,317.87109375,-196.77734375,0.0,0,0
1771944003.545207,1771944003.4838586,886.71875,254.8828125,-960.44921875,-959.47265625,0.0,0,0
1771944003.5453079,1771944003.4877586,-886.23046875,86.9140625,356.4453125,928.7109375,0.0,0,0
1771944003.5453382,1771944003.4916587,188.4765625,-296.875,-832.03125,-356.4453125,0.0,0,0
1771944003.545368,1771944003.4955587,-1000.0,-418.45703125,-872.0703125,-1000.0,0.0,0,0
1771944003.545401,1771944003.4994588,-644.04296875,-26.85546875,274.4140625,-172.8515625,0.0,0,0
1771944003.545429,1771944003.5033586,748.53515625,262.6953125,-951.66015625,-999.0234375,0.0,0,0
1771944003.5454578,1771944003.5072587,-844.7265625,130.859375,507.8125,-959.47265625,0.0,0,0
1771944003.545485,1771944003.5111587,174.8046875,-254.39453125,-655.2734375,-67.3828125,0.0,0,0
1771944003.545513,1771944003.5150588,-1000.0,-449.21875,-953.61328125,-1000.0,0.0,0,0
1771944003.545542,1771944003.5189588,-900.390625,-128.90625,111.328125,-354.00390625,0.0,0,0
1771944003.545569,1771944003.5228589,421.875,261.23046875,-964.84375,920.8984375,0.0,0,0
1771944003.545596,1771944003.5267587,-789.55078125,233.3984375,632.32421875,-903.3203125,0.0,0,0
1771944003.591187,1771944003.5307343,143.06640625,-179.19921875,-513.671875,121.09375,0.0,0,0
1771944003.591312,1771944003.5346344,-1000.0,-408.69140625,-1000.0,-1000.0,0.0,0,0
1771944003.591348,1771944003.5385344,-1000.0,-163.57421875,-60.546875,-554.6875,0.0,0,0
1771944003.5913842,1771944003.5424345,84.47265625,171.875,989.74609375,823.2421875,0.0,0,0
1771944003.591419,1771944003.5463345,-768.5546875,215.8203125,737.79296875,-860.3515625,0.0,0,0
1771944003.5914528,1771944003.5502343,300.78125,-147.4609375,-389.6484375,186.03515625,0.0,0,0
1771944003.591486,1771944003.5541344,-962.40234375,-367.1875,-1000.0,-1000.0,0.0,0,0
1771944003.591518,1771944003.5580344,-1000.0,-160.15625,-276.3671875,-834.9609375,0.0,0,0
1771944003.591559,1771944003.5619345,-116.2109375,155.76171875,860.83984375,520.01953125,0.0,0,0
1771944003.5915918,1771944003.5658345,-815.91796875,240.234375,809.5703125,-802.24609375,0.0,0,0
1771944003.591628,1771944003.5697346,493.1640625,-122.0703125,-363.28125,149.4140625,0.0,0,0
1771944003.5916722,1771944003.5736346,-867.67578125,-422.36328125,-1000.0,-1000.0,0.0,0,0
1771944003.635036,1771944003.5775976,-1000.0,-294.921875,-433.59375,-1000.0,0.0,0,0
1771944003.635189,1771944003.5814977,-226.07421875,62.5,688.96484375,162.109375,0.0,0,0
1771944003.635259,1771944003.5853977,-906.73828125,173.33984375,890.13671875,-764.16015625,0.0,0,0
1771944003.635512,1771944003.5892975,746.58203125,-166.015625,-245.60546875,222.65625,0.0,0,0
1771944003.6355798,1771944003.5931976,-625.9765625,-457.51953125,-1000.0,-1000.0,0.0,0,0
1771944003.635641,1771944003.5970976,-1000.0,-363.76953125,-589.35546875,-1000.0,0.0,0,0
1771944003.635699,1771944003.6009977,-189.453125,36.1328125,542.96875,-42.96875,0.0,0,0
1771944003.635757,1771944003.6048977,-974.12109375,183.59375,937.98828125,-791.015625,0.0,0,0
1771944003.635815,1771944003.6087978,967.28515625,-126.953125,-109.375,419.921875,0.0,0,0
1771944003.635872,1771944003.6126978,-275.390625,-412.109375,-1000.0,-903.80859375,0.0,0,0
1771944003.6359308,1771944003.616598,-1000.0,-385.25390625,-722.65625,-1000.0,0.0,0,0
1771944003.635985,1771944003.620498,-236.81640625,6.8359375,384.27734375,-220.21484375,0.0,0,0
1771944003.6801221,1771944003.6244535,974.609375,245.1171875,996.09375,-878.90625,0.0,0,0
1771944003.6802402,1771944003.6283536,-942.87109375,22.94921875,102.05078125,663.57421875,0.0,0,0
1771944003.680277,1771944003.6322536,-25.390625,-319.82421875,-981.93359375,-725.5859375,0.0,0,0
1771944003.6803122,1771944003.6361537,-1000.0,-372.0703125,-806.640625,-1000.0,0.0,0,0
1771944003.680344,1771944003.6400535,-426.7578125,10.25390625,308.10546875,-200.68359375,0.0,0,0
1771944003.6803782,1771944003.6439536,884.27734375,285.15625,-974.609375,-952.63671875,0.0,0,0
1771944003.6804118,1771944003.6478536,-887.20703125,128.41796875,317.3828125,906.25,0.0,0,0
1771944003.680445,1771944003.6517537,151.85546875,-285.15625,-842.7734375,-395.5078125,0.0,0,0
1771944003.6804821,1771944003.6556537,-1000.0,-406.25,-858.88671875,-1000.0,0.0,0,0
1771944003.680513,1771944003.6595538,-653.80859375,-12.6953125,280.76171875,-174.31640625,0.0,0,0
1771944003.680558,1771944003.6634538,729.4921875,265.625,-950.1953125,-997.0703125,0.0,0,0
1771944003.680602,1771944003.6673539,-840.8203125,151.3671875,513.18359375,-964.84375,0.0,0,0
1771944003.7256892,1771944003.671299,172.8515625,-229.4921875,-665.0390625,-92.28515625,0.0,0,0
1771944003.725823,1771944003.675199,-1000.0,-400.390625,-943.359375,-1000.0,0.0,0,0
1771944003.725873,1771944003.679099,-910.15625,-66.89453125,128.41796875,-351.5625,0.0,0,0
1771944003.725926,1771944003.6829991,407.2265625,281.25,-967.28515625,921.875,0.0,0,0
1771944003.725972,1771944003.6868992,-788.0859375,261.23046875,649.4140625,-905.2734375,0.0,0,0
1771944003.726016,1771944003.6907992,143.5546875,-87.890625,-504.8828125,100.5859375,0.0,0,0
1771944003.7260711,1771944003.6946993,-1000.0,-315.4296875,-1000.0,-1000.0,0.0,0,0
1771944003.726113,1771944003.6985993,-1000.0,-96.19140625,-35.64453125,-547.36328125,0.0,0,0
1771944003.726163,1771944003.7024994,93.75,285.15625,994.140625,824.21875,0.0,0,0
1771944003.726204,1771944003.7063994,-767.578125,317.87109375,729.00390625,-861.328125,0.0,0,0
1771944003.7262552,1771944003.7102995,282.71484375,-108.88671875,-400.87890625,187.98828125,0.0,0,0
1771944003.726314,1771944003.7141995,-972.16796875,-390.13671875,-1000.0,-1000.0,0.0,0,0
1771944003.8002481,1771944003.7182918,-1000.0,-201.66015625,-243.65234375,-815.91796875,0.0,0,0
1771944003.800388,1771944003.7221918,-96.6796875,188.4765625,878.90625,545.8984375,0.0,0,0
1771944003.8004422,1771944003.7260919,-810.05859375,297.8515625,803.7109375,-806.15234375,0.0,0,0
1771944003.800489,1771944003.729992,481.93359375,-66.40625,-354.00390625,151.85546875,0.0,0,0
1771944003.800534,1771944003.733892,-871.58203125,-309.08203125,-1000.0,-1000.0,0.0,0,0
1771944003.8005838,1771944003.737792,-1000.0,-147.94921875,-412.59765625,-1000.0,0.0,0,0
1771944003.8006248,1771944003.741692,-227.05078125,191.40625,712.40234375,187.5,0.0,0,0
1771944003.800679,1771944003.7455924,-905.76171875,325.68359375,871.09375,-765.625,0.0,0,0
1771944003.8007271,1771944003.7494924,742.1875,7.32421875,-268.5546875,216.30859375,0.0,0,0
1771944003.8007748,1771944003.7533925,-631.34765625,-307.12890625,-1000.0,-1000.0,0.0,0,0
1771944003.800825,1771944003.7572925,-1000.0,-250.48828125,-556.640625,-1000.0,0.0,0,0
1771944003.800868,1771944003.7611926,-189.94140625,156.73828125,565.91796875,-36.1328125,0.0,0,0
1771944003.830158,1771944003.7651217,-973.6328125,390.13671875,941.89453125,-790.0390625,0.0,0,0
1771944003.830299,1771944003.7690217,967.28515625,86.9140625,-97.65625,414.55078125,0.0,0,0
1771944003.830348,1771944003.7729218,-280.76171875,-264.16015625,-1000.0,-905.76171875,0.0,0,0
1771944003.830395,1771944003.7768219,-1000.0,-242.1875,-679.19921875,-1000.0,0.0,0,0
1771944003.8304372,1771944003.780722,-208.0078125,150.390625,418.45703125,-217.28515625,0.0,0,0
1771944003.8304808,1771944003.784622,985.3515625,368.1640625,997.0703125,-875.9765625,0.0,0,0
1771944003.830529,1771944003.7885222,-948.2421875,105.95703125,106.4453125,655.76171875,0.0,0,0
1771944003.8305721,1771944003.7924223,-30.76171875,-301.26953125,-995.1171875,-733.3984375,0.0,0,0
1771944003.830627,1771944003.7963223,-1000.0,-364.2578125,-765.625,-1000.0,0.0,0,0
1771944003.83067,1771944003.8002224,-398.92578125,12.6953125,346.19140625,-201.66015625,0.0,0,0
1771944003.830716,1771944003.8041224,897.94921875,263.671875,-976.5625,-950.68359375,0.0,0,0
1771944003.830766,1771944003.8080225,-893.06640625,109.86328125,329.1015625,900.390625,0.0,0,0
1771944003.891814,1771944003.8120942,155.2734375,-264.6484375,-840.33203125,-404.78515625,0.0,0,0
1771944003.8919868,1771944003.8159943,-1000.0,-408.69140625,-872.55859375,-1000.0,0.0,0,0
1771944003.892054,1771944003.8198943,-602.05078125,-48.828125,270.99609375,-174.31640625,0.0,0,0
1771944003.892116,1771944003.8237944,785.64453125,264.6484375,-956.0546875,-997.0703125,0.0,0,0
1771944003.8921878,1771944003.8276947,-852.5390625,157.71484375,501.953125,-964.84375,0.0,0,0
1771944003.8922482,1771944003.8315947,181.15234375,-202.63671875,-661.1328125,-95.21484375,0.0,0,0
1771944003.892301,1771944003.8354948,-1000.0,-348.14453125,-937.01171875,-1000.0,0.0,0,0
1771944003.892342,1771944003.8393948,-856.4453125,-35.64453125,150.390625,-335.9375,0.0,0,0
1771944003.892403,1771944003.8432949,489.74609375,273.4375,-963.37890625,928.7109375,0.0,0,0
1771944003.892447,1771944003.8471951,-798.33984375,222.16796875,635.25390625,-908.203125,0.0,0,0
1771944003.892491,1771944003.8510952,146.97265625,-126.46484375,-519.04296875,99.12109375,0.0,0,0
1771944003.892534,1771944003.8549953,-1000.0,-289.55078125,-981.93359375,-1000.0,0.0,0,0
1771944003.922306,1771944003.8589892,-1000.0,-21.484375,10.25390625,-539.0625,0.0,0,0
1771944003.922473,1771944003.8628893,139.6484375,314.94140625,-1000.0,829.58984375,0.0,0,0
1771944003.922519,1771944003.8667893,-764.6484375,344.7265625,714.35546875,-862.79296875,0.0,0,0
1771944003.9225652,1771944003.8706894,283.203125,-32.2265625,-416.015625,189.453125,0.0,0,0
1771944003.9226081,1771944003.8745897,-973.14453125,-273.92578125,-999.0234375,-1000.0,0.0,0,0
1771944003.922652,1771944003.8784897,-1000.0,-53.7109375,-174.8046875,-808.59375,0.0,0,0
1771944003.922693,1771944003.8823898,-57.12890625,310.05859375,892.08984375,555.6640625,0.0,0,0
1771944003.9227362,1771944003.88629,-801.7578125,375.0,789.55078125,-808.10546875,0.0,0,0
1771944003.922784,1771944003.8901901,468.26171875,-18.5546875,-362.3046875,152.83203125,0.0,0,0
1771944003.922828,1771944003.8940902,-874.51171875,-292.48046875,-1000.0,-1000.0,0.0,0,0
1771944003.922873,1771944003.8979902,-1000.0,-152.83203125,-431.15234375,-1000.0,0.0,0,0
1771944003.922914,1771944003.9018905,-229.00390625,226.07421875,692.3828125,201.66015625,0.0,0,0
1771944003.965989,1771944003.9058683,-900.87890625,346.19140625,885.25390625,-767.08984375,0.0,0,0
1771944003.9661288,1771944003.9097683,725.5859375,-24.90234375,-264.6484375,210.9375,0.0,0,0
1771944003.966186,1771944003.9136684,-653.3203125,-316.89453125,-1000.0,-1000.0,0.0,0,0
1771944003.966231,1771944003.9175687,-1000.0,-250.9765625,-590.33203125,-1000.0,0.0,0,0
1771944003.966272,1771944003.9214687,-193.359375,115.234375,542.48046875,-25.390625,0.0,0,0
1771944003.966314,1771944003.9253688,-966.796875,291.50390625,926.26953125,-787.59765625,0.0,0,0
1771944003.966366,1771944003.929269,948.73046875,-26.85546875,-128.90625,405.2734375,0.0,0,0
1771944003.966576,1771944003.9331691,-318.359375,-376.953125,-1000.0,-910.64453125,0.0,0,0
1771944003.966621,1771944003.9370692,-1000.0,-376.46484375,-697.75390625,-1000.0,0.0,0,0
1771944003.966662,1771944003.9409695,-191.89453125,48.828125,423.828125,-207.03125,0.0,0,0
1771944003.9667041,1771944003.9448695,994.140625,312.98828125,969.23828125,-869.62890625,0.0,0,0
1771944003.966746,1771944003.9487696,-958.0078125,93.75,27.83203125,640.13671875,0.0,0,0
1771944004.01381,1771944003.9527416,-62.98828125,-238.76953125,-992.67578125,-747.55859375,0.0,0,0
1771944004.013968,1771944003.9566417,-1000.0,-288.57421875,-830.56640625,-1000.0,0.0,0,0
1771944004.014034,1771944003.960542,-408.69140625,93.75,275.87890625,-204.1015625,0.0,0,0
1771944004.0140958,1771944003.964442,894.04296875,352.5390625,-994.62890625,-946.2890625,0.0,0,0
1771944004.0141592,1771944003.9683423,-893.5546875,197.75390625,238.76953125,885.7421875,0.0,0,0
1771944004.014227,1771944003.9722424,108.88671875,-172.36328125,-857.91015625,-427.24609375,0.0,0,0
1771944004.0142999,1771944003.9761424,-1000.0,-280.76171875,-897.4609375,-1000.0,0.0,0,0
1771944004.014356,1771944003.9800427,-648.4375,53.7109375,219.23828125,-175.78125,0.0,0,0
1771944004.014426,1771944003.9839427,725.09765625,312.5,-958.0078125,-995.1171875,0.0,0,0
1771944004.014484,1771944003.9878428,-839.35546875,245.1171875,448.73046875,-970.21484375,0.0,0,0
1771944004.014552,1771944003.991743,172.36328125,-134.27734375,-696.2890625,-114.74609375,0.0,0,0
1771944004.0146198,1771944003.9956431,-1000.0,-296.38671875,-941.40625,-1000.0,0.0,0,0
1771944004.05569,1771944003.9995975,-911.1328125,35.64453125,127.44140625,-340.33203125,0.0,0,0
1771944004.055826,1771944004.0034978,405.2734375,316.40625,-963.37890625,927.24609375,0.0,0,0
1771944004.0558772,1771944004.007398,-788.0859375,268.06640625,603.02734375,-909.1796875,0.0,0,0
1771944004.055922,1771944004.011298,144.53125,-114.2578125,-550.29296875,81.0546875,0.0,0,0
1771944004.055965,1771944004.0151982,-1000.0,-350.5859375,-976.07421875,-1000.0,0.0,0,0
1771944004.056009,1771944004.0190983,-1000.0,-93.26171875,1.46484375,-531.25,0.0,0,0
1771944004.0560498,1771944004.0229986,105.46875,250.48828125,999.0234375,831.54296875,0.0,0,0
1771944004.056121,1771944004.0268986,-765.625,237.3046875,700.1953125,-863.76953125,0.0,0,0
1771944004.056191,1771944004.030799,238.28125,-143.06640625,-422.8515625,190.91796875,0.0,0,0
1771944004.056234,1771944004.034699,-993.65234375,-346.6796875,-1000.0,-1000.0,0.0,0,0
1771944004.05633,1771944004.038599,-1000.0,-180.17578125,-211.42578125,-799.31640625,0.0,0,0
1771944004.0563781,1771944004.0424993,-77.1484375,153.80859375,885.7421875,567.87109375,0.0,0,0
1771944004.101368,1771944004.046449,-798.828125,267.578125,810.05859375,-810.05859375,0.0,0,0
1771944004.101526,1771944004.050349,435.05859375,-95.21484375,-349.12109375,154.78515625,0.0,0,0
1771944004.101575,1771944004.0542493,-898.4375,-381.34765625,-1000.0,-1000.0,0.0,0,0
1771944004.101619,1771944004.0581493,-1000.0,-220.21484375,-408.203125,-1000.0,0.0,0,0
1771944004.101665,1771944004.0620496,-234.86328125,181.15234375,704.58984375,223.14453125,0.0,0,0
1771944004.1017091,1771944004.0659497,-891.11328125,342.7734375,887.6953125,-768.5546875,0.0,0,0
1771944004.10177,1771944004.06985,692.3828125,-27.34375,-260.7421875,202.63671875,0.0,0,0
1771944004.101815,1771944004.07375,-696.77734375,-344.23828125,-1000.0,-1000.0,0.0,0,0
1771944004.101855,1771944004.07765,-1000.0,-220.703125,-558.10546875,-1000.0,0.0,0,0
1771944004.101894,1771944004.0815504,-196.77734375,177.24609375,562.98828125,-14.16015625,0.0,0,0
1771944004.101951,1771944004.0854504,-961.42578125,374.51171875,944.82421875,-785.15625,0.0,0,0
1771944004.102002,1771944004.0893507,931.640625,69.3359375,-104.4921875,396.484375,0.0,0,0
1771944004.160984,1771944004.0932903,-353.515625,-263.18359375,-1000.0,-915.0390625,0.0,0,0
1771944004.161149,1771944004.0971904,-1000.0,-243.65234375,-682.6171875,-1000.0,0.0,0,0
1771944004.161213,1771944004.1010907,-172.8515625,130.37109375,413.57421875,-199.70703125,0.0,0,0
1771944004.1612768,1771944004.1049907,999.51171875,364.2578125,994.140625,-864.74609375,0.0,0,0
1771944004.161338,1771944004.108891,-959.47265625,132.8125,84.47265625,629.39453125,0.0,0,0
1771944004.161398,1771944004.112791,-64.94140625,-232.421875,-996.09375,-757.32421875,0.0,0,0
1771944004.1614568,1771944004.1166914,-1000.0,-306.15234375,-775.87890625,-1000.0,0.0,0,0
1771944004.1615129,1771944004.1205914,-368.65234375,79.58984375,317.87109375,-205.078125,0.0,0,0
1771944004.1615732,1771944004.1244915,914.0625,371.09375,-984.375,-944.82421875,0.0,0,0
1771944004.161629,1771944004.1283917,-900.87890625,206.0546875,311.03515625,880.859375,0.0,0,0
1771944004.161688,1771944004.1322918,119.62890625,-181.15234375,-851.07421875,-435.05859375,0.0,0,0
1771944004.161746,1771944004.136192,-1000.0,-287.109375,-861.81640625,-1000.0,0.0,0,0
1771944004.205865,1771944004.1401222,-566.40625,78.125,284.1796875,-175.78125,0.0,0,0
1771944004.2060301,1771944004.1440222,814.94140625,333.984375,-957.51953125,-995.60546875,0.0,0,0
1771944004.2060978,1771944004.1479225,-858.3984375,212.40234375,476.07421875,-968.75,0.0,0,0
1771944004.2061582,1771944004.1518226,184.08203125,-174.8046875,-689.453125,-113.28125,0.0,0,0
1771944004.206217,1771944004.1557226,-1000.0,-333.0078125,-921.875,-1000.0,0.0,0,0
1771944004.206274,1771944004.159623,-845.21484375,-16.11328125,172.8515625,-323.73046875,0.0,0,0
1771944004.206332,1771944004.163523,507.32421875,274.4140625,-961.9140625,934.5703125,0.0,0,0
1771944004.206391,1771944004.1674232,-800.29296875,231.4453125,600.5859375,-912.109375,0.0,0,0
1771944004.206448,1771944004.1713233,147.4609375,-156.73828125,-544.43359375,83.984375,0.0,0,0
1771944004.2065039,1771944004.1752236,-1000.0,-371.09375,-983.88671875,-1000.0,0.0,0,0
1771944004.206558,1771944004.1791236,-1000.0,-104.98046875,-10.7421875,-522.4609375,0.0,0,0
1771944004.206613,1771944004.183024,145.5078125,277.34375,999.0234375,837.40234375,0.0,0,0
1771944004.2505898,1771944004.187017,-762.6953125,317.3828125,703.61328125,-865.72265625,0.0,0,0
1771944004.250737,1771944004.1909173,236.328125,-73.73046875,-419.43359375,192.87109375,0.0,0,0
1771944004.250785,1771944004.1948173,-993.1640625,-331.54296875,-1000.0,-1000.0,0.0,0,0
1771944004.250829,1771944004.1987176,-1000.0,-125.9765625,-205.078125,-786.1328125,0.0,0,0
1771944004.2508721,1771944004.202618,-56.15234375,241.69921875,895.99609375,584.9609375,0.0,0,0
1771944004.250915,1771944004.206518,-794.921875,281.25,791.50390625,-812.98828125,0.0,0,0
1771944004.250958,1771944004.2104182,432.12890625,-126.953125,-359.375,156.25,0.0,0,0
1771944004.2510011,1771944004.2143183,-896.97265625,-367.67578125,-1000.0,-1000.0,0.0,0,0
1771944004.2510421,1771944004.2182186,-1000.0,-184.08203125,-412.59765625,-1000.0,0.0,0,0
1771944004.251082,1771944004.2221186,-235.3515625,182.12890625,727.05078125,236.81640625,0.0,0,0
1771944004.251125,1771944004.226019,-889.6484375,304.19921875,879.39453125,-769.53125,0.0,0,0
1771944004.251177,1771944004.229919,686.5234375,-59.08203125,-275.390625,194.3359375,0.0,0,0
1771944004.2961879,1771944004.2339008,-704.1015625,-353.515625,-1000.0,-1000.0,0.0,0,0
1771944004.296321,1771944004.2378008,-1000.0,-270.01953125,-569.82421875,-1000.0,0.0,0,0
1771944004.2963681,1771944004.2417011,-197.75390625,119.140625,552.24609375,-7.32421875,0.0,0,0
1771944004.296413,1771944004.2456012,-958.984375,329.58984375,928.22265625,-783.203125,0.0,0,0
1771944004.2964559,1771944004.2495015,924.31640625,41.50390625,-133.30078125,388.671875,0.0,0,0
1771944004.2965,1771944004.2534018,-367.67578125,-262.20703125,-1000.0,-918.9453125,0.0,0,0
1771944004.296552,1771944004.2573018,-1000.0,-243.65234375,-688.96484375,-1000.0,0.0,0,0
1771944004.296594,1771944004.261202,-173.33984375,163.57421875,414.0625,-192.3828125,0.0,0,0
1771944004.2966359,1771944004.2651021,-1000.0,392.578125,993.1640625,-860.83984375,0.0,0,0
1771944004.2966778,1771944004.2690024,-961.42578125,129.39453125,68.359375,619.62890625,0.0,0,0
1771944004.2967339,1771944004.2729027,-73.2421875,-218.75,-1000.0,-765.625,0.0,0,0
1771944004.296969,1771944004.2768028,-1000.0,-243.65234375,-761.23046875,-1000.0,0.0,0,0
1771944004.353873,1771944004.2807758,-367.67578125,162.109375,346.19140625,-206.0546875,0.0,0,0
1771944004.354024,1771944004.2846758,914.0625,394.04296875,-991.2109375,-943.359375,0.0,0,0
1771944004.354086,1771944004.2885761,-900.87890625,217.28515625,284.66796875,875.48828125,0.0,0,0
1771944004.354147,1771944004.2924764,117.67578125,-155.76171875,-860.83984375,-443.84765625,0.0,0,0
1771944004.3542058,1771944004.2963765,-1000.0,-270.99609375,-848.6328125,-1000.0,0.0,0,0
1771944004.354265,1771944004.3002768,-558.59375,117.1875,297.36328125,-176.7578125,0.0,0,0
1771944004.354322,1771944004.304177,819.3359375,392.578125,-966.796875,-994.140625,0.0,0,0
1771944004.3543801,1771944004.308077,-859.86328125,250.9765625,468.75,-971.6796875,0.0,0,0
1771944004.354442,1771944004.3119774,184.5703125,-163.57421875,-685.546875,-125.48828125,0.0,0,0
1771944004.354511,1771944004.3158774,-1000.0,-307.12890625,-927.24609375,-1000.0,0.0,0,0
1771944004.3545659,1771944004.3197777,-843.75,58.59375,167.48046875,-313.96484375,0.0,0,0
1771944004.3546371,1771944004.323678,508.7890625,365.72265625,-959.47265625,939.453125,0.0,0,0
1771944004.413899,1771944004.3277228,-800.78125,314.94140625,628.90625,-915.0390625,0.0,0,0
1771944004.414061,1771944004.331623,147.4609375,-97.65625,-529.78515625,71.77734375,0.0,0,0
1771944004.4141262,1771944004.3355234,-1000.0,-322.75390625,-994.140625,-1000.0,0.0,0,0
1771944004.414185,1771944004.3394237,-1000.0,-18.06640625,8.7890625,-511.23046875,0.0,0,0
1771944004.4142451,1771944004.3433237,145.5078125,333.49609375,953.125,842.7734375,0.0,0,0
1771944004.414304,1771944004.347224,-762.6953125,318.359375,632.8125,-867.67578125,0.0,0,0
1771944004.4143622,1771944004.3511243,235.83984375,-57.12890625,-397.94921875,194.3359375,0.0,0,0
1771944004.414434,1771944004.3550243,-993.1640625,-334.47265625,-1000.0,-1000.0,0.0,0,0
1771944004.414508,1771944004.3589246,-1000.0,-146.97265625,-240.72265625,-776.3671875,0.0,0,0
1771944004.414588,1771944004.362825,-56.15234375,266.11328125,893.06640625,597.65625,0.0,0,0
1771944004.41466,1771944004.3667252,-794.921875,342.28515625,795.8984375,-815.4296875,0.0,0,0
1771944004.4147232,1771944004.3706253,432.12890625,-59.08203125,-357.91015625,157.2265625,0.0,0,0
1771944004.4312088,1771944004.3745818,-896.97265625,-337.40234375,-1000.0,-1000.0,0.0,0,0
1771944004.431307,1771944004.3784819,-1000.0,-183.59375,-418.9453125,-999.0234375,0.0,0,0
1771944004.431367,1771944004.3823822,-236.328125,194.3359375,722.16796875,249.51171875,0.0,0,0
1771944004.431427,1771944004.3862824,-886.71875,341.796875,855.95703125,-770.5078125,0.0,0,0
1771944004.431485,1771944004.3901827,673.33984375,-15.13671875,-311.5234375,181.640625,0.0,0,0
1771944004.4315531,1771944004.3940828,-718.75,-322.265625,-1000.0,-1000.0,0.0,0,0
1771944004.431607,1771944004.397983,-1000.0,-237.79296875,-581.54296875,-1000.0,0.0,0,0
1771944004.4316611,1771944004.4018834,-200.1953125,156.73828125,542.48046875,-4.8828125,0.0,0,0
1771944004.43172,1771944004.4057837,-954.58984375,355.95703125,937.98828125,-781.73828125,0.0,0,0
1771944004.431778,1771944004.4096837,909.66796875,22.4609375,-131.8359375,375.9765625,0.0,0,0
1771944004.4318562,1771944004.413584,-390.13671875,-350.09765625,-1000.0,-926.26953125,0.0,0,0
1771944004.43193,1771944004.4174843,-1000.0,-333.984375,-688.96484375,-1000.0,0.0,0,0
1771944004.475208,1771944004.421426,-174.31640625,91.796875,428.7109375,-190.4296875,0.0,0,0
1771944004.4753149,1771944004.4253263,-998.53515625,326.171875,978.515625,-854.00390625,0.0,0,0
1771944004.475361,1771944004.4292266,-965.33203125,65.4296875,32.2265625,598.14453125,0.0,0,0
1771944004.475405,1771944004.433127,-87.890625,-270.01953125,-1000.0,-788.57421875,0.0,0,0
1771944004.475449,1771944004.437027,-1000.0,-276.3671875,-769.04296875,-1000.0,0.0,0,0
1771944004.475501,1771944004.4409273,-367.67578125,116.69921875,342.7734375,-208.984375,0.0,0,0
1771944004.475544,1771944004.4448276,914.55078125,324.21875,-990.72265625,-938.4765625,0.0,0,0
1771944004.4755871,1771944004.4487278,-903.3203125,94.7265625,249.51171875,858.88671875,0.0,0,0
1771944004.475638,1771944004.452628,100.5859375,-271.97265625,-881.34765625,-468.75,0.0,0,0
1771944004.4756968,1771944004.4565282,-1000.0,-371.58203125,-860.3515625,-1000.0,0.0,0,0
1771944004.475737,1771944004.4604285,-563.96484375,-21.484375,269.53125,-177.24609375,0.0,0,0
1771944004.475792,1771944004.4643288,813.4765625,247.55859375,-961.42578125,-993.1640625,0.0,0,0
