timestamp,lsl_timestamp,TP9,AF7,AF8,TP10,Right AUX,keypress_A,keypress_B
1765394034.311123,1765394034.237944,68.84765625,3.41796875,-19.04296875,431.640625,0.0,0,0
1765394034.311338,1765394034.2418349,-213.8671875,-34.1796875,-10.7421875,-616.69921875,0.0,0,0
1765394034.311379,1765394034.2457256,-64.94140625,-21.97265625,-10.25390625,339.35546875,0.0,0,0
1765394034.311414,1765394034.2496166,76.171875,-4.39453125,-34.1796875,476.5625,0.0,0,0
1765394034.311435,1765394034.2535076,-15.13671875,-10.25390625,-44.43359375,-962.40234375,0.0,0,0
1765394034.311457,1765394034.2573984,108.3984375,-16.11328125,-1.46484375,454.58984375,0.0,0,0
1765394034.311478,1765394034.2612894,-157.2265625,-50.78125,11.23046875,-183.59375,0.0,0,0
1765394034.311498,1765394034.26518,-160.64453125,-46.38671875,-27.83203125,-95.703125,0.0,0,0
1765394034.311519,1765394034.269071,44.43359375,-46.38671875,-68.84765625,582.51953125,0.0,0,0
1765394034.31154,1765394034.272962,-53.22265625,-63.4765625,-78.125,-959.9609375,0.0,0,0
1765394034.3115609,1765394034.2768528,62.5,-44.921875,-51.26953125,148.4375,0.0,0,0
1765394034.311581,1765394034.2807438,-151.3671875,-53.22265625,-22.94921875,-168.9453125,0.0,0,0
1765394034.3711832,1765394034.2848477,-152.34375,-54.6875,-9.765625,-102.05078125,0.0,0,0
1765394034.371244,1765394034.2887385,78.125,-45.41015625,-48.33984375,703.61328125,0.0,0,0
1765394034.37127,1765394034.2926295,-20.99609375,-56.640625,-56.640625,-749.51171875,0.0,0,0
1765394034.3712902,1765394034.2965205,82.51953125,-39.0625,-39.55078125,206.54296875,0.0,0,0
1765394034.37131,1765394034.3004115,-149.90234375,-54.19921875,-32.2265625,-261.23046875,0.0,0,0
1765394034.371329,1765394034.3043025,-169.921875,-42.96875,-6.34765625,-63.4765625,0.0,0,0
1765394034.3713841,1765394034.3081934,40.52734375,-35.15625,-62.5,607.421875,0.0,0,0
1765394034.371427,1765394034.3120842,-71.77734375,-61.5234375,-83.984375,-1000.0,0.0,0,0
1765394034.371448,1765394034.3159752,82.03125,-44.921875,-45.41015625,231.4453125,0.0,0,0
1765394034.371468,1765394034.3198662,-123.53515625,-74.21875,-23.4375,-65.91796875,0.0,0,0
1765394034.371488,1765394034.3237572,-205.078125,-62.01171875,-0.9765625,-274.4140625,0.0,0,0
1765394034.371508,1765394034.3276482,60.05859375,-30.2734375,-32.2265625,986.328125,0.0,0,0
1765394034.431386,1765394034.3319743,-53.22265625,-58.10546875,-65.91796875,-678.22265625,0.0,0,0
1765394034.43149,1765394034.3358653,57.6171875,-42.96875,-53.7109375,-41.015625,0.0,0,0
1765394034.431524,1765394034.3397563,-82.51953125,-45.8984375,-23.92578125,140.625,0.0,0,0
1765394034.431555,1765394034.3436472,-241.2109375,-52.24609375,-4.39453125,-412.109375,0.0,0,0
1765394034.431584,1765394034.3475382,59.5703125,-28.80859375,-30.2734375,-932.6171875,0.0,0,0
1765394034.431614,1765394034.3514295,-10.7421875,-34.1796875,-53.7109375,-383.7890625,0.0,0,0
1765394034.431642,1765394034.3553205,55.6640625,-20.01953125,-40.52734375,-236.328125,0.0,0,0
1765394034.4316711,1765394034.3592114,-6.34765625,-12.20703125,-7.8125,335.9375,0.0,0,0
1765394034.431699,1765394034.3631024,-246.58203125,-68.359375,-6.34765625,-655.2734375,0.0,0,0
1765394034.4317281,1765394034.3669937,26.85546875,-60.05859375,-28.3203125,899.4140625,0.0,0,0
1765394034.431757,1765394034.3708847,28.80859375,-25.87890625,-52.734375,-8.30078125,0.0,0,0
1765394034.4317849,1765394034.3747756,36.1328125,-20.01953125,-43.9453125,-440.4296875,0.0,0,0
1765394034.446433,1765394034.3788497,34.1796875,-24.4140625,-8.30078125,371.58203125,0.0,0,0
1765394034.446482,1765394034.3827407,-229.00390625,-44.921875,-1.953125,-583.0078125,0.0,0,0
1765394034.446511,1765394034.386632,-6.8359375,-15.625,-9.27734375,811.03515625,0.0,0,0
1765394034.44654,1765394034.390523,29.296875,-27.34375,-47.8515625,85.44921875,0.0,0,0
1765394034.446624,1765394034.394414,15.13671875,-38.57421875,-51.26953125,-492.67578125,0.0,0,0
1765394034.446683,1765394034.3983052,51.26953125,-20.01953125,-12.20703125,553.7109375,0.0,0,0
1765394034.446717,1765394034.4021962,-235.3515625,-37.59765625,-14.6484375,-649.90234375,0.0,0,0
1765394034.446748,1765394034.4060874,-58.59375,-37.59765625,-30.2734375,494.140625,0.0,0,0
1765394034.4467788,1765394034.4099784,45.41015625,-36.1328125,-46.38671875,299.8046875,0.0,0,0
1765394034.446829,1765394034.4138694,-1.953125,-31.73828125,-50.29296875,-796.38671875,0.0,0,0
1765394034.446858,1765394034.4177606,78.61328125,-16.6015625,-31.25,362.3046875,0.0,0,0
1765394034.4468858,1765394034.4216516,-195.80078125,-37.59765625,-12.6953125,-465.8203125,0.0,0,0
1765394034.493718,1765394034.425705,-104.4921875,-34.66796875,-20.5078125,315.4296875,0.0,0,0
1765394034.493859,1765394034.4295962,33.69140625,-38.57421875,-61.5234375,432.12890625,0.0,0,0
1765394034.493917,1765394034.4334872,-26.85546875,-37.59765625,-66.40625,-909.1796875,0.0,0,0
1765394034.493969,1765394034.4373784,96.19140625,-40.0390625,-34.1796875,440.91796875,0.0,0,0
1765394034.494069,1765394034.4412694,-168.9453125,-71.2890625,-7.8125,-257.32421875,0.0,0,0
1765394034.494126,1765394034.4451606,-122.0703125,-33.203125,8.30078125,20.5078125,0.0,0,0
1765394034.494188,1765394034.4490519,81.54296875,-4.8828125,-31.73828125,724.609375,0.0,0,0
1765394034.494244,1765394034.4529428,-53.22265625,-75.1953125,-56.640625,-916.50390625,0.0,0,0
1765394034.494316,1765394034.456834,72.75390625,-91.796875,-37.59765625,168.45703125,0.0,0,0
1765394034.494379,1765394034.460725,-132.8125,-41.015625,-7.8125,-66.40625,0.0,0,0
1765394034.494428,1765394034.4646163,-179.6875,-29.78515625,2.9296875,-198.73046875,0.0,0,0
1765394034.494478,1765394034.4685073,90.8203125,-19.53125,-39.55078125,936.03515625,0.0,0,0
1765394034.537044,1765394034.4725475,-14.16015625,-30.2734375,-54.6875,-717.7734375,0.0,0,0
1765394034.5371919,1765394034.4764385,81.0546875,-21.97265625,-26.3671875,25.87890625,0.0,0,0
1765394034.537236,1765394034.4803298,-114.2578125,-32.2265625,-4.39453125,86.42578125,0.0,0,0
1765394034.5372748,1765394034.484221,-226.07421875,-33.69140625,5.37109375,-341.30859375,0.0,0,0
1765394034.537314,1765394034.4881122,67.87109375,-14.6484375,-28.3203125,-991.2109375,0.0,0,0
1765394034.5373518,1765394034.4920032,-20.01953125,-20.01953125,-41.015625,-481.93359375,0.0,0,0
1765394034.537389,1765394034.4958944,58.59375,-18.5546875,-38.57421875,-120.1171875,0.0,0,0
1765394034.537426,1765394034.4997857,-90.33203125,-67.3828125,-30.2734375,-46.875,0.0,0,0
1765394034.537492,1765394034.5036767,-202.1484375,-62.98828125,-6.34765625,-358.88671875,0.0,0,0
1765394034.537531,1765394034.507568,93.75,-13.671875,-25.390625,-856.4453125,0.0,0,0
1765394034.537566,1765394034.511459,9.27734375,-29.296875,-51.26953125,-363.76953125,0.0,0,0
1765394034.537602,1765394034.51535,74.21875,-24.90234375,-36.62109375,-187.98828125,0.0,0,0
1765394034.582243,1765394034.519375,-19.04296875,-19.04296875,-5.37109375,267.08984375,0.0,0,0
1765394034.582357,1765394034.5232663,-231.93359375,-28.80859375,-6.34765625,-559.08203125,0.0,0,0
1765394034.5824,1765394034.5271573,67.87109375,-11.71875,-23.92578125,-945.80078125,0.0,0,0
1765394034.582439,1765394034.5310485,30.2734375,-24.90234375,-53.7109375,-38.57421875,0.0,0,0
1765394034.582479,1765394034.5349398,29.296875,-24.90234375,-62.5,-440.91796875,0.0,0,0
1765394034.582517,1765394034.538831,26.3671875,-4.8828125,-19.53125,444.82421875,0.0,0,0
1765394034.582554,1765394034.5427222,-236.81640625,-59.5703125,-5.859375,-550.29296875,0.0,0,0
1765394034.582591,1765394034.5466135,-10.25390625,-69.3359375,-38.0859375,738.76953125,0.0,0,0
1765394034.5826292,1765394034.5505044,29.296875,-32.71484375,-68.84765625,64.453125,0.0,0,0
1765394034.582666,1765394034.5543957,29.78515625,-23.92578125,-54.19921875,-560.546875,0.0,0,0
1765394034.582706,1765394034.558287,61.03515625,-12.20703125,-9.27734375,452.1484375,0.0,0,0
1765394034.582743,1765394034.5621781,-209.47265625,-29.296875,1.953125,-526.85546875,0.0,0,0
1765394034.639712,1765394034.5661936,-22.94921875,-15.625,-10.25390625,671.875,0.0,0,0
1765394034.63988,1765394034.5700848,51.26953125,-20.01953125,-37.59765625,200.1953125,0.0,0,0
1765394034.639939,1765394034.573976,36.62109375,-20.01953125,-38.0859375,-619.62890625,0.0,0,0
1765394034.640585,1765394034.5778673,104.98046875,-7.32421875,-9.27734375,480.95703125,0.0,0,0
1765394034.640645,1765394034.5817585,-171.38671875,-30.2734375,0.48828125,-549.31640625,0.0,0,0
1765394034.640699,1765394034.5856497,-37.109375,-14.6484375,4.8828125,454.1015625,0.0,0,0
1765394034.6407502,1765394034.589541,92.28515625,8.7890625,-32.71484375,474.12109375,0.0,0,0
1765394034.640801,1765394034.5934322,11.23046875,-10.7421875,-55.6640625,-865.234375,0.0,0,0
1765394034.640851,1765394034.5973232,100.5859375,-18.5546875,-20.01953125,254.39453125,0.0,0,0
1765394034.640901,1765394034.6012144,-147.94921875,-28.3203125,-1.46484375,-396.97265625,0.0,0,0
1765394034.6409512,1765394034.6051056,-83.49609375,-19.04296875,7.8125,200.1953125,0.0,0,0
1765394034.641,1765394034.6089969,70.3125,-20.01953125,-33.203125,478.02734375,0.0,0,0
1765394034.686913,1765394034.6129842,-12.20703125,-34.66796875,-59.5703125,-921.38671875,0.0,0,0
1765394034.687052,1765394034.6168754,114.74609375,-15.625,-28.80859375,399.90234375,0.0,0,0
1765394034.6871119,1765394034.6207666,-132.8125,-25.87890625,-2.44140625,-232.91015625,0.0,0,0
1765394034.687166,1765394034.6246579,-128.90625,-21.484375,9.27734375,-5.37109375,0.0,0,0
1765394034.687217,1765394034.628549,58.10546875,-18.5546875,-49.31640625,657.71484375,0.0,0,0
1765394034.687268,1765394034.6324403,-16.11328125,-29.296875,-61.03515625,-714.84375,0.0,0,0
1765394034.687318,1765394034.6363316,106.93359375,-11.23046875,-33.203125,308.59375,0.0,0,0
1765394034.687368,1765394034.6402228,-164.55078125,-44.43359375,-37.59765625,-403.80859375,0.0,0,0
1765394034.6874292,1765394034.6441143,-175.29296875,-37.109375,-7.8125,-154.78515625,0.0,0,0
1765394034.687479,1765394034.6480055,64.94140625,-32.2265625,-40.0390625,792.96875,0.0,0,0
1765394034.6875288,1765394034.6518967,-43.9453125,-56.15234375,-74.21875,-886.23046875,0.0,0,0
1765394034.6875782,1765394034.655788,103.515625,-21.97265625,-41.015625,159.66796875,0.0,0,0
1765394034.7321641,1765394034.6598842,-92.28515625,-36.1328125,-13.18359375,32.71484375,0.0,0,0
1765394034.73227,1765394034.6637757,-205.078125,-39.55078125,5.859375,-292.96875,0.0,0,0
1765394034.732312,1765394034.667667,83.49609375,-17.578125,-26.3671875,-944.3359375,0.0,0,0
1765394034.732351,1765394034.6715581,-21.484375,-33.203125,-57.12890625,-568.359375,0.0,0,0
1765394034.73239,1765394034.6754494,77.63671875,-20.01953125,-31.73828125,-58.59375,0.0,0,0
1765394034.7324271,1765394034.6793408,-27.34375,-32.2265625,4.39453125,273.4375,0.0,0,0
1765394034.732464,1765394034.683232,-235.3515625,-46.38671875,-0.9765625,-601.5625,0.0,0,0
1765394034.732503,1765394034.6871233,63.96484375,-11.23046875,-31.25,-981.4453125,0.0,0,0
1765394034.73254,1765394034.6910145,30.2734375,-37.109375,-52.24609375,-172.36328125,0.0,0,0
1765394034.732577,1765394034.6949058,74.70703125,-74.21875,-42.96875,-274.90234375,0.0,0,0
1765394034.732613,1765394034.6987972,19.04296875,-29.78515625,-11.23046875,331.0546875,0.0,0,0
1765394034.732652,1765394034.7026885,-203.61328125,-7.8125,5.859375,-466.30859375,0.0,0,0
1765394034.778914,1765394034.706777,50.29296875,-1.46484375,-22.4609375,-985.3515625,0.0,0,0
1765394034.779058,1765394034.7106683,25.390625,-17.578125,-58.59375,-115.234375,0.0,0,0
1765394034.7791,1765394034.7145598,53.7109375,-6.34765625,-43.9453125,-425.78125,0.0,0,0
1765394034.779138,1765394034.718451,45.8984375,0.9765625,-9.765625,439.94140625,0.0,0,0
1765394034.779178,1765394034.7223425,-243.65234375,-19.04296875,2.9296875,-643.5546875,0.0,0,0
1765394034.7792158,1765394034.7262337,-20.5078125,6.8359375,-0.48828125,708.984375,0.0,0,0
1765394034.779253,1765394034.730125,49.31640625,0.48828125,-37.59765625,253.41796875,0.0,0,0
1765394034.7792902,1765394034.7340164,-3.41796875,-4.8828125,-58.59375,-782.2265625,0.0,0,0
1765394034.779328,1765394034.7379076,52.734375,-48.33984375,-28.80859375,301.26953125,0.0,0,0
1765394034.779365,1765394034.741799,-191.89453125,-89.84375,-2.9296875,-455.56640625,0.0,0,0
1765394034.779404,1765394034.7456903,-61.03515625,-13.18359375,-11.23046875,444.82421875,0.0,0,0
1765394034.7794402,1765394034.7495818,32.2265625,-6.8359375,-50.29296875,289.55078125,0.0,0,0
1765394034.82058,1765394034.7536407,-14.6484375,-25.390625,-62.5,-772.4609375,0.0,0,0
1765394034.820657,1765394034.757532,80.56640625,-11.71875,-27.34375,513.18359375,0.0,0,0
1765394034.820686,1765394034.7614233,-190.91796875,-17.578125,-2.44140625,-400.87890625,0.0,0,0
1765394034.820711,1765394034.7653148,-101.07421875,-5.859375,-9.27734375,268.06640625,0.0,0,0
1765394034.820736,1765394034.769206,36.1328125,-14.6484375,-60.05859375,353.02734375,0.0,0,0
1765394034.820759,1765394034.7730975,2.44140625,-18.5546875,-54.19921875,-673.33984375,0.0,0,0
1765394034.820786,1765394034.7769887,75.1953125,-3.90625,-31.25,321.77734375,0.0,0,0
1765394034.820809,1765394034.7808802,-225.09765625,-43.9453125,-30.2734375,-725.09765625,0.0,0,0
1765394034.820833,1765394034.7847714,-125.48828125,-100.09765625,-20.5078125,210.44921875,0.0,0,0
1765394034.820856,1765394034.788663,46.875,-68.359375,-58.59375,576.66015625,0.0,0,0
1765394034.8208792,1765394034.7925541,-33.203125,-15.13671875,-60.05859375,-918.45703125,0.0,0,0
1765394034.8209019,1765394034.7964456,101.07421875,-12.20703125,-26.85546875,397.94921875,0.0,0,0
1765394034.865563,1765394034.8004968,-147.94921875,-30.2734375,-3.41796875,-174.8046875,0.0,0,0
1765394034.865658,1765394034.804388,-172.8515625,-17.578125,1.46484375,-141.11328125,0.0,0,0
1765394034.865691,1765394034.8082795,57.6171875,-11.23046875,-40.52734375,789.0625,0.0,0,0
1765394034.865721,1765394034.812171,-34.1796875,-37.109375,-60.546875,-874.0234375,0.0,0,0
1765394034.865751,1765394034.8160625,112.3046875,-15.625,-34.66796875,171.38671875,0.0,0,0
1765394034.8657799,1765394034.8199537,-89.35546875,-23.4375,-0.9765625,72.265625,0.0,0,0
1765394034.865812,1765394034.8238451,-194.82421875,-0.9765625,9.27734375,-318.359375,0.0,0,0
1765394034.8658402,1765394034.8277366,79.1015625,-84.47265625,-29.78515625,955.56640625,0.0,0,0
1765394034.865872,1765394034.8316278,-37.109375,-173.828125,-71.2890625,-686.03515625,0.0,0,0
1765394034.865901,1765394034.8355193,66.89453125,-37.59765625,-58.10546875,-60.05859375,0.0,0,0
1765394034.86593,1765394034.8394108,-77.1484375,-15.625,-18.5546875,167.48046875,0.0,0,0
1765394034.865958,1765394034.843302,-225.5859375,-32.2265625,-0.48828125,-406.25,0.0,0,0
1765394034.912852,1765394034.847333,68.359375,-11.23046875,-28.3203125,-937.5,0.0,0,0
1765394034.912988,1765394034.8512244,-11.23046875,-26.3671875,-60.546875,-416.9921875,0.0,0,0
1765394034.913045,1765394034.855116,73.2421875,-18.06640625,-41.9921875,-154.296875,0.0,0,0
1765394034.913096,1765394034.8590074,-23.92578125,-20.01953125,-8.30078125,250.48828125,0.0,0,0
1765394034.913148,1765394034.8628988,-243.65234375,-28.3203125,-7.32421875,-554.6875,0.0,0,0
1765394034.9132001,1765394034.8667903,50.78125,0.0,-15.625,-915.52734375,0.0,0,0
1765394034.913252,1765394034.8706815,25.390625,-11.71875,-49.8046875,-63.96484375,0.0,0,0
1765394034.913307,1765394034.874573,46.875,6.34765625,-54.6875,-401.85546875,0.0,0,0
1765394034.913362,1765394034.8784645,22.4609375,4.8828125,-5.859375,355.95703125,0.0,0,0
1765394034.913414,1765394034.882356,-227.05078125,-25.87890625,11.71875,-590.33203125,0.0,0,0
1765394034.913464,1765394034.8862474,20.99609375,-15.625,-3.90625,828.125,0.0,0,0
1765394034.9135292,1765394034.8901389,63.4765625,-24.4140625,-39.55078125,138.671875,0.0,0,0
1765394034.956463,1765394034.894162,20.01953125,-24.4140625,-47.36328125,-685.546875,0.0,0,0
1765394034.956599,1765394034.8980534,53.22265625,-15.13671875,-12.20703125,440.91796875,0.0,0,0
1765394034.956652,1765394034.9019449,-195.3125,-39.55078125,1.953125,-468.75,0.0,0,0
1765394034.9566898,1765394034.9058363,-36.62109375,-33.203125,-11.71875,512.6953125,0.0,0,0
1765394034.956728,1765394034.9097278,31.25,-35.64453125,-56.640625,188.96484375,0.0,0,0
1765394034.956764,1765394034.9136193,27.83203125,-6.8359375,-50.29296875,-458.984375,0.0,0,0
1765394034.956801,1765394034.9175107,63.4765625,-54.6875,-6.8359375,361.81640625,0.0,0,0
1765394034.9568372,1765394034.9214022,-227.5390625,-123.046875,-4.8828125,-705.078125,0.0,0,0
1765394034.9571788,1765394034.9252937,-53.22265625,-25.87890625,-6.8359375,650.87890625,0.0,0,0
1765394034.957222,1765394034.9291852,26.3671875,-11.71875,-46.38671875,287.59765625,0.0,0,0
1765394034.9572601,1765394034.9330766,-15.625,-23.4375,-50.78125,-744.140625,0.0,0,0
1765394034.9572968,1765394034.936968,104.4921875,-0.9765625,-4.39453125,606.93359375,0.0,0,0
1765394035.031702,1765394034.9412107,-187.98828125,-22.4609375,-0.9765625,-489.74609375,0.0,0,0
1765394035.031908,1765394034.9451022,-108.3984375,-22.94921875,-9.765625,86.42578125,0.0,0,0
1765394035.031948,1765394034.9489937,63.96484375,-20.5078125,-58.59375,548.33984375,0.0,0,0
1765394035.0319731,1765394034.9528854,-41.9921875,-36.1328125,-75.68359375,-878.41796875,0.0,0,0
1765394035.031998,1765394034.9567769,99.12109375,-18.5546875,-30.2734375,375.48828125,0.0,0,0
1765394035.0320241,1765394034.9606683,-138.671875,-29.296875,0.48828125,-258.7890625,0.0,0,0
1765394035.032047,1765394034.96456,-145.5078125,-36.62109375,-10.25390625,-69.82421875,0.0,0,0
1765394035.0320709,1765394034.9684515,80.078125,-29.78515625,-55.6640625,810.05859375,0.0,0,0
1765394035.032095,1765394034.972343,-22.4609375,-35.64453125,-59.08203125,-819.82421875,0.0,0,0
1765394035.032119,1765394034.9762344,94.7265625,-21.484375,-23.92578125,195.80078125,0.0,0,0
1765394035.032143,1765394034.9801261,-107.91015625,-32.2265625,0.0,-33.203125,0.0,0,0
1765394035.032168,1765394034.9840176,-160.64453125,-30.76171875,8.7890625,-182.12890625,0.0,0,0
1765394035.0628119,1765394034.9881213,86.9140625,-19.53125,-38.0859375,820.80078125,0.0,0,0
1765394035.062892,1765394034.9920127,-19.04296875,-35.64453125,-56.15234375,-754.8828125,0.0,0,0
1765394035.062927,1765394034.9959044,115.72265625,-13.671875,-21.97265625,156.73828125,0.0,0,0
1765394035.062958,1765394034.999796,-78.125,-24.90234375,-14.6484375,-36.62109375,0.0,0,0
1765394035.062987,1765394035.0036876,-187.98828125,-31.73828125,-1.953125,-339.35546875,0.0,0,0
1765394035.063017,1765394035.007579,106.4453125,-11.71875,-19.53125,-870.60546875,0.0,0,0
1765394035.063046,1765394035.0114708,13.18359375,-27.34375,-48.828125,-372.55859375,0.0,0,0
1765394035.063076,1765394035.0153623,40.0390625,-27.83203125,-50.78125,-480.46875,0.0,0,0
1765394035.063105,1765394035.019254,-74.70703125,-34.1796875,-23.92578125,-192.3828125,0.0,0,0
1765394035.063136,1765394035.0231454,-191.40625,-37.59765625,3.41796875,-335.44921875,0.0,0,0
1765394035.063168,1765394035.0270371,69.3359375,-18.06640625,-26.3671875,-899.90234375,0.0,0,0
1765394035.063197,1765394035.0309286,-1.953125,-28.80859375,-56.640625,-281.73828125,0.0,0,0
1765394035.105441,1765394035.0350175,52.734375,-20.99609375,-51.26953125,-307.12890625,0.0,0,0
1765394035.105498,1765394035.038909,11.71875,-30.76171875,-18.06640625,392.08984375,0.0,0,0
1765394035.105524,1765394035.0428007,-228.02734375,-51.7578125,1.953125,-552.24609375,0.0,0,0
1765394035.1055481,1765394035.0466924,19.53125,-19.53125,-14.16015625,915.52734375,0.0,0,0
1765394035.105572,1765394035.0505838,34.1796875,-19.53125,-42.48046875,39.55078125,0.0,0,0
1765394035.1055949,1765394035.0544755,33.203125,-19.53125,-38.57421875,-512.20703125,0.0,0,0
1765394035.105619,1765394035.0583673,36.62109375,-14.16015625,-6.8359375,435.05859375,0.0,0,0
1765394035.105642,1765394035.0622587,-232.91015625,-35.15625,-2.9296875,-658.203125,0.0,0,0
1765394035.105665,1765394035.0661504,-28.3203125,-26.85546875,-26.85546875,578.61328125,0.0,0,0
1765394035.105689,1765394035.0700421,37.59765625,-32.2265625,-65.91796875,175.78125,0.0,0,0
1765394035.105729,1765394035.0739336,15.625,-32.2265625,-60.05859375,-672.36328125,0.0,0,0
1765394035.105786,1765394035.0778253,66.89453125,-22.4609375,-22.94921875,405.76171875,0.0,0,0
1765394035.15061,1765394035.0818994,-202.1484375,-40.52734375,-5.37109375,-503.41796875,0.0,0,0
1765394035.150669,1765394035.0857909,-26.85546875,-23.4375,-0.9765625,545.41015625,0.0,0,0
1765394035.150697,1765394035.0896826,58.10546875,-20.5078125,-45.8984375,271.484375,0.0,0,0
1765394035.1507242,1765394035.0935743,-5.859375,-26.85546875,-61.03515625,-759.765625,0.0,0,0
1765394035.150749,1765394035.097466,93.26171875,-16.11328125,-20.5078125,500.0,0.0,0,0
1765394035.150773,1765394035.1013577,-181.640625,-27.34375,8.7890625,-435.546875,0.0,0,0
1765394035.150878,1765394035.1052494,-92.7734375,-17.578125,-9.765625,320.80078125,0.0,0,0
1765394035.1509068,1765394035.1091409,13.18359375,-23.92578125,-76.66015625,256.34765625,0.0,0,0
1765394035.15093,1765394035.1130326,-11.71875,-26.3671875,-72.265625,-640.13671875,0.0,0,0
1765394035.150954,1765394035.1169243,73.73046875,-18.5546875,-27.83203125,454.1015625,0.0,0,0
1765394035.150976,1765394035.120816,-235.83984375,-41.9921875,-11.71875,-686.5234375,0.0,0,0
1765394035.150999,1765394035.1247077,-118.65234375,-25.87890625,-5.37109375,224.609375,0.0,0,0
1765394035.1977432,1765394035.1287668,60.546875,-23.4375,-49.8046875,651.85546875,0.0,0,0
1765394035.197788,1765394035.1326585,-51.26953125,-42.96875,-65.91796875,-1000.0,0.0,0,0
1765394035.197812,1765394035.1365502,73.2421875,-29.78515625,-45.8984375,132.8125,0.0,0,0
1765394035.197836,1765394035.140442,-139.16015625,-39.55078125,-20.99609375,-87.40234375,0.0,0,0
1765394035.19786,1765394035.1443336,-175.29296875,-39.55078125,-7.32421875,-188.4765625,0.0,0,0
1765394035.197883,1765394035.1482253,88.37890625,-24.4140625,-39.55078125,969.7265625,0.0,0,0
1765394035.197906,1765394035.152117,-24.90234375,-35.15625,-72.75390625,-711.42578125,0.0,0,0
1765394035.197929,1765394035.1560087,71.77734375,-31.25,-52.734375,-26.85546875,0.0,0,0
1765394035.197988,1765394035.1599004,-100.09765625,-86.42578125,-18.06640625,113.28125,0.0,0,0
1765394035.19803,1765394035.1637921,-216.30859375,-74.70703125,-6.8359375,-340.33203125,0.0,0,0
1765394035.198055,1765394035.1676838,74.70703125,-19.04296875,-40.52734375,962.40234375,0.0,0,0
1765394035.1980789,1765394035.1715755,-20.01953125,-36.1328125,-58.59375,-541.50390625,0.0,0,0
1765394035.2401862,1765394035.1756132,69.3359375,-27.34375,-41.9921875,-144.53125,0.0,0,0
1765394035.240223,1765394035.179505,-70.3125,-38.57421875,-21.97265625,-43.9453125,0.0,0,0
1765394035.2402601,1765394035.1833968,-196.2890625,-34.1796875,0.48828125,-324.70703125,0.0,0,0
1765394035.240284,1765394035.1872885,75.1953125,-14.16015625,-31.73828125,-910.15625,0.0,0,0
1765394035.240308,1765394035.1911802,-15.625,-35.64453125,-64.453125,-454.58984375,0.0,0,0
1765394035.240331,1765394035.195072,89.84375,-20.5078125,-37.59765625,-76.171875,0.0,0,0
1765394035.240426,1765394035.1989636,-22.4609375,-24.4140625,-9.27734375,188.4765625,0.0,0,0
1765394035.240473,1765394035.2028553,-231.4453125,-29.78515625,-2.44140625,-510.25390625,0.0,0,0
1765394035.2405,1765394035.206747,59.5703125,-7.32421875,-32.71484375,-903.80859375,0.0,0,0
1765394035.240524,1765394035.2106388,-4.39453125,-31.25,-70.80078125,-231.4453125,0.0,0,0
1765394035.2405481,1765394035.2145307,50.78125,-21.97265625,-49.8046875,-262.20703125,0.0,0,0
1765394035.2405708,1765394035.2184224,16.6015625,-24.4140625,-11.71875,319.82421875,0.0,0,0
1765394035.285085,1765394035.2224452,-240.72265625,-40.0390625,-2.9296875,-606.4453125,0.0,0,0
1765394035.28513,1765394035.226337,4.8828125,-17.578125,-22.4609375,958.49609375,0.0,0,0
1765394035.285155,1765394035.230229,11.23046875,-25.87890625,-47.36328125,-9.27734375,0.0,0,0
1765394035.285179,1765394035.2341206,37.59765625,-17.578125,-37.59765625,-374.0234375,0.0,0,0
1765394035.28527,1765394035.2380123,35.15625,-16.6015625,-18.06640625,317.87109375,0.0,0,0
1765394035.285302,1765394035.241904,-223.14453125,-27.34375,15.13671875,-534.66796875,0.0,0,0
1765394035.285326,1765394035.2457957,-7.8125,-10.25390625,-1.46484375,929.19921875,0.0,0,0
1765394035.285365,1765394035.2496877,33.69140625,-25.87890625,-65.91796875,149.4140625,0.0,0,0
1765394035.285394,1765394035.2535794,-11.23046875,-29.296875,-65.91796875,-879.8828125,0.0,0,0
1765394035.285418,1765394035.257471,85.9375,-20.01953125,-21.97265625,512.6953125,0.0,0,0
1765394035.285441,1765394035.2613628,-178.7109375,-32.2265625,3.90625,-310.546875,0.0,0,0
1765394035.285474,1765394035.2652547,-90.8203125,-18.5546875,1.46484375,243.65234375,0.0,0,0
1765394035.330786,1765394035.2692633,50.29296875,-25.87890625,-42.96875,437.01171875,0.0,0,0
1765394035.3308191,1765394035.273155,-33.203125,-42.48046875,-56.15234375,-869.140625,0.0,0,0
1765394035.3308318,1765394035.2770467,92.28515625,-15.625,-20.5078125,455.078125,0.0,0,0
1765394035.3308449,1765394035.2809386,-164.0625,-28.80859375,-2.44140625,-275.87890625,0.0,0,0
1765394035.330858,1765394035.2848303,-117.67578125,-31.25,0.0,57.12890625,0.0,0,0
1765394035.330871,1765394035.288722,88.8671875,-11.71875,-37.109375,628.41796875,0.0,0,0
1765394035.330883,1765394035.292614,-4.8828125,-40.52734375,-54.6875,-786.1328125,0.0,0,0
1765394035.330896,1765394035.2965057,95.703125,-46.38671875,-34.66796875,345.703125,0.0,0,0
1765394035.3309288,1765394035.3003974,-150.390625,-45.41015625,-22.4609375,-277.34375,0.0,0,0
1765394035.3309598,1765394035.3042893,-157.71484375,-39.0625,-7.32421875,-65.91796875,0.0,0,0
1765394035.330975,1765394035.308181,49.31640625,-31.25,-42.96875,701.171875,0.0,0,0
1765394035.330988,1765394035.3120728,-41.015625,-41.50390625,-61.5234375,-878.90625,0.0,0,0
1765394035.388624,1765394035.316068,101.07421875,-19.04296875,-42.48046875,196.2890625,0.0,0,0
1765394035.3886678,1765394035.3199599,-109.86328125,-28.80859375,-8.7890625,-143.5546875,0.0,0,0
1765394035.388684,1765394035.3238516,-166.50390625,-26.3671875,12.20703125,-189.94140625,0.0,0,0
1765394035.388698,1765394035.3277435,73.2421875,-14.16015625,-35.64453125,925.78125,0.0,0,0
1765394035.388712,1765394035.3316352,-43.9453125,-27.34375,-59.08203125,-747.0703125,0.0,0,0
1765394035.388725,1765394035.3355272,83.984375,-9.765625,-28.3203125,52.734375,0.0,0,0
1765394035.3887382,1765394035.339419,-94.23828125,-76.66015625,-18.5546875,75.68359375,0.0,0,0
1765394035.388751,1765394035.3433106,-225.09765625,-73.2421875,-8.7890625,-346.6796875,0.0,0,0
1765394035.388763,1765394035.3472025,80.56640625,5.37109375,-24.4140625,-897.4609375,0.0,0,0
1765394035.3887758,1765394035.3510942,-13.671875,-24.90234375,-58.59375,-487.3046875,0.0,0,0
1765394035.388788,1765394035.3549862,60.05859375,-21.484375,-43.45703125,-171.875,0.0,0,0
1765394035.388801,1765394035.358878,-39.55078125,-13.18359375,-6.8359375,234.375,0.0,0,0
1765394035.434268,1765394035.362858,-229.98046875,-25.87890625,1.953125,-479.00390625,0.0,0,0
1765394035.434297,1765394035.36675,58.59375,-10.7421875,-20.99609375,-903.80859375,0.0,0,0
1765394035.434314,1765394035.3706417,9.765625,-27.34375,-46.875,-169.43359375,0.0,0,0
1765394035.4343302,1765394035.3745337,56.15234375,-22.4609375,-41.9921875,-328.61328125,0.0,0,0
1765394035.434347,1765394035.3784254,2.44140625,-12.6953125,-13.671875,245.60546875,0.0,0,0
1765394035.434363,1765394035.3823173,-206.54296875,-77.1484375,12.20703125,-446.77734375,0.0,0,0
1765394035.43438,1765394035.386209,59.5703125,-77.1484375,-4.39453125,-941.89453125,0.0,0,0
1765394035.4344268,1765394035.390101,31.73828125,-20.99609375,-51.7578125,-72.75390625,0.0,0,0
1765394035.4344661,1765394035.3939927,56.15234375,-9.27734375,-48.828125,-393.5546875,0.0,0,0
1765394035.434486,1765394035.3978846,70.3125,-23.92578125,-5.859375,407.71484375,0.0,0,0
1765394035.4345028,1765394035.4017763,-179.6875,-44.921875,11.23046875,-599.12109375,0.0,0,0
1765394035.4345212,1765394035.4056683,37.109375,-0.9765625,6.34765625,801.26953125,0.0,0,0
1765394035.4810681,1765394035.4097483,74.21875,-8.7890625,-40.0390625,147.4609375,0.0,0,0
1765394035.48111,1765394035.41364,51.7578125,-25.87890625,-60.546875,-705.56640625,0.0,0,0
1765394035.4811351,1765394035.417532,119.140625,-3.41796875,-20.01953125,455.078125,0.0,0,0
1765394035.481159,1765394035.421424,-167.96875,-16.6015625,1.46484375,-501.953125,0.0,0,0
1765394035.481181,1765394035.4253156,-33.69140625,-10.7421875,-1.953125,416.015625,0.0,0,0
1765394035.481205,1765394035.4292076,112.79296875,-25.87890625,-35.15625,522.4609375,0.0,0,0
1765394035.481229,1765394035.4330995,17.578125,-46.38671875,-63.96484375,-1000.0,0.0,0,0
1765394035.481251,1765394035.4369912,119.62890625,-18.5546875,-27.34375,226.07421875,0.0,0,0
1765394035.4812748,1765394035.4408832,-104.98046875,-31.73828125,-1.46484375,-194.3359375,0.0,0,0
1765394035.481299,1765394035.444775,-84.47265625,-54.6875,-9.765625,-74.70703125,0.0,0,0
1765394035.481322,1765394035.4486668,113.28125,-31.73828125,-42.96875,585.9375,0.0,0,0
1765394035.4813771,1765394035.4525588,20.99609375,-25.390625,-60.05859375,-861.328125,0.0,0,0
1765394035.525676,1765394035.4566267,120.1171875,-20.01953125,-28.80859375,298.828125,0.0,0,0
1765394035.525769,1765394035.4605186,-125.0,-34.1796875,-2.9296875,-156.25,0.0,0,0
1765394035.525801,1765394035.4644105,-112.79296875,-13.671875,6.8359375,-24.4140625,0.0,0,0
1765394035.525831,1765394035.4683022,81.54296875,0.48828125,-52.24609375,505.37109375,0.0,0,0
1765394035.525861,1765394035.4721942,-2.9296875,-15.13671875,-65.4296875,-851.5625,0.0,0,0
1765394035.525897,1765394035.4760861,143.5546875,9.27734375,-9.765625,413.0859375,0.0,0,0
1765394035.525928,1765394035.479978,-106.93359375,-12.6953125,5.37109375,-281.25,0.0,0,0
1765394035.525957,1765394035.48387,-125.9765625,-15.625,-0.48828125,-87.890625,0.0,0,0
1765394035.525985,1765394035.487762,62.98828125,-48.33984375,-52.734375,671.38671875,0.0,0,0
1765394035.526022,1765394035.4916537,-37.109375,-80.56640625,-63.4765625,-919.921875,0.0,0,0
1765394035.526052,1765394035.4955456,123.046875,-16.11328125,-35.64453125,244.140625,0.0,0,0
1765394035.52608,1765394035.4994376,-90.8203125,-18.06640625,-10.25390625,-75.68359375,0.0,0,0
1765394035.631478,1765394035.5039375,-176.26953125,-19.04296875,6.34765625,-302.24609375,0.0,0,0
1765394035.631681,1765394035.5078294,101.07421875,0.48828125,-28.3203125,-931.15234375,0.0,0,0
1765394035.6317492,1765394035.5117216,-16.11328125,-18.06640625,-54.6875,-583.49609375,0.0,0,0
1765394035.631804,1765394035.5156136,78.61328125,-11.71875,-39.55078125,-114.2578125,0.0,0,0
1765394035.631857,1765394035.5195055,-40.52734375,-16.11328125,-16.6015625,179.19921875,0.0,0,0
1765394035.631917,1765394035.5233977,-202.63671875,-18.06640625,6.34765625,-372.55859375,0.0,0,0
1765394035.631969,1765394035.5272896,75.68359375,9.27734375,-17.578125,-955.078125,0.0,0,0
1765394035.632019,1765394035.5311816,2.9296875,-21.97265625,-63.4765625,-427.734375,0.0,0,0
1765394035.632069,1765394035.5350738,86.9140625,-54.19921875,-50.29296875,-190.91796875,0.0,0,0
1765394035.632119,1765394035.5389657,-1.953125,-36.62109375,-14.16015625,242.67578125,0.0,0,0
1765394035.632169,1765394035.542858,-219.7265625,-18.5546875,1.953125,-526.85546875,0.0,0,0
1765394035.6322181,1765394035.5467498,53.22265625,-9.27734375,-20.01953125,-919.43359375,0.0,0,0
1765394035.633709,1765394035.5509248,24.90234375,-24.4140625,-50.29296875,-67.3828125,0.0,0,0
1765394035.633761,1765394035.5548167,44.921875,-17.578125,-42.48046875,-493.65234375,0.0,0,0
1765394035.633798,1765394035.558709,25.87890625,-10.25390625,-13.671875,338.8671875,0.0,0,0
1765394035.633836,1765394035.5626009,-215.33203125,-32.71484375,2.9296875,-557.12890625,0.0,0,0
1765394035.633874,1765394035.566493,0.9765625,-19.04296875,-16.6015625,785.64453125,0.0,0,0
1765394035.633914,1765394035.5703852,38.0859375,-15.625,-42.96875,178.7109375,0.0,0,0
1765394035.633952,1765394035.5742772,22.4609375,-10.25390625,-35.64453125,-642.08984375,0.0,0,0
1765394035.633989,1765394035.5781693,58.10546875,-10.25390625,-17.578125,351.5625,0.0,0,0
1765394035.6340249,1765394035.5820615,-208.984375,-33.69140625,-6.34765625,-559.08203125,0.0,0,0
1765394035.634062,1765394035.5859535,-36.1328125,-14.6484375,-3.90625,574.70703125,0.0,0,0
1765394035.6341,1765394035.5898457,44.43359375,-19.53125,-42.48046875,244.62890625,0.0,0,0
1765394035.63414,1765394035.5937376,13.671875,-23.4375,-45.8984375,-680.17578125,0.0,0,0
1765394035.661728,1765394035.5977685,83.0078125,-12.6953125,-16.6015625,379.8828125,0.0,0,0
1765394035.66184,1765394035.6016607,-204.1015625,-30.2734375,2.44140625,-567.87109375,0.0,0,0
1765394035.661881,1765394035.605553,-62.5,-15.13671875,6.34765625,468.75,0.0,0,0
1765394035.661918,1765394035.6094449,52.734375,-26.3671875,-44.921875,357.91015625,0.0,0,0
1765394035.662189,1765394035.613337,-24.4140625,-36.62109375,-56.640625,-836.42578125,0.0,0,0
1765394035.66223,1765394035.6172292,112.3046875,-8.7890625,-10.25390625,564.453125,0.0,0,0
1765394035.66227,1765394035.6211214,-164.55078125,-32.71484375,-5.859375,-380.859375,0.0,0,0
1765394035.6623092,1765394035.6250134,-122.0703125,-36.62109375,-16.11328125,4.39453125,0.0,0,0
1765394035.662348,1765394035.6289055,75.68359375,-33.69140625,-50.29296875,623.046875,0.0,0,0
1765394035.662384,1765394035.6327977,-37.59765625,-39.0625,-66.40625,-922.8515625,0.0,0,0
1765394035.66242,1765394035.63669,95.21484375,-20.5078125,-32.71484375,291.015625,0.0,0,0
1765394035.662456,1765394035.6405818,-130.37109375,-118.65234375,-6.8359375,-147.4609375,0.0,0,0
1765394035.7062201,1765394035.64459,-162.109375,-114.2578125,-8.30078125,-167.48046875,0.0,0,0
1765394035.706329,1765394035.648482,64.94140625,-17.08984375,-45.8984375,883.30078125,0.0,0,0
1765394035.7063801,1765394035.652374,-33.69140625,-33.69140625,-53.7109375,-745.1171875,0.0,0,0
1765394035.706431,1765394035.6562662,104.4921875,-19.04296875,-29.296875,115.234375,0.0,0,0
1765394035.706481,1765394035.6601584,-97.16796875,-19.53125,-13.671875,24.90234375,0.0,0,0
1765394035.70653,1765394035.6640506,-176.26953125,-8.7890625,21.484375,-236.328125,0.0,0,0
1765394035.706579,1765394035.6679428,106.93359375,4.8828125,-8.30078125,-960.44921875,0.0,0,0
1765394035.706629,1765394035.671835,-21.97265625,-31.73828125,-59.5703125,-657.2265625,0.0,0,0
1765394035.706679,1765394035.675727,70.80078125,-7.8125,-41.015625,-155.2734375,0.0,0,0
1765394035.70673,1765394035.679619,-55.6640625,-5.37109375,-6.8359375,202.1484375,0.0,0,0
1765394035.7067788,1765394035.6835113,-212.890625,-17.08984375,13.18359375,-402.34375,0.0,0,0
1765394035.706829,1765394035.6874034,86.9140625,1.46484375,-11.71875,-970.21484375,0.0,0,0
1765394035.7637289,1765394035.6913955,14.6484375,-18.5546875,-47.36328125,-384.27734375,0.0,0,0
1765394035.763781,1765394035.6952877,85.44921875,-7.8125,-32.71484375,-103.02734375,0.0,0,0
1765394035.763805,1765394035.69918,-20.99609375,-7.8125,-2.9296875,271.484375,0.0,0,0
1765394035.763829,1765394035.703072,-239.2578125,-27.83203125,-4.39453125,-565.91796875,0.0,0,0
1765394035.7638521,1765394035.7069643,51.7578125,-7.8125,-25.87890625,-959.47265625,0.0,0,0
1765394035.763875,1765394035.7108564,34.66796875,-10.7421875,-32.2265625,5.859375,0.0,0,0
1765394035.7638981,1765394035.7147486,-0.48828125,-49.31640625,-49.8046875,-740.72265625,0.0,0,0
1765394035.763922,1765394035.7186408,-12.20703125,-43.9453125,-25.390625,67.3828125,0.0,0,0
1765394035.7639449,1765394035.722533,-216.796875,-22.4609375,2.9296875,-480.95703125,0.0,0,0
1765394035.763968,1765394035.7264252,-7.32421875,-17.578125,-21.484375,690.4296875,0.0,0,0
1765394035.763991,1765394035.7303174,30.2734375,-27.83203125,-55.17578125,106.93359375,0.0,0,0
1765394035.764014,1765394035.7342095,-0.9765625,-25.390625,-51.26953125,-603.515625,0.0,0,0
1765394035.809582,1765394035.7382267,19.04296875,-21.484375,-14.6484375,359.375,0.0,0,0
1765394035.809647,1765394035.742119,-229.00390625,-40.0390625,-0.9765625,-499.51171875,0.0,0,0
1765394035.809674,1765394035.7460113,-21.484375,-21.484375,-18.06640625,686.03515625,0.0,0,0
1765394035.809698,1765394035.7499034,32.71484375,-25.87890625,-54.19921875,194.3359375,0.0,0,0
1765394035.8097222,1765394035.7537956,8.7890625,-21.97265625,-55.6640625,-679.6875,0.0,0,0
1765394035.809746,1765394035.7576878,108.88671875,-20.01953125,-2.44140625,681.15234375,0.0,0,0
1765394035.809769,1765394035.76158,-183.59375,-49.8046875,16.11328125,-413.0859375,0.0,0,0
1765394035.809793,1765394035.7654722,-68.84765625,-18.06640625,-2.9296875,280.76171875,0.0,0,0
1765394035.809818,1765394035.7693644,30.76171875,-25.390625,-65.4296875,258.7890625,0.0,0,0
1765394035.809841,1765394035.7732565,-16.11328125,-45.8984375,-71.2890625,-678.22265625,0.0,0,0
1765394035.809865,1765394035.7771487,96.6796875,-23.4375,-19.04296875,512.6953125,0.0,0,0
1765394035.809888,1765394035.781041,-192.87109375,-33.203125,-8.7890625,-525.390625,0.0,0,0
1765394035.8555038,1765394035.7851176,-91.796875,-19.53125,-1.46484375,325.68359375,0.0,0,0
1765394035.855587,1765394035.7890098,62.98828125,-19.53125,-39.0625,489.2578125,0.0,0,0
1765394035.855621,1765394035.7929022,-16.6015625,-25.87890625,-54.6875,-906.73828125,0.0,0,0
1765394035.855652,1765394035.7967944,108.3984375,-1.953125,-27.34375,394.04296875,0.0,0,0
1765394035.855681,1765394035.8006866,-146.97265625,-21.484375,-4.8828125,-296.875,0.0,0,0
1765394035.855711,1765394035.8045788,-119.140625,-20.01953125,4.39453125,52.24609375,0.0,0,0
1765394035.8557398,1765394035.808471,50.29296875,-22.4609375,-51.26953125,484.375,0.0,0,0
1765394035.8557692,1765394035.8123634,-36.1328125,-25.390625,-69.3359375,-932.12890625,0.0,0,0
1765394035.855799,1765394035.8162556,120.60546875,-16.11328125,-30.2734375,381.8359375,0.0,0,0
1765394035.855829,1765394035.8201478,-147.94921875,-89.35546875,-18.06640625,-281.73828125,0.0,0,0
1765394035.8558578,1765394035.82404,-171.38671875,-50.78125,-8.30078125,-213.37890625,0.0,0,0
1765394035.855888,1765394035.8279321,105.46875,7.32421875,-36.62109375,958.0078125,0.0,0,0
1765394035.931542,1765394035.8322134,-19.53125,-22.94921875,-63.4765625,-790.0390625,0.0,0,0
1765394035.931682,1765394035.8361058,87.40234375,-15.13671875,-40.52734375,-10.7421875,0.0,0,0
1765394035.931723,1765394035.839998,-65.4296875,-18.5546875,-4.39453125,190.91796875,0.0,0,0
1765394035.93176,1765394035.8438904,-204.1015625,-23.4375,4.39453125,-382.32421875,0.0,0,0
1765394035.931797,1765394035.8477826,83.0078125,-15.13671875,-44.43359375,-995.1171875,0.0,0,0
1765394035.9318342,1765394035.851675,5.37109375,-25.87890625,-59.08203125,-453.125,0.0,0,0
1765394035.93187,1765394035.8555675,94.7265625,-4.39453125,-34.66796875,-62.01171875,0.0,0,0
1765394035.931906,1765394035.8594596,-52.24609375,-15.625,-27.34375,125.9765625,0.0,0,0
1765394035.9319522,1765394035.863352,-211.42578125,-45.8984375,-16.11328125,-387.20703125,0.0,0,0
1765394035.931999,1765394035.8672442,71.77734375,-36.62109375,-36.1328125,-914.0625,0.0,0,0
1765394035.932035,1765394035.8711367,0.0,-33.203125,-60.546875,-374.51171875,0.0,0,0
1765394035.932081,1765394035.8750288,95.703125,-5.859375,-36.1328125,-109.86328125,0.0,0,0
1765394035.9462779,1765394035.8790836,-30.2734375,-15.13671875,-16.6015625,138.671875,0.0,0,0
1765394035.9463592,1765394035.882976,-218.75,-32.71484375,0.48828125,-469.23828125,0.0,0,0
1765394035.946402,1765394035.8868685,76.171875,-0.9765625,-10.7421875,-859.375,0.0,0,0
1765394035.946443,1765394035.8907607,9.765625,-21.97265625,-54.19921875,-216.30859375,0.0,0,0
1765394035.946486,1765394035.894653,56.640625,-22.4609375,-53.22265625,-316.40625,0.0,0,0
1765394035.946522,1765394035.8985455,38.57421875,-9.27734375,-10.7421875,452.1484375,0.0,0,0
1765394035.946558,1765394035.9024377,-242.67578125,-33.203125,0.0,-687.98828125,0.0,0,0
1765394035.946595,1765394035.90633,-4.8828125,-23.4375,-18.06640625,749.0234375,0.0,0,0
1765394035.946631,1765394035.9102225,21.97265625,-32.71484375,-55.17578125,50.29296875,0.0,0,0
1765394035.946671,1765394035.914115,27.83203125,-36.1328125,-52.24609375,-457.03125,0.0,0,0
1765394035.946707,1765394035.9180071,45.8984375,-23.4375,-18.5546875,404.78515625,0.0,0,0
1765394035.946743,1765394035.9218996,-213.8671875,-34.1796875,3.41796875,-631.34765625,0.0,0,0
1765394035.991307,1765394035.925936,-12.20703125,-13.18359375,-3.41796875,726.07421875,0.0,0,0
1765394035.991447,1765394035.9298284,30.2734375,-24.4140625,-47.36328125,171.38671875,0.0,0,0
1765394035.991491,1765394035.9337208,21.97265625,-14.6484375,-49.31640625,-593.75,0.0,0,0
1765394035.991531,1765394035.9376132,71.77734375,-40.0390625,-25.390625,329.58984375,0.0,0,0
1765394035.9915688,1765394035.9415057,-203.61328125,-92.7734375,-8.7890625,-660.64453125,0.0,0,0
1765394035.991606,1765394035.9453979,-41.9921875,-27.34375,-2.9296875,534.1796875,0.0,0,0
1765394035.991643,1765394035.9492903,59.08203125,-0.48828125,-43.9453125,445.80078125,0.0,0,0
1765394035.991681,1765394035.9531827,-36.1328125,-53.7109375,-62.5,-1000.0,0.0,0,0
1765394035.991955,1765394035.957075,81.0546875,-67.87109375,-33.69140625,226.07421875,0.0,0,0
1765394035.9919958,1765394035.9609675,-152.34375,-37.59765625,-5.37109375,-281.25,0.0,0,0
1765394035.992034,1765394035.9648597,-122.0703125,-18.06640625,0.48828125,-7.8125,0.0,0,0
1765394035.9920719,1765394035.9687521,78.125,-11.71875,-40.52734375,666.50390625,0.0,0,0
1765394036.036293,1765394035.972771,-22.4609375,-26.3671875,-56.640625,-910.15625,0.0,0,0
1765394036.0363772,1765394035.9766634,111.328125,-3.90625,-15.13671875,251.46484375,0.0,0,0
1765394036.03641,1765394035.9805558,-119.140625,-14.6484375,4.39453125,-62.5,0.0,0,0
1765394036.036441,1765394035.9844482,-168.9453125,-21.484375,5.859375,-203.125,0.0,0,0
1765394036.03647,1765394035.9883406,92.7734375,-9.27734375,-31.25,884.765625,0.0,0,0
1765394036.036499,1765394035.992233,-3.90625,-20.01953125,-41.015625,-643.5546875,0.0,0,0
1765394036.0365288,1765394035.9961252,87.890625,-5.859375,-25.87890625,125.9765625,0.0,0,0
1765394036.036559,1765394036.0000176,-115.234375,-45.8984375,-21.484375,-86.9140625,0.0,0,0
1765394036.036588,1765394036.00391,-176.26953125,-45.8984375,-2.44140625,-239.2578125,0.0,0,0
1765394036.036618,1765394036.0078025,82.51953125,-7.8125,-27.34375,-948.73046875,0.0,0,0
1765394036.0366468,1765394036.011695,-16.6015625,-27.34375,-43.45703125,-569.3359375,0.0,0,0
1765394036.0366771,1765394036.0155873,97.65625,-17.08984375,-24.4140625,27.83203125,0.0,0,0
1765394036.1114,1765394036.0198183,-62.98828125,-22.94921875,3.90625,111.328125,0.0,0,0
1765394036.1114612,1765394036.0237107,-199.21875,-30.2734375,18.5546875,-366.2109375,0.0,0,0
1765394036.111486,1765394036.0276031,83.49609375,-17.08984375,-21.97265625,-937.98828125,0.0,0,0
1765394036.111512,1765394036.0314956,-20.5078125,-36.62109375,-60.05859375,-504.8828125,0.0,0,0
1765394036.111536,1765394036.0353882,68.359375,-21.484375,-39.0625,-124.0234375,0.0,0,0
1765394036.1115599,1765394036.0392807,-20.5078125,-0.9765625,0.0,267.08984375,0.0,0,0
1765394036.111583,1765394036.043173,-216.796875,-61.5234375,9.765625,-484.86328125,0.0,0,0
1765394036.111607,1765394036.0470655,61.5234375,-82.51953125,-20.01953125,-905.76171875,0.0,0,0
1765394036.1116312,1765394036.050958,0.9765625,-20.99609375,-48.828125,-157.2265625,0.0,0,0
1765394036.1116538,1765394036.0548506,37.59765625,0.9765625,-40.0390625,-351.07421875,0.0,0,0
1765394036.111679,1765394036.058743,1.46484375,-3.90625,-4.8828125,292.96875,0.0,0,0
1765394036.111734,1765394036.0626354,-240.72265625,-21.484375,10.25390625,-564.94140625,0.0,0,0
1765394036.1688588,1765394036.066632,0.48828125,-5.37109375,-9.765625,913.57421875,0.0,0,0
1765394036.168939,1765394036.0705245,-5.859375,-20.5078125,-53.22265625,-60.05859375,0.0,0,0
1765394036.1689658,1765394036.074417,20.5078125,-17.08984375,-44.921875,-427.24609375,0.0,0,0
1765394036.168991,1765394036.0783095,25.87890625,-8.7890625,-8.30078125,407.2265625,0.0,0,0
1765394036.1690161,1765394036.082202,-244.62890625,-21.97265625,5.859375,-553.22265625,0.0,0,0
1765394036.169041,1765394036.0860944,-15.625,2.9296875,6.8359375,827.1484375,0.0,0,0
1765394036.169065,1765394036.089987,13.18359375,-17.578125,-61.03515625,152.83203125,0.0,0,0
1765394036.16909,1765394036.0938795,-37.59765625,-35.64453125,-85.44921875,-703.61328125,0.0,0,0
1765394036.169114,1765394036.097772,64.94140625,-16.11328125,-22.4609375,507.32421875,0.0,0,0
1765394036.169138,1765394036.1016645,-207.03125,-33.69140625,2.9296875,-479.98046875,0.0,0,0
1765394036.169162,1765394036.105557,-82.03125,-26.85546875,-7.32421875,389.6484375,0.0,0,0
1765394036.169185,1765394036.1094494,49.8046875,-30.2734375,-56.15234375,453.125,0.0,0,0
1765394036.185133,1765394036.1134338,-45.41015625,-28.3203125,-74.21875,-979.00390625,0.0,0,0
1765394036.185212,1765394036.1173265,43.9453125,-47.36328125,-37.109375,127.44140625,0.0,0,0
1765394036.185246,1765394036.121219,-180.6640625,-108.3984375,-15.13671875,-318.84765625,0.0,0,0
1765394036.185277,1765394036.1251116,-112.79296875,-51.26953125,-17.08984375,214.84375,0.0,0,0
1765394036.1853068,1765394036.129004,45.8984375,-11.71875,-59.08203125,416.9921875,0.0,0,0
1765394036.185337,1765394036.1328964,-19.04296875,-67.87109375,-55.6640625,-803.7109375,0.0,0,0
1765394036.185367,1765394036.136789,102.05078125,-67.3828125,-26.3671875,431.15234375,0.0,0,0
1765394036.185396,1765394036.1406815,-178.7109375,-34.1796875,-35.64453125,-449.21875,0.0,0,0
1765394036.185427,1765394036.144574,-143.5546875,-30.2734375,-24.4140625,-25.390625,0.0,0,0
1765394036.185456,1765394036.1484666,92.28515625,-15.625,-55.6640625,733.3984375,0.0,0,0
1765394036.1854851,1765394036.152359,-24.4140625,-26.85546875,-68.359375,-893.06640625,0.0,0,0
1765394036.185537,1765394036.1562517,104.00390625,-7.32421875,-32.71484375,242.67578125,0.0,0,0
1765394036.230326,1765394036.160322,-103.02734375,-15.625,-10.25390625,-69.3359375,0.0,0,0
1765394036.230401,1765394036.1642146,-161.62109375,-15.625,2.44140625,-207.03125,0.0,0,0
1765394036.230437,1765394036.168107,88.37890625,-5.37109375,-33.203125,868.1640625,0.0,0,0
1765394036.230468,1765394036.1719997,-29.296875,-27.83203125,-64.94140625,-840.33203125,0.0,0,0
1765394036.230498,1765394036.175892,86.42578125,-12.20703125,-48.33984375,39.55078125,0.0,0,0
1765394036.230528,1765394036.1797848,-71.2890625,-31.73828125,-9.27734375,170.41015625,0.0,0,0
1765394036.230558,1765394036.1836772,-211.42578125,-37.109375,7.8125,-418.45703125,0.0,0,0
1765394036.2305868,1765394036.1875699,68.84765625,5.37109375,-38.0859375,975.09765625,0.0,0,0
1765394036.230617,1765394036.1914623,-7.32421875,-21.484375,-51.7578125,-493.1640625,0.0,0,0
1765394036.230648,1765394036.195355,81.0546875,-68.84765625,-23.4375,-50.29296875,0.0,0,0
1765394036.23068,1765394036.1992474,-55.17578125,-35.15625,-10.7421875,125.48828125,0.0,0,0
1765394036.230711,1765394036.20314,-212.890625,-5.37109375,-1.953125,-395.01953125,0.0,0,0
1765394036.2760189,1765394036.2071981,61.03515625,-5.859375,-32.71484375,-898.4375,0.0,0,0
1765394036.276117,1765394036.2110908,-16.6015625,-17.578125,-56.640625,-384.27734375,0.0,0,0
1765394036.276153,1765394036.2149835,61.03515625,-4.8828125,-42.48046875,-206.0546875,0.0,0,0
1765394036.276184,1765394036.218876,-24.90234375,-11.71875,-16.6015625,225.5859375,0.0,0,0
1765394036.276222,1765394036.2227685,-228.02734375,-22.94921875,11.71875,-487.3046875,0.0,0,0
1765394036.2762518,1765394036.2266612,53.7109375,2.44140625,-1.953125,-900.87890625,0.0,0,0
1765394036.276281,1765394036.2305536,23.4375,-13.18359375,-47.36328125,-57.6171875,0.0,0,0
1765394036.27631,1765394036.2344463,33.203125,2.44140625,-48.33984375,-475.09765625,0.0,0,0
1765394036.276339,1765394036.238339,-3.41796875,-75.68359375,-25.390625,60.05859375,0.0,0,0
1765394036.276368,1765394036.2422314,-212.40234375,-132.32421875,-6.34765625,-520.01953125,0.0,0,0
1765394036.2764218,1765394036.246124,25.390625,-23.92578125,-1.953125,-988.76953125,0.0,0,0
1765394036.2764502,1765394036.2500167,30.76171875,-19.53125,-44.921875,69.82421875,0.0,0,0
1765394036.322222,1765394036.2540588,24.4140625,-26.85546875,-56.640625,-585.9375,0.0,0,0
1765394036.322301,1765394036.2579513,48.33984375,-16.6015625,-20.01953125,290.52734375,0.0,0,0
1765394036.32233,1765394036.261844,-202.1484375,-24.90234375,2.44140625,-562.98828125,0.0,0,0
1765394036.322355,1765394036.2657366,-26.3671875,-11.23046875,-11.23046875,678.7109375,0.0,0,0
1765394036.322379,1765394036.2696292,19.04296875,-27.83203125,-60.546875,113.76953125,0.0,0,0
1765394036.322402,1765394036.273522,39.0625,-22.4609375,-45.8984375,-381.34765625,0.0,0,0
1765394036.32243,1765394036.2774143,82.51953125,-12.20703125,-18.5546875,345.21484375,0.0,0,0
1765394036.322453,1765394036.281307,-214.84375,-38.0859375,-11.71875,-776.85546875,0.0,0,0
1765394036.3224761,1765394036.2851996,-40.52734375,-60.546875,-9.765625,693.359375,0.0,0,0
1765394036.322499,1765394036.2890923,31.25,-58.10546875,-56.640625,258.7890625,0.0,0,0
1765394036.322521,1765394036.292985,-12.6953125,-21.484375,-54.6875,-867.67578125,0.0,0,0
1765394036.322544,1765394036.2968774,116.2109375,-8.30078125,-13.671875,556.15234375,0.0,0,0
1765394036.365571,1765394036.3009086,-161.1328125,-27.34375,-0.9765625,-371.58203125,0.0,0,0
1765394036.3657842,1765394036.3048012,-116.69921875,-21.484375,-0.48828125,75.68359375,0.0,0,0
1765394036.365817,1765394036.308694,68.359375,-17.578125,-32.2265625,616.69921875,0.0,0,0
1765394036.365843,1765394036.3125865,-37.109375,-31.73828125,-52.734375,-899.4140625,0.0,0,0
1765394036.365868,1765394036.3164792,105.95703125,-10.25390625,-21.484375,387.20703125,0.0,0,0
1765394036.3658922,1765394036.3203719,-126.46484375,-18.5546875,9.765625,-102.5390625,0.0,0,0
1765394036.3659148,1765394036.3242645,-156.73828125,-7.32421875,13.671875,-140.625,0.0,0,0
1765394036.365939,1765394036.3281572,70.80078125,-38.0859375,-41.9921875,680.17578125,0.0,0,0
1765394036.365962,1765394036.3320496,-41.9921875,-85.44921875,-69.82421875,-1000.0,0.0,0,0
1765394036.365984,1765394036.3359423,106.4453125,-17.578125,-36.1328125,100.5859375,0.0,0,0
1765394036.366008,1765394036.339835,-81.0546875,-5.37109375,5.859375,82.51953125,0.0,0,0
1765394036.3660312,1765394036.3437276,-179.19921875,-19.04296875,18.06640625,-206.0546875,0.0,0,0
1765394036.411516,1765394036.3477478,65.4296875,-16.11328125,-38.0859375,856.93359375,0.0,0,0
1765394036.411575,1765394036.3516405,-39.55078125,-24.4140625,-58.59375,-777.34375,0.0,0,0
1765394036.411595,1765394036.3555331,92.28515625,-4.8828125,-28.3203125,38.0859375,0.0,0,0
1765394036.4116118,1765394036.3594258,-68.359375,-18.06640625,-0.48828125,83.0078125,0.0,0,0
1765394036.411629,1765394036.3633184,-205.078125,-29.296875,9.765625,-361.328125,0.0,0,0
1765394036.411645,1765394036.367211,78.61328125,-2.9296875,-20.5078125,-867.67578125,0.0,0,0
1765394036.411753,1765394036.3711038,-17.578125,-22.94921875,-59.08203125,-401.3671875,0.0,0,0
1765394036.4117918,1765394036.3749964,59.5703125,-102.5390625,-45.41015625,-214.84375,0.0,0,0
1765394036.411813,1765394036.378889,-11.23046875,-73.2421875,-9.27734375,254.39453125,0.0,0,0
1765394036.41183,1765394036.3827817,-211.42578125,-7.32421875,5.37109375,-470.21484375,0.0,0,0
1765394036.4118469,1765394036.3866744,60.546875,-6.34765625,-18.5546875,-917.48046875,0.0,0,0
1765394036.411864,1765394036.390567,23.4375,-21.484375,-42.48046875,-128.41796875,0.0,0,0
1765394036.47299,1765394036.3946857,79.58984375,-5.37109375,-33.203125,-317.87109375,0.0,0,0
1765394036.473033,1765394036.3985786,41.9921875,-1.953125,-0.48828125,322.265625,0.0,0,0
1765394036.473048,1765394036.4024713,-204.1015625,-23.4375,14.16015625,-519.04296875,0.0,0,0
1765394036.4730601,1765394036.406364,35.64453125,-11.71875,-18.5546875,943.359375,0.0,0,0
1765394036.473089,1765394036.4102566,26.85546875,-27.34375,-53.22265625,-54.6875,0.0,0,0
1765394036.473115,1765394036.4141493,62.01171875,-9.27734375,-32.2265625,-294.43359375,0.0,0,0
1765394036.473129,1765394036.4180422,41.015625,-50.29296875,2.44140625,290.52734375,0.0,0,0
1765394036.473141,1765394036.4219348,-213.37890625,-103.02734375,-8.7890625,-718.26171875,0.0,0,0
1765394036.473154,1765394036.4258275,21.484375,-22.4609375,-21.97265625,846.6796875,0.0,0,0
1765394036.473165,1765394036.4297202,41.50390625,-13.18359375,-45.41015625,133.30078125,0.0,0,0
1765394036.4731772,1765394036.433613,18.5546875,-18.5546875,-47.36328125,-605.46875,0.0,0,0
1765394036.4732008,1765394036.4375057,84.9609375,-7.32421875,-17.578125,508.7890625,0.0,0,0
1765394036.51614,1765394036.4415119,-192.3828125,-26.85546875,-5.37109375,-555.6640625,0.0,0,0
1765394036.516192,1765394036.4454048,-46.38671875,-11.71875,-5.37109375,473.14453125,0.0,0,0
1765394036.5162141,1765394036.4492974,61.5234375,-8.7890625,-47.36328125,395.01953125,0.0,0,0
1765394036.5162308,1765394036.45319,-23.4375,-25.87890625,-63.96484375,-899.4140625,0.0,0,0
1765394036.516248,1765394036.457083,100.09765625,-9.27734375,-17.578125,579.58984375,0.0,0,0
1765394036.516265,1765394036.4609756,-155.2734375,-19.04296875,5.859375,-197.75390625,0.0,0,0
1765394036.5162811,1765394036.4648683,-125.48828125,-26.3671875,-17.578125,-0.9765625,0.0,0,0
1765394036.516299,1765394036.4687612,54.6875,-29.296875,-62.98828125,533.69140625,0.0,0,0
1765394036.5163379,1765394036.4726539,-42.48046875,-32.71484375,-64.94140625,-964.84375,0.0,0,0
1765394036.5163689,1765394036.4765465,102.5390625,-18.5546875,-28.80859375,331.0546875,0.0,0,0
1765394036.516387,1765394036.4804394,-125.0,-54.6875,-8.30078125,-94.7265625,0.0,0,0
1765394036.516403,1765394036.484332,-136.71875,-36.1328125,1.46484375,-103.515625,0.0,0,0
1765394036.5594492,1765394036.4883308,101.5625,-9.27734375,-43.45703125,718.26171875,0.0,0,0
1765394036.559492,1765394036.4922235,-3.41796875,-33.69140625,-65.4296875,-862.79296875,0.0,0,0
1765394036.559509,1765394036.4961164,96.19140625,-15.13671875,-32.2265625,229.98046875,0.0,0,0
1765394036.559526,1765394036.500009,-130.37109375,-21.97265625,-12.6953125,-13.671875,0.0,0,0
1765394036.559542,1765394036.503902,-178.7109375,-9.765625,3.41796875,-229.00390625,0.0,0,0
1765394036.5595589,1765394036.5077946,92.7734375,-41.015625,-27.34375,961.9140625,0.0,0,0
1765394036.559577,1765394036.5116875,-17.578125,-85.9375,-48.828125,-684.5703125,0.0,0,0
1765394036.559594,1765394036.5155802,93.26171875,-16.11328125,-31.25,34.1796875,0.0,0,0
1765394036.5596101,1765394036.5194728,-72.75390625,-14.6484375,-16.11328125,86.9140625,0.0,0,0
1765394036.559626,1765394036.5233657,-194.3359375,-43.9453125,-10.25390625,-342.7734375,0.0,0,0
1765394036.559642,1765394036.5272584,86.9140625,-27.34375,-41.015625,-942.87109375,0.0,0,0
1765394036.559658,1765394036.5311513,-8.30078125,-18.06640625,-61.5234375,-510.7421875,0.0,0,0
1765394036.605886,1765394036.5352185,84.9609375,-3.90625,-41.015625,-80.078125,0.0,0,0
1765394036.605921,1765394036.5391114,-36.62109375,-13.18359375,-9.765625,155.2734375,0.0,0,0
1765394036.605941,1765394036.543004,-192.87109375,-24.4140625,5.37109375,-374.0234375,0.0,0,0
1765394036.6059608,1765394036.546897,72.265625,-8.30078125,-34.1796875,-916.9921875,0.0,0,0
1765394036.60598,1765394036.5507896,-8.7890625,-32.2265625,-65.4296875,-364.2578125,0.0,0,0
1765394036.605999,1765394036.5546825,82.51953125,-23.92578125,-37.59765625,-68.359375,0.0,0,0
1765394036.606018,1765394036.5585754,-19.04296875,-22.4609375,-17.08984375,156.25,0.0,0,0
1765394036.606037,1765394036.562468,-222.16796875,-23.4375,-11.71875,-481.4453125,0.0,0,0
1765394036.606057,1765394036.566361,46.875,-20.5078125,-29.296875,-875.0,0.0,0,0
1765394036.6060748,1765394036.5702536,2.44140625,-91.796875,-61.03515625,-146.484375,0.0,0,0
1765394036.606107,1765394036.5741465,46.875,-47.36328125,-46.38671875,-354.98046875,0.0,0,0
1765394036.606126,1765394036.5780392,35.15625,-4.8828125,-12.6953125,389.6484375,0.0,0,0
1765394036.6508858,1765394036.5820937,-219.7265625,-35.15625,-8.30078125,-581.0546875,0.0,0,0
1765394036.650978,1765394036.5859864,-0.9765625,-17.08984375,-16.11328125,806.640625,0.0,0,0
1765394036.6510122,1765394036.5898793,31.73828125,-19.04296875,-53.7109375,89.84375,0.0,0,0
1765394036.651042,1765394036.5937722,18.06640625,-13.18359375,-54.6875,-562.5,0.0,0,0
1765394036.651072,1765394036.5976648,56.15234375,-10.7421875,-13.671875,470.703125,0.0,0,0
1765394036.6511009,1765394036.6015577,-199.21875,-25.390625,6.34765625,-526.85546875,0.0,0,0
1765394036.6511328,1765394036.6054506,-29.296875,-5.37109375,-1.46484375,609.375,0.0,0,0
1765394036.6511621,1765394036.6093433,32.71484375,-2.44140625,-51.26953125,302.24609375,0.0,0,0
1765394036.6511931,1765394036.6132362,-33.203125,-71.2890625,-70.3125,-898.92578125,0.0,0,0
1765394036.651221,1765394036.617129,65.4296875,-86.42578125,-24.90234375,256.8359375,0.0,0,0
1765394036.651249,1765394036.6210217,-170.8984375,-24.4140625,5.859375,-377.44140625,0.0,0,0
1765394036.6512861,1765394036.6249146,-70.80078125,-7.8125,0.0,317.87109375,0.0,0,0
1765394036.695859,1765394036.6289585,54.6875,-16.11328125,-48.33984375,415.52734375,0.0,0,0
1765394036.6960142,1765394036.6328514,-11.71875,-21.97265625,-49.8046875,-763.671875,0.0,0,0
1765394036.696074,1765394036.6367443,93.26171875,-5.859375,-14.6484375,368.65234375,0.0,0,0
1765394036.696127,1765394036.640637,-174.31640625,-31.73828125,-13.18359375,-469.23828125,0.0,0,0
1765394036.696178,1765394036.6445298,-105.95703125,-24.90234375,-3.41796875,145.99609375,0.0,0,0
1765394036.6964428,1765394036.6484227,97.16796875,-9.765625,-29.78515625,854.00390625,0.0,0,0
1765394036.696485,1765394036.6523156,-44.921875,-19.53125,-54.6875,-910.15625,0.0,0,0
1765394036.6965241,1765394036.6562085,66.89453125,-9.27734375,-27.34375,118.1640625,0.0,0,0
1765394036.6965609,1765394036.6601014,-114.2578125,-62.98828125,-7.8125,68.359375,0.0,0,0
1765394036.696599,1765394036.663994,-181.640625,-52.24609375,11.71875,-243.65234375,0.0,0,0
1765394036.6966348,1765394036.667887,86.9140625,1.46484375,-13.671875,902.34375,0.0,0,0
1765394036.696683,1765394036.6717799,-25.390625,-27.83203125,-46.875,-719.7265625,0.0,0,0
1765394036.773171,1765394036.6760232,74.21875,-17.08984375,-18.5546875,43.9453125,0.0,0,0
1765394036.77329,1765394036.6799161,-92.28515625,-15.625,10.7421875,120.1171875,0.0,0,0
1765394036.7733319,1765394036.683809,-208.0078125,-19.04296875,17.578125,-352.05078125,0.0,0,0
1765394036.773372,1765394036.687702,81.54296875,-9.27734375,-30.76171875,-990.72265625,0.0,0,0
1765394036.77341,1765394036.6915948,4.39453125,-20.01953125,-46.38671875,-491.69921875,0.0,0,0
1765394036.7734458,1765394036.695488,86.9140625,0.48828125,-21.97265625,-4.8828125,0.0,0,0
1765394036.773484,1765394036.6993809,-73.73046875,-6.34765625,-8.30078125,62.01171875,0.0,0,0
1765394036.773521,1765394036.7032738,-200.68359375,-46.875,3.90625,-336.9140625,0.0,0,0
1765394036.773558,1765394036.7071667,71.77734375,-54.6875,-42.48046875,-990.72265625,0.0,0,0
1765394036.7735941,1765394036.7110596,-23.92578125,-34.66796875,-66.40625,-573.73046875,0.0,0,0
1765394036.773632,1765394036.7149525,78.125,-4.8828125,-29.296875,-43.45703125,0.0,0,0
1765394036.773667,1765394036.7188454,-39.55078125,-12.20703125,-2.9296875,172.36328125,0.0,0,0
1765394036.786047,1765394036.7228715,-230.95703125,-29.296875,-2.44140625,-473.6328125,0.0,0,0
1765394036.786127,1765394036.7267644,47.36328125,-4.39453125,-26.85546875,-889.16015625,0.0,0,0
1765394036.786164,1765394036.7306573,-20.01953125,-25.87890625,-60.05859375,-280.76171875,0.0,0,0
1765394036.786197,1765394036.7345505,48.828125,-23.92578125,-47.8515625,-214.84375,0.0,0,0
1765394036.786227,1765394036.7384434,-3.41796875,-20.5078125,-14.16015625,272.94921875,0.0,0,0
1765394036.786258,1765394036.7423363,-230.46875,-27.34375,15.625,-482.421875,0.0,0,0
1765394036.786288,1765394036.7462292,22.94921875,-13.18359375,-16.11328125,-958.49609375,0.0,0,0
1765394036.786317,1765394036.7501223,-2.9296875,-30.76171875,-59.5703125,-171.38671875,0.0,0,0
1765394036.786346,1765394036.7540152,53.7109375,-15.625,-36.62109375,-239.74609375,0.0,0,0
1765394036.7863748,1765394036.757908,27.83203125,-14.6484375,-16.11328125,295.41015625,0.0,0,0
1765394036.786405,1765394036.761801,-226.07421875,-30.76171875,0.0,-640.625,0.0,0,0
1765394036.786436,1765394036.765694,6.34765625,-7.8125,-11.23046875,983.3984375,0.0,0,0
1765394036.830703,1765394036.7697,9.27734375,-23.92578125,-56.640625,81.0546875,0.0,0,0
1765394036.8307729,1765394036.773593,10.25390625,-24.4140625,-51.26953125,-536.1328125,0.0,0,0
1765394036.8308082,1765394036.7774858,70.80078125,-27.34375,-15.625,504.39453125,0.0,0,0
1765394036.8308392,1765394036.7813787,-219.23828125,-61.5234375,-4.8828125,-643.5546875,0.0,0,0
1765394036.830869,1765394036.785272,-62.98828125,-35.15625,-12.20703125,493.1640625,0.0,0,0
1765394036.8308978,1765394036.7891648,54.6875,-8.30078125,-41.015625,403.3203125,0.0,0,0
1765394036.830931,1765394036.7930577,1.46484375,-68.359375,-41.9921875,-712.40234375,0.0,0,0
1765394036.830961,1765394036.7969508,63.96484375,-114.74609375,-27.34375,279.296875,0.0,0,0
1765394036.83099,1765394036.8008437,-201.66015625,-57.12890625,-15.13671875,-594.23828125,0.0,0,0
1765394036.831064,1765394036.8047366,-89.84375,-19.04296875,-6.34765625,312.98828125,0.0,0,0
1765394036.83114,1765394036.8086298,58.59375,-20.01953125,-34.1796875,533.203125,0.0,0,0
1765394036.831176,1765394036.8125226,-26.3671875,-25.390625,-38.57421875,-910.64453125,0.0,0,0
1765394036.8919501,1765394036.8165169,105.46875,-11.23046875,-21.484375,371.09375,0.0,0,0
1765394036.892031,1765394036.8204098,-151.85546875,-29.296875,-6.34765625,-273.4375,0.0,0,0
1765394036.892064,1765394036.824303,-149.90234375,-28.80859375,2.44140625,-118.65234375,0.0,0,0
1765394036.892121,1765394036.8281958,86.42578125,-14.16015625,-36.62109375,797.36328125,0.0,0,0
1765394036.8921652,1765394036.8320887,-39.55078125,-30.2734375,-59.08203125,-909.66796875,0.0,0,0
1765394036.8921962,1765394036.8359818,95.703125,-3.41796875,-11.23046875,121.58203125,0.0,0,0
1765394036.8922281,1765394036.8398747,-89.35546875,-61.03515625,6.8359375,41.9921875,0.0,0,0
1765394036.892257,1765394036.843768,-183.10546875,-69.82421875,-3.41796875,-255.859375,0.0,0,0
1765394036.892286,1765394036.8476608,89.84375,-7.32421875,-37.109375,882.8125,0.0,0,0
1765394036.892315,1765394036.8515537,0.48828125,-26.85546875,-52.24609375,-687.01171875,0.0,0,0
1765394036.8923469,1765394036.8554468,104.00390625,-18.5546875,-34.66796875,87.40234375,0.0,0,0
1765394036.892376,1765394036.8593397,-80.078125,-25.390625,-13.18359375,52.734375,0.0,0,0
1765394036.936,1765394036.863427,-214.35546875,-32.2265625,0.48828125,-414.0625,0.0,0,0
1765394036.936036,1765394036.8673198,95.21484375,-9.27734375,-19.04296875,-828.61328125,0.0,0,0
1765394036.936051,1765394036.871213,20.5078125,-15.625,-46.38671875,-276.3671875,0.0,0,0
1765394036.936065,1765394036.875106,75.68359375,-15.625,-50.78125,-190.91796875,0.0,0,0
1765394036.936079,1765394036.878999,-34.66796875,-20.99609375,-15.13671875,175.29296875,0.0,0,0
1765394036.936094,1765394036.8828921,-188.4765625,-28.80859375,13.671875,-342.7734375,0.0,0,0
1765394036.936108,1765394036.886785,82.03125,-14.6484375,-23.92578125,-934.08203125,0.0,0,0
1765394036.936146,1765394036.8906782,1.953125,-31.73828125,-73.73046875,-368.1640625,0.0,0,0
1765394036.936162,1765394036.894571,74.70703125,-27.34375,-62.98828125,-233.3984375,0.0,0,0
1765394036.9362261,1765394036.8984642,8.7890625,-24.4140625,-19.53125,303.7109375,0.0,0,0
1765394036.936254,1765394036.902357,-219.7265625,-30.2734375,2.44140625,-604.98046875,0.0,0,0
1765394036.9362712,1765394036.9062502,42.96875,-3.90625,-14.6484375,976.07421875,0.0,0,0
1765394036.979638,1765394036.9103177,20.99609375,-20.5078125,-49.31640625,-58.59375,0.0,0,0
1765394036.979668,1765394036.9142108,68.84765625,-19.04296875,-46.38671875,-308.59375,0.0,0,0
1765394036.979678,1765394036.918104,52.24609375,-12.6953125,-15.625,339.84375,0.0,0,0
1765394036.979687,1765394036.921997,-225.09765625,-35.15625,-4.39453125,-709.47265625,0.0,0,0
1765394036.979695,1765394036.92589,10.25390625,-16.11328125,-5.37109375,830.56640625,0.0,0,0
1765394036.9797041,1765394036.929783,59.5703125,-17.08984375,-35.64453125,242.67578125,0.0,0,0
1765394036.979712,1765394036.9336762,4.39453125,-28.80859375,-56.640625,-749.0234375,0.0,0,0
1765394036.979721,1765394036.9375691,41.015625,-25.87890625,-28.3203125,130.37109375,0.0,0,0
1765394036.979734,1765394036.9414623,-199.70703125,-41.015625,-2.9296875,-632.8125,0.0,0,0
1765394036.979743,1765394036.9453554,-58.59375,-57.12890625,-9.27734375,436.03515625,0.0,0,0
1765394036.9797518,1765394036.9492486,63.96484375,-43.9453125,-41.50390625,398.4375,0.0,0,0
1765394036.9797602,1765394036.9531415,-7.32421875,-25.390625,-56.640625,-854.98046875,0.0,0,0
1765394037.0272589,1765394036.9571972,73.2421875,-17.578125,-22.4609375,356.4453125,0.0,0,0
1765394037.0272908,1765394036.9610903,-177.24609375,-33.69140625,8.30078125,-375.48828125,0.0,0,0
1765394037.0273018,1765394036.9649835,-110.83984375,-28.80859375,-2.44140625,168.45703125,0.0,0,0
1765394037.027312,1765394036.9688766,43.45703125,-28.3203125,-49.31640625,425.29296875,0.0,0,0
1765394037.027321,1765394036.9727697,-9.765625,-34.66796875,-53.22265625,-712.890625,0.0,0,0
1765394037.0273302,1765394036.9766629,110.3515625,-17.08984375,-14.16015625,515.625,0.0,0,0
1765394037.027339,1765394036.980556,-178.7109375,-34.66796875,-7.32421875,-507.8125,0.0,0,0
1765394037.027348,1765394036.984449,-139.16015625,-21.97265625,-1.953125,-0.9765625,0.0,0,0
1765394037.0273569,1765394036.988342,48.828125,-47.36328125,-51.26953125,547.8515625,0.0,0,0
1765394037.0274198,1765394036.9922352,-39.55078125,-75.1953125,-71.77734375,-879.39453125,0.0,0,0
1765394037.027431,1765394036.9961283,122.55859375,-20.99609375,-26.85546875,441.89453125,0.0,0,0
1765394037.02744,1765394037.0000215,-134.765625,-30.2734375,-2.9296875,-214.35546875,0.0,0,0
1765394037.070091,1765394037.0040574,-183.59375,-39.0625,-0.9765625,-219.7265625,0.0,0,0
1765394037.070126,1765394037.0079505,73.2421875,-21.97265625,-44.921875,856.4453125,0.0,0,0
1765394037.07014,1765394037.0118437,-12.6953125,-30.76171875,-59.08203125,-703.125,0.0,0,0
1765394037.070152,1765394037.0157368,100.5859375,-22.4609375,-30.76171875,156.73828125,0.0,0,0
1765394037.070163,1765394037.01963,-113.28125,-33.203125,-10.25390625,-93.75,0.0,0,0
1765394037.070174,1765394037.023523,-186.5234375,-23.4375,17.578125,-189.453125,0.0,0,0
1765394037.070186,1765394037.027416,45.8984375,-10.25390625,-29.296875,744.140625,0.0,0,0
1765394037.070197,1765394037.0313091,-23.92578125,-29.78515625,-58.10546875,-784.1796875,0.0,0,0
1765394037.070208,1765394037.0352023,138.671875,-30.2734375,-27.83203125,222.16796875,0.0,0,0
1765394037.0702531,1765394037.0390954,-75.68359375,-37.109375,-9.765625,-88.37890625,0.0,0,0
1765394037.070282,1765394037.0429885,-216.30859375,-19.04296875,20.01953125,-378.90625,0.0,0,0
1765394037.070296,1765394037.0468817,62.5,-7.8125,-18.06640625,-996.58203125,0.0,0,0
1765394037.115715,1765394037.0509145,-12.20703125,-34.66796875,-61.03515625,-542.96875,0.0,0,0
1765394037.115753,1765394037.0548077,120.60546875,-15.625,-23.4375,29.78515625,0.0,0,0
1765394037.1157691,1765394037.0587008,-15.13671875,-18.5546875,-5.859375,131.34765625,0.0,0,0
1765394037.115784,1765394037.062594,-241.69921875,-33.69140625,-3.90625,-598.14453125,0.0,0,0
1765394037.115798,1765394037.066487,51.7578125,-9.765625,-20.5078125,-923.828125,0.0,0,0
1765394037.115813,1765394037.0703802,29.78515625,-25.87890625,-36.1328125,-194.3359375,0.0,0,0
1765394037.115828,1765394037.0742733,93.26171875,2.9296875,-30.76171875,-230.46875,0.0,0,0
1765394037.115842,1765394037.0781665,14.16015625,-96.6796875,-30.76171875,282.2265625,0.0,0,0
1765394037.115856,1765394037.0820596,-276.3671875,-180.6640625,-15.625,-856.4453125,0.0,0,0
1765394037.11587,1765394037.0859528,-20.01953125,-35.15625,-20.5078125,772.94921875,0.0,0,0
1765394037.115885,1765394037.0898461,33.69140625,-20.01953125,-47.36328125,134.27734375,0.0,0,0
1765394037.1158988,1765394037.0937393,73.73046875,-25.390625,-35.15625,-292.96875,0.0,0,0
1765394037.162557,1765394037.0977552,66.89453125,-17.08984375,-9.765625,363.76953125,0.0,0,0
1765394037.1626072,1765394037.1016486,-259.27734375,-28.3203125,2.9296875,-847.65625,0.0,0,0
1765394037.162627,1765394037.1055417,-59.5703125,-5.37109375,0.48828125,641.6015625,0.0,0,0
1765394037.162645,1765394037.1094348,42.48046875,-20.5078125,-42.48046875,259.765625,0.0,0,0
1765394037.1626618,1765394037.113328,47.36328125,-29.78515625,-53.22265625,-497.0703125,0.0,0,0
1765394037.162679,1765394037.117221,111.81640625,-6.34765625,-15.625,647.94921875,0.0,0,0
1765394037.162699,1765394037.1211143,-240.72265625,-22.94921875,-15.13671875,-736.328125,0.0,0,0
1765394037.162715,1765394037.1250076,-155.2734375,-93.75,-23.92578125,-57.12890625,0.0,0,0
1765394037.1627321,1765394037.1289008,98.14453125,-72.75390625,-36.62109375,867.1875,0.0,0,0
1765394037.1627479,1765394037.132794,47.8515625,-8.7890625,-45.8984375,-518.5546875,0.0,0,0
1765394037.162764,1765394037.136687,117.67578125,-3.41796875,-19.53125,323.73046875,0.0,0,0
1765394037.162781,1765394037.1405802,-164.0625,-20.99609375,-12.20703125,-170.41015625,0.0,0,0
1765394037.2052312,1765394037.144584,-195.80078125,-17.578125,-22.94921875,-279.296875,0.0,0,0
1765394037.205287,1765394037.148477,95.21484375,2.9296875,-42.96875,961.42578125,0.0,0,0
1765394037.2053068,1765394037.1523702,56.640625,-12.20703125,-50.29296875,-272.4609375,0.0,0,0
1765394037.205324,1765394037.1562636,114.2578125,-16.6015625,-38.57421875,193.359375,0.0,0,0
1765394037.2053409,1765394037.1601567,-162.109375,-35.64453125,-22.4609375,-212.40234375,0.0,0,0
1765394037.205358,1765394037.1640499,-225.09765625,-17.578125,-3.41796875,-308.59375,0.0,0,0
1765394037.205376,1765394037.167943,93.75,-50.29296875,-27.83203125,-885.25390625,0.0,0,0
1765394037.2053928,1765394037.1718364,38.57421875,-112.3046875,-61.5234375,-390.13671875,0.0,0,0
1765394037.205409,1765394037.1757295,112.3046875,-43.9453125,-52.24609375,-108.88671875,0.0,0,0
1765394037.2054248,1765394037.1796227,-97.65625,-36.62109375,-15.625,98.6328125,0.0,0,0
1765394037.205442,1765394037.1835158,-281.73828125,-40.52734375,-8.7890625,-476.5625,0.0,0,0
1765394037.205458,1765394037.1874092,38.57421875,-7.8125,-36.62109375,-949.21875,0.0,0,0
1765394037.26635,1765394037.1914024,82.51953125,-16.11328125,-39.55078125,348.14453125,0.0,0,0
1765394037.266431,1765394037.1952958,102.05078125,-13.671875,-25.390625,-115.234375,0.0,0,0
1765394037.266461,1765394037.199189,-125.0,-28.80859375,-18.5546875,-413.0859375,0.0,0,0
1765394037.266485,1765394037.203082,-275.390625,-34.1796875,-10.25390625,-448.2421875,0.0,0,0
1765394037.266509,1765394037.2069755,17.08984375,-9.765625,-22.94921875,909.1796875,0.0,0,0
1765394037.2665322,1765394037.2108686,142.578125,-1.46484375,-32.71484375,832.51953125,0.0,0,0
1765394037.2665548,1765394037.2147617,115.72265625,-80.56640625,-29.78515625,-5.859375,0.0,0,0
1765394037.266578,1765394037.218655,-154.296875,-93.26171875,-19.04296875,-1000.0,0.0,0,0
1765394037.266602,1765394037.2225482,-237.3046875,-12.20703125,-7.32421875,-441.40625,0.0,0,0
1765394037.266624,1765394037.2264414,2.9296875,-10.25390625,-20.99609375,957.51953125,0.0,0,0
1765394037.266647,1765394037.2303348,109.86328125,-16.6015625,-21.97265625,690.91796875,0.0,0,0
1765394037.26667,1765394037.234228,170.8984375,-5.859375,-21.484375,402.34375,0.0,0,0
1765394037.3108742,1765394037.2382221,-72.265625,-16.6015625,-21.484375,-560.546875,0.0,0,0
1765394037.310934,1765394037.2421153,-277.83203125,-26.85546875,-6.8359375,-769.04296875,0.0,0,0
1765394037.3109639,1765394037.2460086,-47.36328125,-15.13671875,-10.25390625,716.30859375,0.0,0,0
1765394037.311021,1765394037.2499018,108.3984375,-12.20703125,-29.296875,787.109375,0.0,0,0
1765394037.3110452,1765394037.2537951,186.03515625,-2.9296875,-24.4140625,531.25,0.0,0,0
1765394037.3110678,1765394037.2576883,-34.1796875,-48.828125,-11.23046875,-427.734375,0.0,0,0
1765394037.311091,1765394037.2615814,-288.57421875,-75.1953125,-4.8828125,-914.55078125,0.0,0,0
1765394037.311115,1765394037.2654748,-100.5859375,-17.08984375,-21.97265625,545.41015625,0.0,0,0
1765394037.3111382,1765394037.269368,82.03125,-7.8125,-42.48046875,840.8203125,0.0,0,0
1765394037.3111649,1765394037.2732613,187.98828125,-31.25,-35.15625,750.48828125,0.0,0,0
1765394037.311188,1765394037.2771544,9.765625,-42.96875,-18.5546875,-92.7734375,0.0,0,0
1765394037.311211,1765394037.2810478,-310.05859375,-26.85546875,-16.11328125,-1000.0,0.0,0,0
1765394037.3717592,1765394037.285226,-149.90234375,-12.20703125,-21.484375,55.17578125,0.0,0,0
1765394037.3718479,1765394037.2891195,126.46484375,-4.39453125,-26.85546875,-903.3203125,0.0,0,0
1765394037.371886,1765394037.2930129,200.1953125,-11.23046875,-24.90234375,836.9140625,0.0,0,0
1765394037.371918,1765394037.296906,30.2734375,-22.4609375,-24.4140625,-348.6328125,0.0,0,0
1765394037.371949,1765394037.3007994,-282.2265625,-31.73828125,-18.06640625,-1000.0,0.0,0,0
1765394037.371979,1765394037.3046927,-174.31640625,-33.69140625,-3.90625,83.49609375,0.0,0,0
1765394037.372009,1765394037.308586,72.265625,-23.4375,-34.1796875,808.59375,0.0,0,0
1765394037.3720388,1765394037.3124793,190.4296875,-2.9296875,-33.69140625,802.734375,0.0,0,0
1765394037.3720691,1765394037.3163726,100.5859375,-24.4140625,-22.4609375,211.9140625,0.0,0,0
1765394037.3720992,1765394037.3202658,-298.828125,-100.09765625,-19.53125,-1000.0,0.0,0,0
1765394037.372129,1765394037.3241591,-240.72265625,-52.734375,-8.30078125,-193.84765625,0.0,0,0
1765394037.372159,1765394037.3280525,73.73046875,8.30078125,-21.97265625,-990.234375,0.0,0,0
1765394037.401698,1765394037.3321059,203.125,-2.44140625,-25.390625,-934.5703125,0.0,0,0
1765394037.40189,1765394037.3359993,114.74609375,-15.13671875,-15.625,167.48046875,0.0,0,0
1765394037.401927,1765394037.3398924,-275.87890625,-28.3203125,-27.83203125,-1000.0,0.0,0,0
1765394037.401959,1765394037.3437858,-258.30078125,-13.18359375,-26.3671875,-269.53125,0.0,0,0
1765394037.40199,1765394037.3476791,58.10546875,7.8125,-22.4609375,965.8203125,0.0,0,0
1765394037.402019,1765394037.3515725,203.125,8.30078125,-28.3203125,-916.015625,0.0,0,0
1765394037.402049,1765394037.355466,170.41015625,-4.39453125,-26.85546875,312.01171875,0.0,0,0
1765394037.402078,1765394037.359359,-220.21484375,-29.78515625,-36.1328125,-1000.0,0.0,0,0
1765394037.4021068,1765394037.3632524,-306.15234375,-26.85546875,-29.296875,-467.28515625,0.0,0,0
1765394037.402136,1765394037.3671458,0.0,-5.859375,-21.484375,861.328125,0.0,0,0
1765394037.402165,1765394037.3710392,187.5,-9.27734375,-28.80859375,-898.4375,0.0,0,0
1765394037.4021928,1765394037.3749325,190.91796875,12.6953125,-25.390625,431.640625,0.0,0,0
1765394037.4486132,1765394037.3789766,-185.05859375,-154.78515625,-35.64453125,-1000.0,0.0,0,0
1765394037.448745,1765394037.3828697,-332.51953125,-200.1953125,-23.92578125,-637.20703125,0.0,0,0
1765394037.4488041,1765394037.386763,-41.9921875,-2.9296875,-10.7421875,764.16015625,0.0,0,0
1765394037.44886,1765394037.3906565,167.96875,8.7890625,-27.34375,-948.2421875,0.0,0,0
1765394037.448898,1765394037.3945498,238.76953125,-1.953125,-17.578125,772.94921875,0.0,0,0
1765394037.4489338,1765394037.3984432,-87.40234375,-13.671875,-20.5078125,-505.37109375,0.0,0,0
1765394037.4489741,1765394037.4023366,-369.62890625,-25.87890625,-43.9453125,-1000.0,0.0,0,0
1765394037.44901,1765394037.40623,-127.9296875,-21.484375,-38.57421875,270.01953125,0.0,0,0
1765394037.449047,1765394037.4101233,164.55078125,-50.78125,-26.85546875,-902.83203125,0.0,0,0
1765394037.449086,1765394037.4140167,264.16015625,-34.66796875,-19.04296875,806.15234375,0.0,0,0
1765394037.449122,1765394037.41791,-31.25,-19.53125,-31.73828125,-451.66015625,0.0,0,0
1765394037.4491599,1765394037.4218035,-369.140625,-39.55078125,-36.62109375,-1000.0,0.0,0,0
1765394037.49196,1765394037.4258342,-163.57421875,-14.6484375,-12.6953125,219.7265625,0.0,0,0
1765394037.4920971,1765394037.4297276,160.64453125,4.8828125,-10.7421875,-861.328125,0.0,0,0
1765394037.492157,1765394037.433621,234.86328125,-8.30078125,-31.73828125,660.64453125,0.0,0,0
1765394037.492288,1765394037.4375143,-30.76171875,-37.59765625,-39.55078125,-594.7265625,0.0,0,0
1765394037.492349,1765394037.4414077,-357.91015625,-43.9453125,-33.203125,-1000.0,0.0,0,0
1765394037.4923892,1765394037.445301,-211.42578125,-12.20703125,-15.13671875,13.671875,0.0,0,0
1765394037.492427,1765394037.4491944,120.60546875,14.6484375,-13.671875,-964.35546875,0.0,0,0
1765394037.4924648,1765394037.4530878,271.484375,-18.5546875,-24.4140625,988.28125,0.0,0,0
1765394037.492502,1765394037.4569812,67.3828125,-61.5234375,-40.52734375,-46.38671875,0.0,0,0
1765394037.4925382,1765394037.4608746,-354.00390625,-47.36328125,-35.64453125,-1000.0,0.0,0,0
1765394037.492575,1765394037.464768,-272.4609375,-22.4609375,-19.53125,-146.484375,0.0,0,0
1765394037.4926112,1765394037.4686613,80.078125,-4.39453125,-17.08984375,-983.88671875,0.0,0,0
1765394037.5357141,1765394037.472678,256.8359375,0.0,-20.01953125,-964.84375,0.0,0,0
1765394037.535788,1765394037.4765713,107.91015625,-8.7890625,-28.3203125,82.51953125,0.0,0,0
1765394037.53582,1765394037.4804647,-346.6796875,-25.87890625,-29.78515625,-1000.0,0.0,0,0
1765394037.53585,1765394037.484358,-341.30859375,-20.01953125,-20.5078125,-279.78515625,0.0,0,0
1765394037.535882,1765394037.4882514,31.25,-4.8828125,-19.04296875,951.66015625,0.0,0,0
1765394037.5359108,1765394037.492145,252.44140625,8.30078125,-6.8359375,-911.1328125,0.0,0,0
1765394037.5359418,1765394037.4960384,174.31640625,-4.39453125,-23.4375,307.6171875,0.0,0,0
1765394037.5359712,1765394037.4999318,-325.68359375,-67.87109375,-56.640625,-1000.0,0.0,0,0
1765394037.536,1765394037.5038252,-413.0859375,-54.6875,-37.109375,-527.34375,0.0,0,0
1765394037.5360289,1765394037.5077186,-9.765625,-5.859375,-15.625,814.453125,0.0,0,0
1765394037.536057,1765394037.511612,264.6484375,-0.48828125,0.0,-875.48828125,0.0,0,0
1765394037.536095,1765394037.5155053,220.703125,-20.01953125,-10.7421875,280.2734375,0.0,0,0
1765394037.5819461,1765394037.51951,-276.3671875,-48.828125,-48.33984375,-1000.0,0.0,0,0
1765394037.58208,1765394037.5234034,-442.3828125,-41.50390625,-29.78515625,-666.015625,0.0,0,0
1765394037.582138,1765394037.5272968,-69.3359375,-26.85546875,-5.859375,671.875,0.0,0,0
1765394037.582191,1765394037.5311902,226.07421875,-20.01953125,-15.625,-884.27734375,0.0,0,0
1765394037.582245,1765394037.5350835,259.765625,-28.3203125,-31.25,554.6875,0.0,0,0
1765394037.582297,1765394037.5389771,-199.70703125,-31.73828125,-40.0390625,-803.7109375,0.0,0,0
1765394037.5823529,1765394037.5428705,-477.05078125,-69.82421875,-30.76171875,-985.3515625,0.0,0,0
1765394037.582409,1765394037.546764,-133.30078125,-87.890625,-21.97265625,353.02734375,0.0,0,0
1765394037.582459,1765394037.5506573,231.93359375,-14.6484375,-18.06640625,-944.3359375,0.0,0,0
1765394037.582517,1765394037.5545506,361.328125,6.8359375,-4.39453125,909.1796875,0.0,0,0
1765394037.582575,1765394037.5584443,-57.6171875,-18.06640625,-23.92578125,-215.33203125,0.0,0,0
1765394037.582624,1765394037.5623376,-475.5859375,-37.109375,-34.1796875,-1000.0,0.0,0,0
1765394037.669865,1765394037.5663314,-196.77734375,-21.97265625,-12.6953125,57.6171875,0.0,0,0
1765394037.6699982,1765394037.570225,221.6796875,-3.41796875,0.9765625,-929.19921875,0.0,0,0
1765394037.6700559,1765394037.5741184,385.25390625,-8.30078125,-6.34765625,911.62109375,0.0,0,0
1765394037.670109,1765394037.5780118,-0.48828125,-30.76171875,-41.50390625,-208.0078125,0.0,0,0
1765394037.670161,1765394037.5819054,-461.9140625,-39.0625,-48.828125,-1000.0,0.0,0,0
1765394037.670212,1765394037.5857987,-239.74609375,-5.37109375,-2.44140625,-41.50390625,0.0,0,0
1765394037.6703308,1765394037.589692,203.61328125,-41.50390625,3.90625,-966.796875,0.0,0,0
1765394037.670392,1765394037.5935855,408.203125,-51.7578125,-15.13671875,-985.3515625,0.0,0,0
1765394037.670488,1765394037.597479,67.87109375,-27.34375,-50.29296875,23.4375,0.0,0,0
1765394037.670539,1765394037.6013725,-461.42578125,-54.19921875,-57.6171875,-1000.0,0.0,0,0
1765394037.67059,1765394037.6052659,-310.546875,-30.76171875,-10.25390625,-161.62109375,0.0,0,0
1765394037.6706402,1765394037.6091595,182.12890625,0.48828125,6.34765625,994.140625,0.0,0,0
1765394037.685338,1765394037.613149,442.3828125,10.25390625,0.0,-925.78125,0.0,0,0
1765394037.685441,1765394037.6170425,166.015625,-12.6953125,-31.25,254.39453125,0.0,0,0
1765394037.685498,1765394037.620936,-431.640625,-41.50390625,-48.828125,-1000.0,0.0,0,0
1765394037.685549,1765394037.6248293,-390.625,-25.390625,-16.6015625,-326.171875,0.0,0,0
1765394037.6856,1765394037.628723,132.32421875,22.94921875,18.06640625,953.125,0.0,0,0
1765394037.6856499,1765394037.6326163,449.21875,-30.76171875,13.671875,-912.109375,0.0,0,0
1765394037.6857028,1765394037.6365097,239.74609375,-102.05078125,-37.59765625,276.3671875,0.0,0,0
1765394037.685754,1765394037.6404033,-406.73828125,-55.6640625,-65.4296875,-1000.0,0.0,0,0
1765394037.6858041,1765394037.6442966,-494.140625,-35.64453125,-37.59765625,-546.875,0.0,0,0
1765394037.685853,1765394037.64819,21.97265625,-15.13671875,-0.48828125,779.78515625,0.0,0,0
1765394037.6859431,1765394037.6520836,398.4375,-1.953125,3.90625,-888.671875,0.0,0,0
1765394037.686007,1765394037.655977,306.640625,-12.20703125,-29.78515625,486.81640625,0.0,0,0
1765394037.7337239,1765394037.6600459,-362.79296875,-48.33984375,-72.265625,-966.30859375,0.0,0,0
1765394037.733841,1765394037.6639395,-570.80078125,-42.96875,-54.19921875,-733.3984375,0.0,0,0
1765394037.733883,1765394037.6678329,-38.0859375,-3.41796875,-3.41796875,652.83203125,0.0,0,0
1765394037.733922,1765394037.6717265,380.37109375,10.7421875,4.39453125,-899.4140625,0.0,0,0
1765394037.733959,1765394037.6756198,378.90625,0.48828125,-25.87890625,638.18359375,0.0,0,0
1765394037.733996,1765394037.6795135,-272.94921875,-64.94140625,-61.03515625,-697.75390625,0.0,0,0
1765394037.7341871,1765394037.6834068,-620.60546875,-67.87109375,-54.19921875,-1000.0,0.0,0,0
1765394037.734228,1765394037.6873004,-133.7890625,-7.32421875,1.953125,244.62890625,0.0,0,0
1765394037.734265,1765394037.6911938,359.86328125,-2.44140625,19.53125,-911.1328125,0.0,0,0
1765394037.734303,1765394037.6950874,442.87109375,-35.64453125,-13.18359375,823.2421875,0.0,0,0
1765394037.734339,1765394037.6989808,-197.75390625,-49.31640625,-67.3828125,-416.9921875,0.0,0,0
1765394037.734375,1765394037.7028744,-653.80859375,-43.9453125,-63.4765625,-1000.0,0.0,0,0
1765394037.776494,1765394037.7069335,-226.07421875,-24.4140625,-6.8359375,13.18359375,0.0,0,0
1765394037.776584,1765394037.7108269,318.359375,-1.953125,24.4140625,-942.87109375,0.0,0,0
1765394037.776614,1765394037.7147205,494.140625,-1.953125,0.9765625,940.4296875,0.0,0,0
1765394037.7766469,1765394037.718614,-107.91015625,-30.2734375,-66.89453125,-244.62890625,0.0,0,0
1765394037.7766762,1765394037.7225075,-660.15625,-48.828125,-65.91796875,-1000.0,0.0,0,0
1765394037.7767072,1765394037.726401,-298.828125,-20.99609375,0.0,63.96484375,0.0,0,0
1765394037.776736,1765394037.7302947,283.203125,1.953125,23.4375,-975.5859375,0.0,0,0
1765394037.776764,1765394037.734188,514.16015625,2.9296875,-11.71875,999.51171875,0.0,0,0
1765394037.776793,1765394037.7380817,-23.92578125,-62.98828125,-82.03125,-15.13671875,0.0,0,0
1765394037.776821,1765394037.741975,-629.8828125,-107.91015625,-83.0078125,-1000.0,0.0,0,0
1765394037.7768488,1765394037.7458687,-364.74609375,-30.2734375,-13.671875,-189.94140625,0.0,0,0
1765394037.776879,1765394037.7497623,246.09375,2.44140625,18.06640625,985.83984375,0.0,0,0
1765394037.8203,1765394037.7538023,546.38671875,-9.27734375,-0.9765625,-923.828125,0.0,0,0
1765394037.820359,1765394037.757696,94.7265625,-28.80859375,-55.17578125,194.82421875,0.0,0,0
1765394037.820385,1765394037.7615895,-579.1015625,-41.50390625,-70.3125,-1000.0,0.0,0,0
1765394037.820408,1765394037.765483,-443.359375,-22.94921875,-22.94921875,-383.7890625,0.0,0,0
1765394037.820431,1765394037.7693765,207.03125,-4.8828125,15.625,904.296875,0.0,0,0
1765394037.820454,1765394037.7732701,599.609375,4.39453125,20.99609375,-891.6015625,0.0,0,0
1765394037.82048,1765394037.7771637,220.21484375,-18.06640625,-59.08203125,264.6484375,0.0,0,0
1765394037.820503,1765394037.7810571,-516.6015625,-53.7109375,-98.6328125,-1000.0,0.0,0,0
1765394037.8205261,1765394037.7849507,-526.3671875,-94.23828125,-45.41015625,-588.37890625,0.0,0,0
1765394037.820549,1765394037.7888443,125.9765625,-48.828125,10.25390625,729.00390625,0.0,0,0
1765394037.820572,1765394037.792738,577.63671875,12.6953125,13.18359375,-860.3515625,0.0,0,0
1765394037.820595,1765394037.7966313,300.29296875,-21.484375,-56.640625,363.76953125,0.0,0,0
1765394037.865868,1765394037.8006546,-471.19140625,-53.22265625,-98.14453125,-1000.0,0.0,0,0
1765394037.8659499,1765394037.8045483,-589.35546875,-28.80859375,-49.8046875,-602.05078125,0.0,0,0
1765394037.865977,1765394037.8084419,45.41015625,2.44140625,5.859375,742.67578125,0.0,0,0
1765394037.8660018,1765394037.8123355,515.625,-1.46484375,8.7890625,-879.39453125,0.0,0,0
1765394037.866026,1765394037.816229,372.55859375,-21.484375,-46.38671875,495.1171875,0.0,0,0
1765394037.866051,1765394037.8201225,-409.66796875,-49.31640625,-91.30859375,-948.73046875,0.0,0,0
1765394037.866076,1765394037.824016,-652.83203125,-22.4609375,-47.8515625,-829.1015625,0.0,0,0
1765394037.8660989,1765394037.8279097,-34.66796875,-38.57421875,5.859375,526.85546875,0.0,0,0
1765394037.866123,1765394037.8318033,478.515625,-74.21875,3.90625,-887.6953125,0.0,0,0
1765394037.866153,1765394037.835697,458.49609375,-22.94921875,-35.15625,677.24609375,0.0,0,0
1765394037.866177,1765394037.8395905,-318.84765625,-38.0859375,-91.30859375,-669.921875,0.0,0,0
1765394037.8662038,1765394037.843484,-712.890625,-40.0390625,-61.03515625,-1000.0,0.0,0,0
1765394037.910699,1765394037.847496,-120.1171875,-9.27734375,10.7421875,178.22265625,0.0,0,0
1765394037.910826,1765394037.8513896,460.44921875,4.39453125,20.01953125,-931.640625,0.0,0,0
1765394037.910872,1765394037.8552833,541.50390625,-1.46484375,-29.296875,909.1796875,0.0,0,0
1765394037.910912,1765394037.8591769,-217.7734375,-51.26953125,-103.02734375,-354.98046875,0.0,0,0
1765394037.910957,1765394037.8630702,-743.1640625,-63.4765625,-83.0078125,-1000.0,0.0,0,0
1765394037.910998,1765394037.8669639,-209.47265625,-3.90625,10.7421875,129.39453125,0.0,0,0
1765394037.9110348,1765394037.8708575,406.73828125,12.6953125,21.484375,-956.54296875,0.0,0,0
1765394037.911073,1765394037.874751,578.125,-84.47265625,-23.92578125,986.328125,0.0,0,0
1765394037.91111,1765394037.8786447,-121.09375,-104.00390625,-97.65625,-114.2578125,0.0,0,0
1765394037.911156,1765394037.8825383,-733.3984375,-42.96875,-90.8203125,-1000.0,0.0,0,0
1765394037.9111922,1765394037.886432,-310.05859375,-13.671875,3.41796875,-96.19140625,0.0,0,0
1765394037.911248,1765394037.8903255,358.88671875,9.765625,34.1796875,-997.0703125,0.0,0,0
1765394037.972544,1765394037.8944364,632.32421875,15.625,1.46484375,-933.59375,0.0,0,0
1765394037.9726698,1765394037.89833,6.34765625,-11.23046875,-72.265625,153.80859375,0.0,0,0
1765394037.972715,1765394037.9022236,-709.9609375,-41.9921875,-77.1484375,-1000.0,0.0,0,0
1765394037.972754,1765394037.9061174,-417.48046875,-17.578125,2.9296875,-264.6484375,0.0,0,0
1765394037.972791,1765394037.910011,305.6640625,12.6953125,43.45703125,968.26171875,0.0,0,0
1765394037.9728289,1765394037.9139047,654.296875,23.92578125,39.0625,-911.1328125,0.0,0,0
1765394037.972866,1765394037.9177983,98.14453125,-41.015625,-39.0625,213.8671875,0.0,0,0
1765394037.972903,1765394037.921692,-663.57421875,-107.91015625,-87.40234375,-1000.0,0.0,0,0
1765394037.97294,1765394037.9255855,-488.28125,-42.96875,-25.87890625,-397.4609375,0.0,0,0
1765394037.9729831,1765394037.9294791,229.4921875,1.46484375,36.1328125,900.87890625,0.0,0,0
1765394037.9730408,1765394037.9333727,632.32421875,2.44140625,37.59765625,-889.16015625,0.0,0,0
1765394037.973099,1765394037.9372666,175.78125,-23.92578125,-50.78125,225.5859375,0.0,0,0
1765394038.014519,1765394037.9412594,-604.4921875,-47.36328125,-78.61328125,-1000.0,0.0,0,0
1765394038.014675,1765394037.945153,-544.43359375,-25.87890625,-17.08984375,-429.19921875,0.0,0,0
1765394038.014736,1765394037.9490469,166.50390625,5.859375,34.66796875,871.09375,0.0,0,0
1765394038.0147898,1765394037.9529405,614.2578125,4.39453125,38.0859375,-885.25390625,0.0,0,0
1765394038.014842,1765394037.956834,265.13671875,-28.80859375,-55.6640625,309.08203125,0.0,0,0
1765394038.014905,1765394037.9607277,-536.1328125,-52.24609375,-89.84375,-1000.0,0.0,0,0
1765394038.014956,1765394037.9646213,-615.234375,-37.109375,-32.2265625,-757.32421875,0.0,0,0
1765394038.015007,1765394037.968515,74.21875,-12.6953125,16.6015625,539.0625,0.0,0,0
1765394038.0150568,1765394037.9724088,597.65625,4.39453125,27.83203125,-843.26171875,0.0,0,0
1765394038.015106,1765394037.9763024,384.27734375,-22.94921875,-36.1328125,459.9609375,0.0,0,0
1765394038.015157,1765394037.980196,-445.3125,-77.1484375,-78.125,-948.2421875,0.0,0,0
1765394038.01522,1765394037.9840896,-680.17578125,-53.22265625,-41.9921875,-930.17578125,0.0,0,0
1765394038.059626,1765394037.9880605,-13.18359375,-5.37109375,22.4609375,358.88671875,0.0,0,0
1765394038.059683,1765394037.9919543,564.94140625,0.48828125,43.9453125,-867.1875,0.0,0,0
1765394038.0597088,1765394037.995848,484.375,-17.08984375,-24.4140625,656.25,0.0,0,0
1765394038.059734,1765394037.9997416,-350.5859375,-51.26953125,-83.0078125,-713.8671875,0.0,0,0
1765394038.059757,1765394038.0036352,-743.65234375,-44.921875,-60.05859375,-1000.0,0.0,0,0
1765394038.0597801,1765394038.007529,-100.09765625,-40.52734375,25.87890625,149.4140625,0.0,0,0
1765394038.059804,1765394038.0114226,528.80859375,-42.48046875,51.7578125,-894.53125,0.0,0,0
1765394038.0598269,1765394038.0153162,545.41015625,-18.06640625,-23.92578125,762.6953125,0.0,0,0
1765394038.059853,1765394038.0192099,-268.06640625,-48.33984375,-98.14453125,-555.6640625,0.0,0,0
1765394038.059912,1765394038.0231037,-761.71875,-63.4765625,-73.2421875,-1000.0,0.0,0,0
1765394038.06005,1765394038.0269973,-181.640625,-26.85546875,9.765625,76.171875,0.0,0,0
1765394038.060081,1765394038.030891,451.171875,-1.46484375,28.3203125,-966.30859375,0.0,0,0
1765394038.105236,1765394038.0349474,606.93359375,-5.37109375,-8.30078125,-998.046875,0.0,0,0
1765394038.105296,1765394038.038841,-134.765625,-38.0859375,-85.9375,-103.515625,0.0,0,0
1765394038.105324,1765394038.0427349,-778.3203125,-59.08203125,-90.33203125,-1000.0,0.0,0,0
1765394038.105348,1765394038.0466285,-292.96875,-23.4375,0.9765625,-125.9765625,0.0,0,0
1765394038.105372,1765394038.0505223,432.6171875,5.37109375,39.55078125,-997.0703125,0.0,0,0
1765394038.105396,1765394038.054416,678.22265625,-7.8125,17.578125,-934.5703125,0.0,0,0
1765394038.105419,1765394038.0583096,-49.31640625,-44.43359375,-90.33203125,96.19140625,0.0,0,0
1765394038.105442,1765394038.0622034,-762.20703125,-52.734375,-99.12109375,-1000.0,0.0,0,0
1765394038.1054652,1765394038.066097,-379.8828125,-23.92578125,7.32421875,-202.63671875,0.0,0,0
1765394038.1054888,1765394038.0699909,354.98046875,-30.2734375,37.59765625,986.328125,0.0,0,0
1765394038.105512,1765394038.0738845,686.03515625,-9.27734375,15.625,-919.921875,0.0,0,0
1765394038.105535,1765394038.077778,55.17578125,-9.765625,-76.66015625,204.58984375,0.0,0,0
1765394038.1513789,1765394038.0818229,-733.3984375,-49.31640625,-103.515625,-1000.0,0.0,0,0
1765394038.151448,1765394038.0857167,-498.046875,-28.80859375,-20.5078125,-361.328125,0.0,0,0
1765394038.151476,1765394038.0896103,285.15625,15.13671875,40.0390625,926.26953125,0.0,0,0
1765394038.1515021,1765394038.0935042,705.078125,16.11328125,24.90234375,-897.4609375,0.0,0,0
1765394038.151527,1765394038.0973978,153.3203125,-22.94921875,-75.1953125,210.9375,0.0,0,0
1765394038.1515641,1765394038.1012917,-666.50390625,-49.8046875,-100.5859375,-1000.0,0.0,0,0
1765394038.1515899,1765394038.1051853,-572.75390625,-35.64453125,-31.73828125,-541.015625,0.0,0,0
1765394038.151639,1765394038.1090791,213.8671875,22.4609375,30.76171875,778.3203125,0.0,0,0
1765394038.151668,1765394038.1129727,709.47265625,-90.33203125,30.76171875,-862.79296875,0.0,0,0
1765394038.151724,1765394038.1168666,268.5546875,-184.08203125,-60.546875,265.625,0.0,0,0
1765394038.151765,1765394038.1207602,-581.54296875,-56.15234375,-93.75,-1000.0,0.0,0,0
1765394038.151791,1765394038.124654,-642.578125,-18.5546875,-31.73828125,-690.4296875,0.0,0,0
1765394038.195158,1765394038.128686,124.51171875,-1.46484375,34.1796875,616.2109375,0.0,0,0
1765394038.195215,1765394038.1325796,697.265625,10.7421875,41.9921875,-844.7265625,0.0,0,0
1765394038.195242,1765394038.1364734,386.23046875,-7.32421875,-51.7578125,402.34375,0.0,0,0
1765394038.195266,1765394038.1403673,-535.15625,-43.45703125,-109.375,-1000.0,0.0,0,0
1765394038.1952908,1765394038.144261,-745.1171875,-36.62109375,-50.29296875,-845.703125,0.0,0,0
1765394038.195315,1765394038.1481547,36.1328125,10.25390625,52.734375,478.02734375,0.0,0,0
1765394038.195339,1765394038.1520483,661.1328125,24.90234375,59.5703125,-857.421875,0.0,0,0
1765394038.195363,1765394038.1559422,493.65234375,0.9765625,-34.1796875,609.375,0.0,0,0
1765394038.195387,1765394038.159836,-439.453125,-127.44140625,-104.98046875,-765.13671875,0.0,0,0
1765394038.19541,1765394038.1637297,-817.87109375,-113.76953125,-62.5,-1000.0,0.0,0,0
1765394038.195432,1765394038.1676235,-82.03125,10.7421875,38.0859375,128.41796875,0.0,0,0
1765394038.1954591,1765394038.1715174,602.05078125,16.11328125,55.6640625,-899.90234375,0.0,0,0
1765394038.271931,1765394038.1757455,581.54296875,-8.30078125,-19.04296875,803.7109375,0.0,0,0
1765394038.272034,1765394038.1796393,-335.9375,-37.59765625,-94.7265625,-501.46484375,0.0,0,0
1765394038.2720692,1765394038.1835332,-865.72265625,-40.0390625,-75.1953125,-1000.0,0.0,0,0
1765394038.272104,1765394038.1874268,-194.82421875,-14.16015625,21.97265625,-47.8515625,0.0,0,0
1765394038.272136,1765394038.1913207,545.41015625,5.859375,47.36328125,-968.75,0.0,0,0
1765394038.272165,1765394038.1952145,680.6640625,5.859375,-6.34765625,-1000.0,0.0,0,0
1765394038.2721941,1765394038.1991084,-188.4765625,-8.30078125,-88.37890625,-153.3203125,0.0,0,0
1765394038.272223,1765394038.2030022,-861.81640625,-87.890625,-91.30859375,-1000.0,0.0,0,0
1765394038.2722611,1765394038.206896,-289.55078125,-103.515625,7.8125,-176.7578125,0.0,0,0
1765394038.272298,1765394038.21079,492.67578125,7.8125,49.8046875,997.0703125,0.0,0,0
1765394038.272327,1765394038.2146838,736.81640625,20.01953125,10.25390625,-939.453125,0.0,0,0
1765394038.272367,1765394038.2185774,-80.56640625,-24.4140625,-100.09765625,8.30078125,0.0,0,0
1765394038.287319,1765394038.2225976,-846.19140625,-45.8984375,-109.86328125,-1000.0,0.0,0,0
1765394038.28741,1765394038.2264915,-389.6484375,-10.25390625,7.8125,-209.47265625,0.0,0,0
1765394038.2874508,1765394038.2303853,419.43359375,17.08984375,45.8984375,977.05078125,0.0,0,0
1765394038.287491,1765394038.2342792,767.578125,10.25390625,15.625,-918.9453125,0.0,0,0
1765394038.287529,1765394038.238173,23.92578125,-20.5078125,-93.75,184.08203125,0.0,0,0
1765394038.287565,1765394038.2420669,-828.61328125,-40.52734375,-107.421875,-1000.0,0.0,0,0
1765394038.287601,1765394038.2459607,-524.90234375,-17.08984375,-6.8359375,-401.85546875,0.0,0,0
1765394038.287638,1765394038.2498546,337.890625,6.34765625,50.29296875,901.3671875,0.0,0,0
1765394038.2876742,1765394038.2537484,783.203125,6.8359375,33.203125,-889.6484375,0.0,0,0
1765394038.28771,1765394038.2576423,117.67578125,-29.296875,-93.26171875,205.56640625,0.0,0,0
1765394038.2877471,1765394038.2615361,-775.390625,-54.19921875,-116.69921875,-1000.0,0.0,0,0
1765394038.287783,1765394038.26543,-622.55859375,-32.71484375,-24.90234375,-544.43359375,0.0,0,0
1765394038.330372,1765394038.269432,256.8359375,-4.39453125,42.48046875,784.1796875,0.0,0,0
1765394038.330425,1765394038.273326,798.828125,17.578125,39.55078125,-862.3046875,0.0,0,0
1765394038.330452,1765394038.2772198,228.02734375,-36.62109375,-97.16796875,197.75390625,0.0,0,0
1765394038.330476,1765394038.2811136,-719.7265625,-105.95703125,-135.7421875,-1000.0,0.0,0,0
1765394038.3305001,1765394038.2850075,-733.3984375,-54.19921875,-38.0859375,-765.13671875,0.0,0,0
1765394038.3305259,1765394038.2889013,147.94921875,10.25390625,54.19921875,529.296875,0.0,0,0
1765394038.330549,1765394038.2927952,795.41015625,9.27734375,61.5234375,-819.82421875,0.0,0,0
1765394038.330573,1765394038.296689,354.4921875,-44.43359375,-84.9609375,285.64453125,0.0,0,0
1765394038.3305962,1765394038.3005831,-642.08984375,-62.01171875,-141.6015625,-1000.0,0.0,0,0
1765394038.3306189,1765394038.304477,-842.7734375,-34.1796875,-48.828125,-954.58984375,0.0,0,0
1765394038.330642,1765394038.3083708,29.296875,11.71875,53.7109375,262.20703125,0.0,0,0
1765394038.3306649,1765394038.3122647,755.859375,32.2265625,76.171875,-810.546875,0.0,0,0
1765394038.391798,1765394038.3162544,462.40234375,7.32421875,-41.9921875,462.890625,0.0,0,0
1765394038.391905,1765394038.3201482,-549.8046875,-29.296875,-117.1875,-872.55859375,0.0,0,0
1765394038.3919349,1765394038.324042,-977.5390625,-34.1796875,-46.875,-1000.0,0.0,0,0
1765394038.391967,1765394038.327936,-187.98828125,4.39453125,68.359375,-76.66015625,0.0,0,0
1765394038.391995,1765394038.3318298,680.6640625,35.64453125,103.515625,-894.53125,0.0,0,0
1765394038.392024,1765394038.3357236,599.609375,21.484375,15.13671875,763.671875,0.0,0,0
1765394038.392053,1765394038.3396177,-408.69140625,-31.73828125,-111.328125,-565.4296875,0.0,0,0
1765394038.392083,1765394038.3435116,-1000.0,-47.8515625,-100.5859375,-1000.0,0.0,0,0
1765394038.39211,1765394038.3474054,-409.66796875,8.7890625,75.68359375,-173.828125,0.0,0,0
1765394038.392138,1765394038.3512993,653.80859375,41.50390625,126.953125,995.1171875,0.0,0,0
1765394038.392166,1765394038.3551931,892.08984375,34.1796875,56.15234375,-959.47265625,0.0,0,0
1765394038.392195,1765394038.359087,-104.00390625,-10.7421875,-170.8984375,-63.4765625,0.0,0,0
1765394038.438715,1765394038.363163,-1000.0,-65.91796875,-440.4296875,-1000.0,0.0,0,0
1765394038.438863,1765394038.3670568,-765.625,-20.5078125,0.9765625,-355.95703125,0.0,0,0
1765394038.4389172,1765394038.3709507,540.52734375,95.703125,696.2890625,932.12890625,0.0,0,0
1765394038.43914,1765394038.3748448,-819.82421875,126.953125,485.83984375,-912.109375,0.0,0,0
1765394038.439195,1765394038.3787386,162.109375,-18.5546875,-495.1171875,32.2265625,0.0,0,0
1765394038.4392471,1765394038.3826325,-1000.0,-188.4765625,-815.91796875,-1000.0,0.0,0,0
1765394038.439297,1765394038.3865263,-843.75,-111.81640625,93.26171875,-427.734375,0.0,0,0
1765394038.4393458,1765394038.3904204,460.9375,106.4453125,792.48046875,891.6015625,0.0,0,0
1765394038.439401,1765394038.3943143,-804.6875,147.94921875,466.796875,-888.18359375,0.0,0,0
1765394038.439451,1765394038.3982081,176.7578125,-39.55078125,-505.859375,163.57421875,0.0,0,0
1765394038.439512,1765394038.402102,-1000.0,-174.8046875,-806.15234375,-1000.0,0.0,0,0
1765394038.43956,1765394038.405996,-989.2578125,-81.54296875,0.9765625,-620.1171875,0.0,0,0
1765394038.4945972,1765394038.4100544,214.84375,78.61328125,759.27734375,766.6015625,0.0,0,0
1765394038.4947672,1765394038.4139483,-785.64453125,128.90625,586.9140625,-848.6328125,0.0,0,0
1765394038.494827,1765394038.4178424,253.90625,-25.390625,-444.3359375,180.17578125,0.0,0,0
1765394038.494879,1765394038.4217362,-990.72265625,-175.78125,-825.68359375,-1000.0,0.0,0,0
1765394038.494931,1765394038.4256303,-1000.0,-124.0234375,-148.92578125,-862.3046875,0.0,0,0
1765394038.494981,1765394038.4295242,-21.97265625,54.19921875,674.8046875,479.00390625,0.0,0,0
1765394038.495032,1765394038.433418,-807.6171875,126.46484375,681.640625,-797.36328125,0.0,0,0
1765394038.4951282,1765394038.4373121,410.15625,-23.4375,-385.7421875,149.4140625,0.0,0,0
1765394038.495181,1765394038.441206,-901.3671875,-173.828125,-847.65625,-1000.0,0.0,0,0
1765394038.49523,1765394038.4450998,-1000.0,-153.80859375,-264.16015625,-1000.0,0.0,0,0
1765394038.495279,1765394038.448994,-148.92578125,24.90234375,580.078125,161.62109375,0.0,0,0
1765394038.4953291,1765394038.4528878,-860.3515625,141.6015625,745.60546875,-765.625,0.0,0,0
1765394038.5264058,1765394038.4569314,608.88671875,14.16015625,-278.80859375,233.3984375,0.0,0,0
1765394038.526528,1765394038.4608252,-742.1875,-161.1328125,-869.62890625,-998.53515625,0.0,0,0
1765394038.526588,1765394038.4647193,-1000.0,-163.57421875,-360.3515625,-1000.0,0.0,0,0
1765394038.5266392,1765394038.4686131,-189.453125,16.6015625,530.2734375,-22.4609375,0.0,0,0
1765394038.5266922,1765394038.4725072,-913.57421875,137.6953125,760.25390625,-787.59765625,0.0,0,0
1765394038.526745,1765394038.476401,779.296875,36.62109375,-189.453125,398.4375,0.0,0,0
1765394038.526795,1765394038.4802952,-543.45703125,-141.6015625,-861.81640625,-917.96875,0.0,0,0
1765394038.526847,1765394038.484189,-1000.0,-167.48046875,-440.4296875,-1000.0,0.0,0,0
1765394038.5268962,1765394038.4880831,-210.44921875,-45.41015625,497.0703125,-183.10546875,0.0,0,0
1765394038.526947,1765394038.491977,-964.84375,71.77734375,760.25390625,-848.6328125,0.0,0,0
1765394038.5270011,1765394038.495871,926.7578125,55.6640625,-87.890625,578.125,0.0,0,0
1765394038.5270588,1765394038.499765,-321.77734375,-135.25390625,-829.58984375,-808.59375,0.0,0,0
1765394038.571877,1765394038.5037966,-1000.0,-198.73046875,-502.9296875,-1000.0,0.0,0,0
1765394038.572002,1765394038.5076907,-251.46484375,-9.27734375,504.39453125,-217.28515625,0.0,0,0
1765394038.5720582,1765394038.5115845,986.81640625,144.53125,748.046875,-916.9921875,0.0,0,0
1765394038.5721102,1765394038.5154786,-978.515625,84.9609375,-5.859375,786.1328125,0.0,0,0
1765394038.572161,1765394038.5193727,-122.55859375,-126.46484375,-782.2265625,-575.1953125,0.0,0,0
1765394038.572211,1765394038.5232666,-1000.0,-204.1015625,-576.66015625,-1000.0,0.0,0,0
1765394038.5722601,1765394038.5271606,-354.00390625,-23.92578125,495.1171875,-187.98828125,0.0,0,0
1765394038.572311,1765394038.5310547,922.36328125,134.765625,764.16015625,-973.6328125,0.0,0,0
1765394038.572371,1765394038.5349486,-914.55078125,46.38671875,101.07421875,974.609375,0.0,0,0
1765394038.5724218,1765394038.5388427,48.828125,-155.2734375,-705.56640625,-269.53125,0.0,0,0
1765394038.5725088,1765394038.5427365,-1000.0,-205.078125,-654.78515625,-1000.0,0.0,0,0
1765394038.572576,1765394038.5466306,-522.4609375,-38.0859375,438.96484375,-201.171875,0.0,0,0
1765394038.615788,1765394038.5506508,813.96484375,137.20703125,812.01171875,990.72265625,0.0,0,0
1765394038.615916,1765394038.5545447,-870.1171875,131.8359375,226.5625,-950.68359375,0.0,0,0
1765394038.615958,1765394038.5584388,144.53125,-89.35546875,-621.09375,-44.43359375,0.0,0,0
1765394038.615996,1765394038.5623329,-1000.0,-222.16796875,-701.66015625,-1000.0,0.0,0,0
1765394038.616034,1765394038.5662267,-736.328125,-69.82421875,336.9140625,-373.046875,0.0,0,0
1765394038.616071,1765394038.5701208,611.328125,120.60546875,833.0078125,913.57421875,0.0,0,0
1765394038.6161191,1765394038.574015,-823.73046875,148.4375,332.51953125,-898.92578125,0.0,0,0
1765394038.6161652,1765394038.577909,166.50390625,-84.9609375,-562.5,128.41796875,0.0,0,0
1765394038.616232,1765394038.5818028,-1000.0,-246.09375,-723.6328125,-1000.0,0.0,0,0
1765394038.616276,1765394038.585697,-929.19921875,-106.93359375,201.171875,-552.734375,0.0,0,0
1765394038.616312,1765394038.589591,339.35546875,99.12109375,835.9375,825.68359375,0.0,0,0
1765394038.616367,1765394038.5934849,-789.0625,157.2265625,473.6328125,-861.328125,0.0,0,0
1765394038.660703,1765394038.5974925,189.94140625,-43.9453125,-527.34375,188.4765625,0.0,0,0
1765394038.6608052,1765394038.6013865,-1000.0,-208.49609375,-737.79296875,-1000.0,0.0,0,0
1765394038.660846,1765394038.6052806,-1000.0,-127.9296875,59.5703125,-812.98828125,0.0,0,0
1765394038.660884,1765394038.6091747,82.03125,82.03125,775.390625,549.8046875,0.0,0,0
1765394038.660921,1765394038.6130686,-784.66796875,167.48046875,585.44921875,-807.12890625,0.0,0,0
1765394038.660959,1765394038.6169627,305.6640625,-17.08984375,-505.37109375,153.3203125,0.0,0,0
1765394038.660995,1765394038.6208568,-960.9375,-194.82421875,-774.4140625,-1000.0,0.0,0,0
1765394038.661032,1765394038.6247509,-1000.0,-145.5078125,-81.54296875,-1000.0,0.0,0,0
1765394038.661067,1765394038.6286447,-111.81640625,60.546875,669.921875,209.9609375,0.0,0,0
1765394038.661105,1765394038.6325388,-827.1484375,165.0390625,661.62109375,-767.578125,0.0,0,0
1765394038.661141,1765394038.636433,497.55859375,4.39453125,-433.10546875,210.9375,0.0,0,0
1765394038.661202,1765394038.640327,-846.6796875,-192.3828125,-829.58984375,-1000.0,0.0,0,0
1765394038.707351,1765394038.6443324,-1000.0,-174.8046875,-191.89453125,-1000.0,0.0,0,0
1765394038.707479,1765394038.6482265,-191.40625,34.1796875,604.98046875,-11.23046875,0.0,0,0
1765394038.707523,1765394038.6521206,-895.99609375,158.203125,692.3828125,-785.15625,0.0,0,0
1765394038.707562,1765394038.6560147,721.6796875,31.73828125,-320.3125,395.5078125,0.0,0,0
1765394038.7075992,1765394038.6599088,-626.46484375,-179.19921875,-869.140625,-917.48046875,0.0,0,0
1765394038.707637,1765394038.6638029,-1000.0,-178.22265625,-307.12890625,-1000.0,0.0,0,0
1765394038.707673,1765394038.667697,-202.1484375,-27.34375,581.0546875,-182.6171875,0.0,0,0
1765394038.70771,1765394038.671591,-961.9140625,58.59375,695.80078125,-856.4453125,0.0,0,0
1765394038.7077491,1765394038.675485,920.8984375,52.24609375,-192.87109375,611.81640625,0.0,0,0
1765394038.707787,1765394038.679379,-332.51953125,-138.671875,-847.65625,-772.4609375,0.0,0,0
1765394038.707823,1765394038.683273,-1000.0,-197.75390625,-444.82421875,-1000.0,0.0,0,0
1765394038.7078578,1765394038.6871672,-255.37109375,-1.46484375,549.8046875,-208.49609375,0.0,0,0
1765394038.766238,1765394038.6911538,975.09765625,151.85546875,717.7734375,-937.5,0.0,0,0
1765394038.766378,1765394038.6950479,-959.9609375,103.02734375,-25.87890625,855.46875,0.0,0,0
1765394038.766412,1765394038.698942,-75.1953125,-121.09375,-770.99609375,-474.12109375,0.0,0,0
1765394038.766443,1765394038.702836,-1000.0,-209.9609375,-570.3125,-1000.0,0.0,0,0
1765394038.766593,1765394038.7067301,-390.625,-20.5078125,520.01953125,-178.7109375,0.0,0,0
1765394038.766644,1765394038.7106242,899.90234375,149.90234375,766.11328125,-990.72265625,0.0,0,0
1765394038.766676,1765394038.7145183,-899.90234375,58.59375,109.375,-976.5625,0.0,0,0
1765394038.766804,1765394038.7184122,98.6328125,-163.0859375,-686.03515625,-155.2734375,0.0,0,0
1765394038.766838,1765394038.7223063,-1000.0,-209.47265625,-661.1328125,-1000.0,0.0,0,0
1765394038.7668679,1765394038.7262003,-604.4921875,-49.31640625,427.24609375,-262.6953125,0.0,0,0
1765394038.7668989,1765394038.7300944,744.62890625,125.0,823.2421875,964.84375,0.0,0,0
1765394038.766931,1765394038.7339885,-851.07421875,140.625,258.30078125,-929.6875,0.0,0,0
1765394038.8100312,1765394038.737981,163.0859375,-73.2421875,-591.30859375,24.90234375,0.0,0,0
1765394038.810111,1765394038.7418752,-1000.0,-219.7265625,-702.1484375,-1000.0,0.0,0,0
1765394038.8101492,1765394038.7457693,-831.0546875,-85.44921875,286.1328125,-449.70703125,0.0,0,0
1765394038.8101802,1765394038.7496634,489.74609375,112.3046875,845.703125,874.0234375,0.0,0,0
1765394038.8102112,1765394038.7535574,-805.6640625,157.71484375,400.390625,-879.8828125,0.0,0,0
1765394038.810241,1765394038.7574515,165.0390625,-77.63671875,-544.43359375,194.82421875,0.0,0,0
1765394038.810271,1765394038.7613456,-1000.0,-249.51171875,-726.5625,-1000.0,0.0,0,0
1765394038.810299,1765394038.7652397,-995.1171875,-122.55859375,124.51171875,-685.546875,0.0,0,0
1765394038.8103292,1765394038.7691338,211.42578125,84.9609375,806.15234375,706.0546875,0.0,0,0
1765394038.810358,1765394038.773028,-781.73828125,138.18359375,535.15625,-835.44921875,0.0,0,0
1765394038.8103878,1765394038.776922,234.375,-52.24609375,-522.4609375,170.8984375,0.0,0,0
1765394038.810417,1765394038.780816,-998.046875,-202.1484375,-750.0,-1000.0,0.0,0,0
1765394038.873064,1765394038.7849712,-1000.0,-140.625,-1.953125,-919.43359375,0.0,0,0
1765394038.8731651,1765394038.7888653,-25.390625,67.87109375,733.3984375,393.06640625,0.0,0,0
1765394038.873207,1765394038.7927594,-799.8046875,168.45703125,630.859375,-785.64453125,0.0,0,0
1765394038.873245,1765394038.7966537,388.671875,-0.48828125,-478.515625,143.5546875,0.0,0,0
1765394038.8732831,1765394038.8005478,-919.921875,-191.40625,-799.31640625,-1000.0,0.0,0,0
1765394038.873319,1765394038.804442,-1000.0,-173.33984375,-124.0234375,-1000.0,0.0,0,0
1765394038.873354,1765394038.808336,-161.1328125,34.1796875,638.671875,85.9375,0.0,0,0
1765394038.873389,1765394038.8122303,-858.88671875,164.55078125,674.31640625,-768.06640625,0.0,0,0
1765394038.873429,1765394038.8161244,604.00390625,9.765625,-390.13671875,299.31640625,0.0,0,0
1765394038.873466,1765394038.8200185,-754.39453125,-239.2578125,-851.07421875,-965.8203125,0.0,0,0
1765394038.873502,1765394038.8239126,-1000.0,-208.984375,-249.51171875,-1000.0,0.0,0,0
1765394038.873537,1765394038.8278067,-200.1953125,41.015625,581.54296875,-95.703125,0.0,0,0
1765394038.9026392,1765394038.8318622,-930.17578125,163.0859375,696.2890625,-810.546875,0.0,0,0
1765394038.9027698,1765394038.8357563,828.61328125,49.31640625,-261.23046875,484.86328125,0.0,0,0
1765394038.902828,1765394038.8396506,-482.421875,-155.76171875,-860.83984375,-870.1171875,0.0,0,0
1765394038.902882,1765394038.8435447,-1000.0,-191.89453125,-378.90625,-1000.0,0.0,0,0
1765394038.902933,1765394038.847439,-214.84375,10.25390625,554.19921875,-227.05078125,0.0,0,0
1765394038.902984,1765394038.8513331,-989.74609375,161.62109375,706.54296875,-902.83203125,0.0,0,0
1765394038.903043,1765394038.8552272,986.328125,83.0078125,-108.88671875,735.83984375,0.0,0,0
1765394038.903096,1765394038.8591216,-202.1484375,-137.20703125,-817.3828125,-640.625,0.0,0,0
1765394038.903146,1765394038.8630157,-1000.0,-208.49609375,-518.5546875,-1000.0,0.0,0,0
1765394038.9031942,1765394038.8669097,-314.94140625,-18.5546875,533.203125,-192.87109375,0.0,0,0
1765394038.903244,1765394038.870804,939.453125,138.671875,741.2109375,-965.8203125,0.0,0,0
1765394038.903286,1765394038.8746982,-925.29296875,105.95703125,52.24609375,948.73046875,0.0,0,0
1765394038.9464011,1765394038.8787344,21.484375,-156.25,-720.21484375,-321.2890625,0.0,0,0
1765394038.946505,1765394038.8826284,-1000.0,-276.3671875,-621.58203125,-1000.0,0.0,0,0
1765394038.946541,1765394038.8865228,-494.62890625,-45.8984375,477.05078125,-179.19921875,0.0,0,0
1765394038.946579,1765394038.8904169,833.984375,133.7890625,797.36328125,998.53515625,0.0,0,0
1765394038.9466162,1765394038.894311,-875.0,123.046875,194.3359375,-956.54296875,0.0,0,0
1765394038.946653,1765394038.8982053,140.13671875,-87.890625,-624.51171875,-61.03515625,0.0,0,0
1765394038.9466949,1765394038.9020994,-1000.0,-220.21484375,-699.21875,-1000.0,0.0,0,0
1765394038.94673,1765394038.9059937,-717.28515625,-73.73046875,348.14453125,-354.00390625,0.0,0,0
1765394038.9467678,1765394038.9098878,630.859375,68.84765625,844.23828125,922.8515625,0.0,0,0
1765394038.946804,1765394038.9137821,-827.63671875,104.98046875,336.9140625,-904.296875,0.0,0,0
1765394038.946843,1765394038.9176762,163.57421875,-51.7578125,-560.05859375,110.3515625,0.0,0,0
1765394038.9468842,1765394038.9215705,-1000.0,-210.9375,-714.84375,-1000.0,0.0,0,0
1765394038.994158,1765394038.9255989,-921.38671875,-104.00390625,220.703125,-545.41015625,0.0,0,0
1765394038.994344,1765394038.9294932,350.5859375,103.02734375,839.84375,827.1484375,0.0,0,0
1765394038.99454,1765394038.9333873,-790.0390625,165.0390625,473.6328125,-861.81640625,0.0,0,0
1765394038.994622,1765394038.9372816,187.01171875,-40.52734375,-523.92578125,189.453125,0.0,0,0
1765394038.994679,1765394038.9411757,-1000.0,-213.37890625,-745.60546875,-1000.0,0.0,0,0
1765394038.994734,1765394038.94507,-1000.0,-136.71875,56.15234375,-804.19921875,0.0,0,0
1765394038.9947882,1765394038.948964,88.37890625,89.35546875,777.83203125,561.5234375,0.0,0,0
1765394038.9948401,1765394038.9528584,-784.66796875,138.671875,575.1953125,-809.08203125,0.0,0,0
1765394038.99489,1765394038.9567528,299.8046875,-72.265625,-509.27734375,154.296875,0.0,0,0
1765394038.994942,1765394038.9606469,-963.8671875,-201.66015625,-770.99609375,-1000.0,0.0,0,0
1765394038.994992,1765394038.9645412,-1000.0,-147.94921875,-69.82421875,-1000.0,0.0,0,0
1765394038.995059,1765394038.9684353,-106.4453125,54.19921875,678.22265625,221.19140625,0.0,0,0
1765394039.035805,1765394038.9724474,-825.1953125,167.48046875,656.25,-768.5546875,0.0,0,0
1765394039.0358799,1765394038.9763415,492.67578125,17.08984375,-432.6171875,206.54296875,0.0,0,0
1765394039.035915,1765394038.9802358,-850.5859375,-178.7109375,-828.61328125,-1000.0,0.0,0,0
1765394039.035946,1765394038.9841301,-1000.0,-170.41015625,-160.15625,-1000.0,0.0,0,0
1765394039.035976,1765394038.9880242,-189.453125,37.109375,557.12890625,-4.8828125,0.0,0,0
1765394039.036006,1765394038.9919186,-894.04296875,164.55078125,592.7734375,-783.203125,0.0,0,0
1765394039.036036,1765394038.9958127,716.796875,43.45703125,-320.80078125,389.6484375,0.0,0,0
1765394039.036066,1765394038.999707,-632.32421875,-182.6171875,-858.3984375,-920.41015625,0.0,0,0
1765394039.036096,1765394039.0036013,-1000.0,-200.68359375,-310.05859375,-1000.0,0.0,0,0
1765394039.036125,1765394039.0074954,-201.171875,22.4609375,564.94140625,-179.6875,0.0,0,0
1765394039.036154,1765394039.0113897,-960.9375,165.0390625,705.078125,-852.5390625,0.0,0,0
1765394039.036183,1765394039.015284,917.96875,71.2890625,-179.19921875,599.609375,0.0,0,0
1765394039.080443,1765394039.0192826,-336.42578125,-147.94921875,-847.16796875,-784.66796875,0.0,0,0
1765394039.0805,1765394039.023177,-1000.0,-206.54296875,-434.5703125,-1000.0,0.0,0,0
1765394039.080529,1765394039.027071,-253.90625,-12.6953125,555.6640625,-209.9609375,0.0,0,0
1765394039.080559,1765394039.0309653,977.05078125,144.53125,724.609375,-934.5703125,0.0,0,0
1765394039.080589,1765394039.0348597,-962.40234375,86.9140625,-19.53125,846.19140625,0.0,0,0
1765394039.080619,1765394039.0387537,-82.03125,-113.76953125,-771.97265625,-488.28125,0.0,0,0
1765394039.080649,1765394039.042648,-1000.0,-240.72265625,-574.21875,-1000.0,0.0,0,0
1765394039.080676,1765394039.0465424,-388.671875,-99.609375,508.7890625,-179.19921875,0.0,0,0
1765394039.0807061,1765394039.0504367,900.87890625,127.9296875,764.6484375,-990.234375,0.0,0,0
1765394039.08078,1765394039.0543308,-900.87890625,124.51171875,119.62890625,-978.515625,0.0,0,0
1765394039.0808342,1765394039.0582252,94.7265625,-101.5625,-675.78125,-164.0625,0.0,0,0
1765394039.080968,1765394039.0621195,-1000.0,-219.23828125,-668.9453125,-1000.0,0.0,0,0
1765394039.171459,1765394039.0661063,-605.46875,-52.24609375,415.52734375,-258.7890625,0.0,0,0
1765394039.1715672,1765394039.0700006,743.1640625,131.8359375,825.68359375,966.796875,0.0,0,0
1765394039.171596,1765394039.073895,-851.07421875,145.01953125,265.625,-931.15234375,0.0,0,0
1765394039.171621,1765394039.077789,160.64453125,-67.3828125,-591.30859375,17.578125,0.0,0,0
1765394039.1716459,1765394039.0816834,-1000.0,-215.8203125,-709.9609375,-1000.0,0.0,0,0
1765394039.171669,1765394039.0855777,-828.125,-72.75390625,297.36328125,-445.80078125,0.0,0,0
1765394039.171693,1765394039.089472,493.1640625,64.453125,853.515625,875.48828125,0.0,0,0
1765394039.1717162,1765394039.0933664,-806.15234375,94.23828125,392.08984375,-880.37109375,0.0,0,0
1765394039.171741,1765394039.0972605,164.0625,-48.33984375,-548.828125,192.87109375,0.0,0,0
1765394039.171765,1765394039.1011548,-1000.0,-208.984375,-722.65625,-1000.0,0.0,0,0
1765394039.171788,1765394039.1050491,-994.62890625,-112.79296875,140.13671875,-683.10546875,0.0,0,0
1765394039.171813,1765394039.1089435,212.890625,96.6796875,811.5234375,708.49609375,0.0,0,0
1765394039.185996,1765394039.1129367,-781.73828125,171.38671875,530.76171875,-835.9375,0.0,0,0
1765394039.186068,1765394039.116831,232.91015625,-24.4140625,-520.01953125,171.38671875,0.0,0,0
1765394039.186102,1765394039.1207254,-999.0234375,-195.80078125,-749.0234375,-1000.0,0.0,0,0
1765394039.186132,1765394039.1246197,-1000.0,-141.11328125,-1.953125,-916.9921875,0.0,0,0
1765394039.186197,1765394039.128514,-22.94921875,83.984375,732.421875,397.4609375,0.0,0,0
1765394039.1862469,1765394039.1324084,-798.828125,152.83203125,634.765625,-785.64453125,0.0,0,0
1765394039.1862779,1765394039.1363027,385.25390625,-59.08203125,-476.07421875,143.5546875,0.0,0,0
1765394039.1863081,1765394039.1401968,-921.875,-192.3828125,-797.8515625,-1000.0,0.0,0,0
1765394039.186337,1765394039.1440911,-1000.0,-158.203125,-125.0,-1000.0,0.0,0,0
1765394039.1863658,1765394039.1479855,-161.62109375,48.828125,644.04296875,88.37890625,0.0,0,0
1765394039.186396,1765394039.1518798,-858.3984375,178.22265625,672.8515625,-767.08984375,0.0,0,0
1765394039.1864278,1765394039.155774,602.5390625,22.4609375,-400.87890625,297.8515625,0.0,0,0
1765394039.230645,1765394039.15983,-755.859375,-179.6875,-848.6328125,-966.30859375,0.0,0,0
1765394039.230718,1765394039.1637244,-1000.0,-181.640625,-241.2109375,-1000.0,0.0,0,0
1765394039.2307541,1765394039.1676188,-199.70703125,21.97265625,584.9609375,-95.703125,0.0,0,0
1765394039.2307851,1765394039.171513,-929.19921875,161.1328125,693.84765625,-809.5703125,0.0,0,0
1765394039.230816,1765394039.1754074,825.68359375,53.7109375,-271.484375,479.98046875,0.0,0,0
1765394039.230846,1765394039.1793017,-486.328125,-169.43359375,-863.28125,-873.046875,0.0,0,0
1765394039.2308748,1765394039.183196,-1000.0,-206.54296875,-381.34765625,-1000.0,0.0,0,0
1765394039.230904,1765394039.1870904,-217.7734375,0.48828125,546.38671875,-227.5390625,0.0,0,0
1765394039.230936,1765394039.1909847,-991.2109375,150.390625,708.49609375,-902.83203125,0.0,0,0
1765394039.230966,1765394039.194879,986.328125,76.171875,-109.375,734.86328125,0.0,0,0
1765394039.230996,1765394039.1987734,-202.63671875,-139.16015625,-818.359375,-641.6015625,0.0,0,0
1765394039.231047,1765394039.2026677,-1000.0,-203.61328125,-512.20703125,-1000.0,0.0,0,0
1765394039.2792,1765394039.206713,-314.453125,-11.71875,534.66796875,-192.87109375,0.0,0,0
1765394039.279312,1765394039.2106073,939.453125,147.4609375,733.88671875,-965.33203125,0.0,0,0
1765394039.279356,1765394039.2145016,-924.8046875,108.88671875,33.203125,947.265625,0.0,0,0
1765394039.2793941,1765394039.218396,21.97265625,-118.65234375,-731.93359375,-324.70703125,0.0,0,0
1765394039.279436,1765394039.2222903,-1000.0,-218.75,-619.140625,-1000.0,0.0,0,0
1765394039.279472,1765394039.2261846,-492.67578125,-31.25,489.2578125,-176.26953125,0.0,0,0
1765394039.279509,1765394039.230079,833.49609375,135.25390625,793.9453125,-999.0234375,0.0,0,0
1765394039.279545,1765394039.2339733,-875.48828125,126.46484375,177.24609375,-958.984375,0.0,0,0
1765394039.2795808,1765394039.2378676,139.6484375,-100.5859375,-631.8359375,-71.2890625,0.0,0,0
1765394039.279618,1765394039.241762,-1000.0,-237.3046875,-695.3125,-1000.0,0.0,0,0
1765394039.279657,1765394039.2456563,-719.23828125,-71.77734375,348.6328125,-350.5859375,0.0,0,0
1765394039.279694,1765394039.2495508,627.44140625,123.046875,838.8671875,921.875,0.0,0,0
