timestamp,lsl_timestamp,TP9,AF7,AF8,TP10,Right AUX,keypress_A,keypress_B
1772116478.673804,1772116478.6120763,-818.359375,148.4375,551.26953125,644.04296875,0.0,0,0
1772116478.6739562,1772116478.6159704,159.1796875,-86.42578125,-66.89453125,-824.21875,0.0,0,0
1772116478.674005,1772116478.6198645,-1000.0,-72.265625,-623.046875,163.57421875,0.0,0,0
1772116478.6740422,1772116478.6237586,-978.515625,-59.5703125,-360.83984375,-1000.0,0.0,0,0
1772116478.6740742,1772116478.627653,257.8125,-28.3203125,351.07421875,-961.9140625,0.0,0,0
1772116478.6741052,1772116478.631547,-778.3203125,-77.1484375,567.87109375,311.03515625,0.0,0,0
1772116478.674135,1772116478.635441,222.16796875,85.44921875,43.45703125,-777.83203125,0.0,0,0
1772116478.674165,1772116478.6393352,-997.55859375,225.5859375,-613.28125,179.6875,0.0,0,0
1772116478.674199,1772116478.6432292,-1000.0,-62.5,-496.58203125,-1000.0,0.0,0,0
1772116478.6742358,1772116478.6471233,-29.296875,-86.42578125,252.44140625,-1000.0,0.0,0,0
1772116478.6742651,1772116478.6510177,-791.9921875,-15.13671875,554.6875,47.36328125,0.0,0,0
1772116478.674295,1772116478.6549118,358.88671875,-63.96484375,67.87109375,-776.85546875,0.0,0,0
1772116478.732567,1772116478.6588998,-936.5234375,-117.67578125,-576.66015625,349.12109375,0.0,0,0
1772116478.732707,1772116478.6627939,-1000.0,-94.7265625,-532.2265625,-938.4765625,0.0,0,0
1772116478.732764,1772116478.6666882,-171.875,-34.66796875,163.57421875,-1000.0,0.0,0,0
1772116478.7328188,1772116478.6705823,-851.5625,-18.06640625,568.84765625,-148.92578125,0.0,0,0
1772116478.732872,1772116478.6744764,577.1484375,-33.203125,154.296875,-841.796875,0.0,0,0
1772116478.7329228,1772116478.6783705,-787.59765625,-81.0546875,-514.6484375,574.70703125,0.0,0,0
1772116478.7329762,1772116478.6822646,-1000.0,-25.87890625,-565.91796875,-795.8984375,0.0,0,0
1772116478.733026,1772116478.686159,-211.42578125,6.8359375,52.734375,-1000.0,0.0,0,0
1772116478.7330859,1772116478.690053,-927.734375,-62.98828125,548.828125,-213.8671875,0.0,0,0
1772116478.7331378,1772116478.693947,815.4296875,-78.61328125,228.02734375,-928.22265625,0.0,0,0
1772116478.733218,1772116478.6978412,-513.18359375,-111.81640625,-480.46875,823.73046875,0.0,0,0
1772116478.7332742,1772116478.7017355,-1000.0,-114.74609375,-612.3046875,-516.11328125,0.0,0,0
1772116478.779139,1772116478.7057076,-189.453125,-48.33984375,-21.484375,-1000.0,0.0,0,0
1772116478.779267,1772116478.7096019,-988.76953125,-1.46484375,571.2890625,-181.640625,0.0,0,0
1772116478.779326,1772116478.713496,-1000.0,-18.5546875,353.515625,-985.3515625,0.0,0,0
1772116478.77938,1772116478.71739,-172.36328125,-72.75390625,-383.30078125,-997.0703125,0.0,0,0
1772116478.7794318,1772116478.7212844,-1000.0,-109.86328125,-633.7890625,-187.5,0.0,0,0
1772116478.779486,1772116478.7251785,-282.2265625,-49.31640625,-124.0234375,-1000.0,0.0,0,0
1772116478.779535,1772116478.7290726,953.125,9.27734375,536.62109375,-265.13671875,0.0,0,0
1772116478.7795851,1772116478.7329667,-926.7578125,-48.828125,451.171875,959.9609375,0.0,0,0
1772116478.7796412,1772116478.736861,51.26953125,-98.6328125,-261.23046875,-928.22265625,0.0,0,0
1772116478.779692,1772116478.740755,-1000.0,-63.96484375,-602.5390625,35.64453125,0.0,0,0
1772116478.779739,1772116478.7446492,-470.21484375,-8.7890625,-165.52734375,-1000.0,0.0,0,0
1772116478.779788,1772116478.7485435,861.81640625,-5.37109375,523.4375,-457.51953125,0.0,0,0
1772116478.825002,1772116478.7526107,-878.90625,-20.99609375,525.87890625,871.09375,0.0,0,0
1772116478.825093,1772116478.756505,169.921875,-44.43359375,-154.296875,-880.37109375,0.0,0,0
1772116478.825145,1772116478.760399,-1000.0,-63.4765625,-597.65625,169.43359375,0.0,0,0
1772116478.825195,1772116478.7642932,-717.28515625,-55.6640625,-236.81640625,-1000.0,0.0,0,0
1772116478.825262,1772116478.7681875,648.4375,-11.71875,459.9609375,-703.125,0.0,0,0
1772116478.825324,1772116478.7720816,-828.125,8.30078125,542.48046875,673.33984375,0.0,0,0
1772116478.825374,1772116478.775976,165.52734375,-53.7109375,-95.703125,-830.078125,0.0,0,0
1772116478.825424,1772116478.77987,-1000.0,-116.69921875,-645.99609375,167.48046875,0.0,0,0
1772116478.825498,1772116478.7837641,-948.2421875,-61.03515625,-375.9765625,-1000.0,0.0,0,0
1772116478.825551,1772116478.7876585,324.21875,113.28125,337.40234375,-939.94140625,0.0,0,0
1772116478.8256,1772116478.7915525,-782.2265625,83.984375,537.59765625,346.6796875,0.0,0,0
1772116478.8256488,1772116478.7954469,184.5703125,-50.78125,-3.90625,-781.73828125,0.0,0,0
1772116478.90129,1772116478.7996972,-1000.0,-76.66015625,-618.65234375,177.734375,0.0,0,0
1772116478.901414,1772116478.8035915,-1000.0,-65.4296875,-443.84765625,-1000.0,0.0,0,0
1772116478.901454,1772116478.8074856,54.19921875,-29.296875,291.50390625,-1000.0,0.0,0,0
1772116478.9014919,1772116478.81138,-782.2265625,-13.671875,581.0546875,69.82421875,0.0,0,0
1772116478.901531,1772116478.8152742,348.14453125,-51.26953125,83.49609375,-774.90234375,0.0,0,0
1772116478.901572,1772116478.8191683,-939.453125,-84.9609375,-569.82421875,325.68359375,0.0,0,0
1772116478.90161,1772116478.8230627,-1000.0,-69.3359375,-505.859375,-949.21875,0.0,0,0
1772116478.9016461,1772116478.826957,-123.53515625,-53.7109375,198.73046875,-1000.0,0.0,0,0
1772116478.901707,1772116478.830851,-839.35546875,73.73046875,572.75390625,-133.7890625,0.0,0,0
1772116478.901749,1772116478.8347454,561.03515625,119.140625,148.92578125,-833.0078125,0.0,0,0
1772116478.9017868,1772116478.8386397,-796.38671875,-52.734375,-530.2734375,546.875,0.0,0,0
1772116478.9018319,1772116478.8425338,-1000.0,-76.66015625,-542.96875,-818.359375,0.0,0,0
1772116478.914882,1772116478.8465767,-192.87109375,-27.34375,137.20703125,-1000.0,0.0,0,0
1772116478.914965,1772116478.850471,-915.0390625,-4.39453125,617.67578125,-210.44921875,0.0,0,0
1772116478.915008,1772116478.8543653,789.55078125,-26.3671875,291.50390625,-916.9921875,0.0,0,0
1772116478.915046,1772116478.8582594,-547.36328125,-65.4296875,-424.31640625,789.0625,0.0,0,0
1772116478.915085,1772116478.8621538,-1000.0,-62.01171875,-595.703125,-560.05859375,0.0,0,0
1772116478.915122,1772116478.866048,-187.98828125,-23.92578125,23.4375,-1000.0,0.0,0,0
1772116478.915157,1772116478.8699424,-974.12109375,-3.90625,625.9765625,-185.05859375,0.0,0,0
1772116478.915194,1772116478.8738368,966.30859375,-29.296875,368.1640625,-979.98046875,0.0,0,0
1772116478.915254,1772116478.8777308,-251.46484375,-83.984375,-352.5390625,986.328125,0.0,0,0
1772116478.915327,1772116478.8816252,-1000.0,-94.7265625,-563.96484375,-222.65625,0.0,0,0
1772116478.91537,1772116478.8855195,-258.7890625,-38.0859375,-29.296875,-1000.0,0.0,0,0
1772116478.9154088,1772116478.8894138,960.44921875,12.6953125,591.796875,-246.58203125,0.0,0,0
1772116478.9588969,1772116478.8934338,-933.10546875,6.8359375,461.9140625,969.23828125,0.0,0,0
1772116478.95898,1772116478.897328,29.296875,-32.2265625,-239.74609375,-935.546875,0.0,0,0
1772116478.959022,1772116478.9012222,-1000.0,-59.5703125,-557.12890625,11.23046875,0.0,0,0
1772116478.959061,1772116478.9051166,-478.515625,19.53125,-141.11328125,-1000.0,0.0,0,0
1772116478.959116,1772116478.909011,855.46875,118.1640625,501.46484375,-432.6171875,0.0,0,0
1772116478.9591548,1772116478.9129052,-878.90625,33.69140625,517.08984375,883.30078125,0.0,0,0
1772116478.959193,1772116478.9167995,135.25390625,-60.546875,-151.3671875,-885.7421875,0.0,0,0
1772116478.959231,1772116478.9206939,-1000.0,-23.92578125,-591.30859375,163.57421875,0.0,0,0
1772116478.959268,1772116478.9245882,-763.18359375,23.92578125,-252.9296875,-1000.0,0.0,0,0
1772116478.959306,1772116478.9284825,582.51953125,-21.97265625,437.5,-661.62109375,0.0,0,0
1772116478.9593441,1772116478.9323766,-818.359375,-37.109375,546.38671875,716.30859375,0.0,0,0
1772116478.95938,1772116478.936271,159.1796875,-67.3828125,-81.54296875,-838.8671875,0.0,0,0
1772116479.00463,1772116478.94028,-1000.0,-94.23828125,-609.375,172.8515625,0.0,0,0
1772116479.004765,1772116478.9441743,-945.80078125,-77.63671875,-323.2421875,-1000.0,0.0,0,0
1772116479.004821,1772116478.9480686,327.1484375,-41.50390625,375.9765625,-909.66796875,0.0,0,0
1772116479.004873,1772116478.951963,-782.71484375,-47.8515625,524.90234375,397.4609375,0.0,0,0
1772116479.0053818,1772116478.9558573,162.109375,-100.09765625,-45.41015625,-787.59765625,0.0,0,0
1772116479.00544,1772116478.9597514,-1000.0,-128.41796875,-613.76953125,169.921875,0.0,0,0
1772116479.005491,1772116478.9636457,-1000.0,-104.98046875,-445.3125,-1000.0,0.0,0,0
1772116479.005543,1772116478.96754,29.296875,16.11328125,261.71875,-1000.0,0.0,0,0
1772116479.0055912,1772116478.9714344,-780.76171875,28.3203125,549.8046875,100.5859375,0.0,0,0
1772116479.005642,1772116478.9753287,299.8046875,-67.3828125,56.15234375,-773.4375,0.0,0,0
1772116479.0056908,1772116478.979223,-961.9140625,-89.35546875,-598.6328125,313.96484375,0.0,0,0
1772116479.0057411,1772116478.9831173,-1000.0,-76.171875,-528.80859375,-957.03125,0.0,0,0
1772116479.050702,1772116478.9871213,-158.69140625,-40.52734375,206.0546875,-1000.0,0.0,0,0
1772116479.0508642,1772116478.9910157,-831.54296875,-38.57421875,592.28515625,-96.6796875,0.0,0,0
1772116479.050924,1772116478.9949102,496.09375,-31.73828125,140.625,-819.3359375,0.0,0,0
1772116479.050978,1772116478.9988046,-859.375,-54.19921875,-552.24609375,510.25390625,0.0,0,0
1772116479.05103,1772116479.002699,-1000.0,-63.4765625,-570.3125,-844.23828125,0.0,0,0
1772116479.05108,1772116479.0065932,-214.35546875,-26.3671875,122.55859375,-1000.0,0.0,0,0
1772116479.0511308,1772116479.0104876,-887.6953125,54.6875,613.28125,-206.54296875,0.0,0,0
1772116479.051181,1772116479.014382,675.29296875,89.84375,255.859375,-907.2265625,0.0,0,0
1772116479.051231,1772116479.0182762,-690.91796875,-42.48046875,-439.453125,761.71875,0.0,0,0
1772116479.051284,1772116479.0221705,-1000.0,-78.61328125,-554.19921875,-594.23828125,0.0,0,0
1772116479.0513332,1772116479.0260649,-209.9609375,-16.11328125,32.2265625,-1000.0,0.0,0,0
1772116479.051383,1772116479.0299592,-965.8203125,4.8828125,581.54296875,-188.4765625,0.0,0,0
1772116479.110066,1772116479.033952,923.33984375,-15.13671875,325.1953125,-974.12109375,0.0,0,0
1772116479.110215,1772116479.0378463,-332.51953125,-40.0390625,-377.44140625,969.7265625,0.0,0,0
1772116479.110274,1772116479.0417407,-1000.0,-60.546875,-581.0546875,-261.23046875,0.0,0,0
1772116479.110338,1772116479.045635,-292.96875,-27.34375,-53.7109375,-1000.0,0.0,0,0
1772116479.1103911,1772116479.0495293,962.890625,22.4609375,569.3359375,-225.09765625,0.0,0,0
1772116479.110445,1772116479.053424,-959.47265625,-22.94921875,441.89453125,979.00390625,0.0,0,0
1772116479.110497,1772116479.0573182,-100.5859375,27.34375,-275.87890625,-941.89453125,0.0,0,0
1772116479.11055,1772116479.0612125,-1000.0,22.94921875,-611.328125,-8.30078125,0.0,0,0
1772116479.1106,1772116479.0651069,-483.3984375,-65.91796875,-163.0859375,-1000.0,0.0,0,0
1772116479.11065,1772116479.0690012,840.33203125,-9.765625,520.5078125,-400.390625,0.0,0,0
1772116479.110699,1772116479.0728955,-880.37109375,-22.94921875,483.88671875,899.90234375,0.0,0,0
1772116479.1107998,1772116479.0767899,98.14453125,-91.796875,-205.078125,-893.06640625,0.0,0,0
1772116479.1533499,1772116479.08077,-1000.0,-108.3984375,-592.28515625,151.85546875,0.0,0,0
1772116479.153474,1772116479.0846643,-670.8984375,-66.89453125,-204.58984375,-1000.0,0.0,0,0
1772116479.153517,1772116479.0885587,687.01171875,-10.7421875,476.07421875,-631.34765625,0.0,0,0
1772116479.153558,1772116479.0924532,-834.9609375,-4.39453125,540.0390625,746.09375,0.0,0,0
1772116479.1535969,1772116479.0963476,155.2734375,-65.4296875,-103.02734375,-844.7265625,0.0,0,0
1772116479.153635,1772116479.100242,-1000.0,-26.3671875,-586.42578125,177.24609375,0.0,0,0
1772116479.153672,1772116479.1041362,-940.4296875,33.69140625,-267.578125,-1000.0,0.0,0,0
1772116479.153761,1772116479.1080306,333.0078125,-29.296875,392.08984375,-881.34765625,0.0,0,0
1772116479.153804,1772116479.1119251,-785.64453125,-37.109375,528.3203125,443.359375,0.0,0,0
1772116479.153864,1772116479.1158195,163.0859375,-30.76171875,-9.27734375,-792.96875,0.0,0,0
1772116479.153902,1772116479.1197138,-1000.0,-60.546875,-578.61328125,155.76171875,0.0,0,0
1772116479.1539469,1772116479.123608,-1000.0,-63.4765625,-400.87890625,-1000.0,0.0,0,0
1772116479.198754,1772116479.127663,122.0703125,-15.13671875,292.48046875,-1000.0,0.0,0,0
1772116479.198826,1772116479.1315572,-776.85546875,-1.953125,529.78515625,126.46484375,0.0,0,0
1772116479.198865,1772116479.1354518,274.90234375,-39.55078125,61.5234375,-770.5078125,0.0,0,0
1772116479.1989021,1772116479.1393461,-980.95703125,-87.40234375,-553.7109375,269.53125,0.0,0,0
1772116479.1989398,1772116479.1432405,-1000.0,-65.4296875,-454.58984375,-977.5390625,0.0,0,0
1772116479.198978,1772116479.147135,-41.9921875,-2.44140625,257.8125,-1000.0,0.0,0,0
1772116479.1990132,1772116479.1510293,-808.59375,-0.48828125,577.63671875,-79.1015625,0.0,0,0
1772116479.199051,1772116479.1549237,486.81640625,-58.10546875,137.6953125,-806.15234375,0.0,0,0
1772116479.1990871,1772116479.158818,-851.07421875,-104.4921875,-531.25,464.35546875,0.0,0,0
1772116479.199127,1772116479.1627126,-1000.0,-44.43359375,-542.96875,-879.8828125,0.0,0,0
1772116479.199162,1772116479.166607,-186.03515625,-5.37109375,132.32421875,-1000.0,0.0,0,0
1772116479.1991968,1772116479.1705012,-903.80859375,-22.94921875,572.265625,-209.9609375,0.0,0,0
1772116479.243916,1772116479.1745431,756.8359375,-36.62109375,248.53515625,-892.08984375,0.0,0,0
1772116479.2440052,1772116479.1784377,-585.44921875,-82.51953125,-421.38671875,710.9375,0.0,0,0
1772116479.244045,1772116479.182332,-1000.0,-89.35546875,-543.45703125,-661.1328125,0.0,0,0
1772116479.244087,1772116479.1862266,-192.87109375,-40.0390625,41.015625,-1000.0,0.0,0,0
1772116479.244124,1772116479.190121,-965.8203125,7.8125,578.125,-194.3359375,0.0,0,0
1772116479.24416,1772116479.1940153,943.359375,-4.39453125,358.3984375,-964.35546875,0.0,0,0
1772116479.2441971,1772116479.1979098,-302.24609375,-50.78125,-351.07421875,940.91796875,0.0,0,0
1772116479.244234,1772116479.2018042,-1000.0,-63.4765625,-559.08203125,-322.265625,0.0,0,0
1772116479.24427,1772116479.2056987,-205.078125,39.55078125,0.48828125,-1000.0,0.0,0,0
1772116479.2443159,1772116479.209593,988.76953125,117.1875,620.60546875,-214.84375,0.0,0,0
1772116479.2443578,1772116479.2134876,-954.1015625,19.04296875,466.796875,986.328125,0.0,0,0
1772116479.244401,1772116479.217382,-28.3203125,-56.15234375,-234.375,-951.66015625,0.0,0,0
1772116479.2896159,1772116479.2214136,-1000.0,-62.01171875,-520.5078125,-54.19921875,0.0,0,0
1772116479.2897432,1772116479.2253082,-368.65234375,-22.94921875,-83.0078125,-1000.0,0.0,0,0
1772116479.289796,1772116479.2292025,913.0859375,16.11328125,563.4765625,-383.7890625,0.0,0,0
1772116479.289848,1772116479.233097,-900.87890625,-0.9765625,516.6015625,904.78515625,0.0,0,0
1772116479.2899032,1772116479.2369914,139.6484375,-51.26953125,-190.91796875,-895.99609375,0.0,0,0
1772116479.289956,1772116479.240886,-1000.0,-72.75390625,-569.3359375,137.6953125,0.0,0,0
1772116479.290011,1772116479.2447803,-632.8125,-43.45703125,-196.2890625,-1000.0,0.0,0,0
1772116479.2900631,1772116479.2486749,732.91015625,14.16015625,460.44921875,-598.14453125,0.0,0,0
1772116479.290115,1772116479.2525692,-846.6796875,105.46875,527.83203125,774.4140625,0.0,0,0
1772116479.290171,1772116479.2564638,172.36328125,31.25,-111.81640625,-851.5625,0.0,0,0
1772116479.29022,1772116479.260358,-1000.0,-101.5625,-608.3984375,182.12890625,0.0,0,0
1772116479.290273,1772116479.2642527,-824.21875,-71.77734375,-323.73046875,-1000.0,0.0,0,0
1772116479.333844,1772116479.2682703,517.08984375,0.48828125,376.46484375,-851.07421875,0.0,0,0
1772116479.3339279,1772116479.2721646,-805.6640625,11.71875,512.6953125,489.2578125,0.0,0,0
1772116479.3339798,1772116479.2760592,164.0625,-32.71484375,-73.2421875,-799.8046875,0.0,0,0
1772116479.3340318,1772116479.2799537,-1000.0,-64.94140625,-614.2578125,150.87890625,0.0,0,0
1772116479.334083,1772116479.283848,-1000.0,-46.38671875,-389.6484375,-1000.0,0.0,0,0
1772116479.334143,1772116479.2877426,202.63671875,-2.9296875,319.82421875,-1000.0,0.0,0,0
1772116479.334192,1772116479.291637,-775.390625,-12.6953125,562.5,171.875,0.0,0,0
1772116479.334241,1772116479.2955315,248.046875,-17.578125,36.1328125,-770.5078125,0.0,0,0
1772116479.3345878,1772116479.299426,-983.88671875,-33.203125,-620.1171875,243.1640625,0.0,0,0
1772116479.334645,1772116479.3033204,-1000.0,-106.4453125,-505.37109375,-988.28125,0.0,0,0
1772116479.3346949,1772116479.307215,-66.89453125,-75.68359375,188.4765625,-1000.0,0.0,0,0
1772116479.334753,1772116479.3111093,-805.17578125,-57.12890625,487.79296875,-61.5234375,0.0,0,0
1772116479.379776,1772116479.3151174,437.98828125,-104.98046875,57.12890625,-799.31640625,0.0,0,0
1772116479.379877,1772116479.3190117,-894.53125,-136.23046875,-594.23828125,437.01171875,0.0,0,0
1772116479.3799171,1772116479.3229063,-1000.0,-128.90625,-589.84375,-895.99609375,0.0,0,0
1772116479.379958,1772116479.3268008,-174.8046875,-71.77734375,103.515625,-1000.0,0.0,0,0
1772116479.3799942,1772116479.3306952,-887.6953125,-51.26953125,541.50390625,-202.1484375,0.0,0,0
1772116479.380032,1772116479.3345897,712.890625,-87.40234375,195.80078125,-881.8359375,0.0,0,0
1772116479.380061,1772116479.3384843,-638.18359375,-142.578125,-474.609375,680.17578125,0.0,0,0
1772116479.38009,1772116479.3423789,-1000.0,-0.9765625,-581.0546875,-693.359375,0.0,0,0
1772116479.3801181,1772116479.3462732,-198.2421875,35.15625,24.4140625,-1000.0,0.0,0,0
1772116479.380147,1772116479.3501678,-955.078125,-78.61328125,554.19921875,-198.73046875,0.0,0,0
1772116479.380175,1772116479.3540623,909.66796875,-78.61328125,287.59765625,-956.54296875,0.0,0,0
1772116479.380204,1772116479.3579566,-365.234375,-129.8828125,-441.89453125,914.0625,0.0,0,0
1772116479.4237142,1772116479.3619578,-1000.0,-151.85546875,-618.1640625,-366.2109375,0.0,0,0
1772116479.4237802,1772116479.3658524,-207.03125,-107.421875,-45.8984375,-1000.0,0.0,0,0
1772116479.423807,1772116479.369747,993.65234375,-30.76171875,557.12890625,-205.078125,0.0,0,0
1772116479.4238331,1772116479.3736413,-965.33203125,-34.1796875,381.8359375,993.65234375,0.0,0,0
1772116479.423858,1772116479.3775358,-85.9375,-98.14453125,-348.6328125,-962.40234375,0.0,0,0
1772116479.423883,1772116479.3814304,-1000.0,-141.11328125,-598.6328125,-83.49609375,0.0,0,0
1772116479.423907,1772116479.385325,-327.63671875,0.9765625,-89.35546875,-1000.0,0.0,0,0
1772116479.4239302,1772116479.3892193,933.59375,169.43359375,527.83203125,-359.375,0.0,0,0
1772116479.423954,1772116479.3931139,-915.0390625,11.23046875,447.265625,916.50390625,0.0,0,0
1772116479.424027,1772116479.3970084,92.7734375,-92.7734375,-226.5625,-898.92578125,0.0,0,0
1772116479.424062,1772116479.400903,-1000.0,-86.9140625,-600.5859375,90.8203125,0.0,0,0
1772116479.424087,1772116479.4047976,-544.921875,-60.546875,-186.03515625,-1000.0,0.0,0,0
1772116479.5003362,1772116479.4089713,822.75390625,-25.390625,499.51171875,-490.72265625,0.0,0,0
1772116479.500454,1772116479.4128659,-863.76953125,-36.1328125,512.6953125,795.8984375,0.0,0,0
1772116479.500512,1772116479.4167604,165.0390625,-81.54296875,-133.30078125,-859.375,0.0,0,0
1772116479.5005639,1772116479.420655,-1000.0,-83.0078125,-594.7265625,184.08203125,0.0,0,0
1772116479.500615,1772116479.4245496,-789.0625,-37.109375,-271.484375,-1000.0,0.0,0,0
1772116479.5006669,1772116479.4284441,561.03515625,4.39453125,437.5,-806.15234375,0.0,0,0
1772116479.5007172,1772116479.4323387,-812.98828125,107.91015625,544.43359375,548.33984375,0.0,0,0
1772116479.5007691,1772116479.4362333,158.203125,50.78125,-71.77734375,-809.08203125,0.0,0,0
1772116479.500819,1772116479.4401278,-1000.0,-95.21484375,-613.28125,155.2734375,0.0,0,0
1772116479.500869,1772116479.4440224,-981.93359375,-56.640625,-372.55859375,-1000.0,0.0,0,0
1772116479.500917,1772116479.447917,254.8828125,4.39453125,336.9140625,-1000.0,0.0,0,0
1772116479.5009658,1772116479.4518116,-777.83203125,-0.9765625,559.08203125,217.7734375,0.0,0,0
1772116479.5302458,1772116479.4558022,216.796875,-61.5234375,28.80859375,-772.94921875,0.0,0,0
1772116479.530354,1772116479.4596968,-1000.0,-87.40234375,-596.19140625,228.02734375,0.0,0,0
1772116479.530414,1772116479.4635913,-1000.0,-56.640625,-460.9375,-1000.0,0.0,0,0
1772116479.5304651,1772116479.467486,-17.08984375,-21.484375,241.69921875,-1000.0,0.0,0,0
1772116479.530515,1772116479.4713805,-797.8515625,-7.32421875,549.31640625,-8.30078125,0.0,0,0
1772116479.530567,1772116479.475275,438.4765625,-50.78125,104.00390625,-789.0625,0.0,0,0
1772116479.5306182,1772116479.4791696,-886.71875,-110.83984375,-549.8046875,407.2265625,0.0,0,0
1772116479.530668,1772116479.4830642,-1000.0,-110.3515625,-530.2734375,-908.69140625,0.0,0,0
1772116479.5307178,1772116479.4869587,-177.734375,-54.6875,138.671875,-1000.0,0.0,0,0
1772116479.5307672,1772116479.4908533,-864.2578125,-22.4609375,563.4765625,-178.7109375,0.0,0,0
1772116479.530816,1772116479.4947479,613.76953125,-44.921875,201.66015625,-866.2109375,0.0,0,0
1772116479.530876,1772116479.4986424,-751.46484375,-68.359375,-482.421875,639.16015625,0.0,0,0
1772116479.57439,1772116479.5026941,-1000.0,-109.375,-559.08203125,-733.3984375,0.0,0,0
1772116479.574472,1772116479.506589,-205.078125,134.765625,63.96484375,-1000.0,0.0,0,0
1772116479.57451,1772116479.5104835,-937.5,244.62890625,566.40625,-205.078125,0.0,0,0
1772116479.574547,1772116479.514378,850.5859375,-42.48046875,261.71875,-943.359375,0.0,0,0
1772116479.5745852,1772116479.5182726,-458.984375,-104.00390625,-443.359375,873.046875,0.0,0,0
1772116479.574622,1772116479.5221672,-1000.0,-57.12890625,-600.09765625,-435.546875,0.0,0,0
1772116479.5746582,1772116479.5260618,-207.03125,-37.109375,-44.921875,-1000.0,0.0,0,0
1772116479.5746932,1772116479.5299566,-999.51171875,-44.43359375,548.33984375,-189.94140625,0.0,0,0
1772116479.574731,1772116479.5338511,-988.28125,-47.8515625,360.83984375,-994.62890625,0.0,0,0
1772116479.574767,1772116479.5377457,-134.27734375,81.0546875,-328.125,-979.98046875,0.0,0,0
1772116479.5748029,1772116479.5416403,-1000.0,26.85546875,-572.265625,-136.23046875,0.0,0,0
1772116479.574838,1772116479.5455348,-328.125,-66.89453125,-96.6796875,-1000.0,0.0,0,0
1772116479.6189141,1772116479.5495756,933.59375,22.94921875,543.45703125,-307.12890625,0.0,0,0
1772116479.619023,1772116479.5534701,-916.9921875,21.484375,452.63671875,940.4296875,0.0,0,0
1772116479.619066,1772116479.5573647,63.96484375,-60.05859375,-231.93359375,-916.015625,0.0,0,0
1772116479.619105,1772116479.5612593,-1000.0,-94.7265625,-562.5,81.0546875,0.0,0,0
1772116479.6191418,1772116479.565154,-521.97265625,-38.0859375,-159.66796875,-1000.0,0.0,0,0
1772116479.6191812,1772116479.5690486,824.21875,6.8359375,499.0234375,-506.34765625,0.0,0,0
1772116479.6192188,1772116479.5729432,-869.62890625,-30.76171875,499.51171875,844.23828125,0.0,0,0
1772116479.619257,1772116479.5768378,149.4140625,-128.41796875,-181.15234375,-870.1171875,0.0,0,0
1772116479.619295,1772116479.5807326,-1000.0,10.7421875,-632.8125,178.7109375,0.0,0,0
1772116479.619332,1772116479.5846272,-783.69140625,166.9921875,-287.109375,-1000.0,0.0,0,0
1772116479.61937,1772116479.5885217,560.546875,11.23046875,416.50390625,-764.6484375,0.0,0,0
1772116479.619406,1772116479.5924165,-813.4765625,-36.62109375,523.92578125,602.05078125,0.0,0,0
1772116479.663399,1772116479.5964425,171.875,-33.203125,-46.875,-817.87109375,0.0,0,0
1772116479.663452,1772116479.600337,-1000.0,-50.29296875,-561.03515625,160.64453125,0.0,0,0
1772116479.6634722,1772116479.6042316,-962.40234375,-44.921875,-338.37890625,-1000.0,0.0,0,0
1772116479.663488,1772116479.6081264,289.55078125,-7.8125,351.5625,-975.09765625,0.0,0,0
1772116479.663504,1772116479.612021,-781.73828125,17.08984375,540.0390625,284.1796875,0.0,0,0
1772116479.663588,1772116479.6159158,227.05078125,-4.8828125,20.01953125,-775.390625,0.0,0,0
1772116479.6636102,1772116479.6198103,-1000.0,-59.08203125,-575.68359375,193.84765625,0.0,0,0
1772116479.663625,1772116479.623705,-1000.0,-83.49609375,-442.87109375,-1000.0,0.0,0,0
1772116479.663639,1772116479.6275997,27.34375,213.8671875,242.67578125,-1000.0,0.0,0,0
1772116479.6636539,1772116479.6314943,-790.0390625,208.49609375,510.25390625,8.7890625,0.0,0,0
1772116479.663714,1772116479.6353889,395.99609375,-106.4453125,77.1484375,-781.73828125,0.0,0,0
1772116479.663751,1772116479.6392837,-908.203125,-127.44140625,-548.828125,362.3046875,0.0,0,0
1772116479.708399,1772116479.6432984,-1000.0,-72.265625,-513.671875,-933.10546875,0.0,0,0
1772116479.708439,1772116479.647193,-158.203125,-44.43359375,159.1796875,-1000.0,0.0,0,0
1772116479.708454,1772116479.6510878,-875.0,-30.76171875,526.3671875,-174.31640625,0.0,0,0
1772116479.708467,1772116479.6549823,673.828125,-1.953125,165.0390625,-841.30859375,0.0,0,0
1772116479.708479,1772116479.6588771,-676.26953125,-34.1796875,-472.16796875,560.546875,0.0,0,0
1772116479.708491,1772116479.6627717,-1000.0,-45.41015625,-521.484375,-829.58984375,0.0,0,0
1772116479.708502,1772116479.6666665,-202.63671875,-62.01171875,91.30859375,-1000.0,0.0,0,0
1772116479.708514,1772116479.670561,-931.15234375,168.9453125,544.921875,-212.890625,0.0,0,0
1772116479.708525,1772116479.674456,832.51953125,331.54296875,224.12109375,-930.6640625,0.0,0,0
1772116479.708537,1772116479.6783504,-481.4453125,-20.01953125,-436.5234375,828.125,0.0,0,0
1772116479.708603,1772116479.682245,-1000.0,-110.83984375,-574.70703125,-508.7890625,0.0,0,0
1772116479.708618,1772116479.6861398,-208.49609375,-39.55078125,-33.203125,-1000.0,0.0,0,0
1772116479.754082,1772116479.6901426,-1000.0,-18.06640625,495.1171875,-189.453125,0.0,0,0
1772116479.754129,1772116479.6940374,-989.74609375,-53.7109375,299.31640625,-967.28515625,0.0,0,0
1772116479.754147,1772116479.697932,-133.7890625,-116.2109375,-371.09375,946.77734375,0.0,0,0
1772116479.754163,1772116479.7018268,-1000.0,-108.3984375,-595.703125,-271.484375,0.0,0,0
1772116479.754178,1772116479.7057214,-391.6015625,-77.63671875,-142.08984375,-1000.0,0.0,0,0
1772116479.7541928,1772116479.7096162,899.90234375,-69.82421875,442.3828125,-282.2265625,0.0,0,0
1772116479.75421,1772116479.7135108,-903.80859375,-88.37890625,355.95703125,950.1953125,0.0,0,0
1772116479.7542248,1772116479.7174056,71.77734375,119.62890625,-298.33984375,-924.8046875,0.0,0,0
1772116479.75424,1772116479.7213001,-1000.0,94.23828125,-604.4921875,41.9921875,0.0,0,0
1772116479.754254,1772116479.725195,-580.078125,-119.140625,-213.37890625,-1000.0,0.0,0,0
1772116479.754268,1772116479.7290895,769.04296875,-48.33984375,423.33984375,-481.4453125,0.0,0,0
1772116479.754283,1772116479.7329843,-857.91015625,-36.62109375,435.546875,856.93359375,0.0,0,0
1772116479.798413,1772116479.7369752,156.73828125,-92.7734375,-198.2421875,-874.51171875,0.0,0,0
1772116479.7984672,1772116479.74087,-1000.0,-121.58203125,-599.12109375,175.78125,0.0,0,0
1772116479.7984881,1772116479.7447646,-766.11328125,-61.5234375,-267.578125,-1000.0,0.0,0,0
1772116479.798506,1772116479.7486594,580.078125,4.39453125,369.140625,-738.28125,0.0,0,0
1772116479.798523,1772116479.752554,-813.4765625,-10.7421875,455.56640625,634.27734375,0.0,0,0
1772116479.79854,1772116479.7564487,166.50390625,-135.7421875,-92.28515625,-822.75390625,0.0,0,0
1772116479.798557,1772116479.7603436,-1000.0,70.80078125,-592.28515625,163.0859375,0.0,0,0
1772116479.7985752,1772116479.764238,-1000.0,338.8671875,-368.65234375,-1000.0,0.0,0,0
1772116479.798591,1772116479.768133,106.4453125,37.109375,289.55078125,-963.37890625,0.0,0,0
1772116479.7986088,1772116479.7720275,-780.2734375,-50.29296875,475.5859375,305.17578125,0.0,0,0
1772116479.798626,1772116479.7759223,253.41796875,-43.9453125,-7.32421875,-777.83203125,0.0,0,0
1772116479.7986429,1772116479.779817,-1000.0,-105.95703125,-573.2421875,183.10546875,0.0,0,0
1772116479.843437,1772116479.7838023,-1000.0,-86.9140625,-424.8046875,-1000.0,0.0,0,0
1772116479.8434849,1772116479.787697,7.32421875,-20.01953125,251.953125,-1000.0,0.0,0,0
1772116479.843509,1772116479.7915916,-801.7578125,-7.32421875,508.7890625,42.48046875,0.0,0,0
1772116479.843529,1772116479.7954865,447.265625,-39.55078125,73.73046875,-777.83203125,0.0,0,0
1772116479.843553,1772116479.7993813,-876.46484375,-60.546875,-547.36328125,346.19140625,0.0,0,0
1772116479.843574,1772116479.8032758,-1000.0,-82.51953125,-488.76953125,-939.94140625,0.0,0,0
1772116479.843594,1772116479.8071706,-132.8125,307.6171875,179.19921875,-1000.0,0.0,0,0
1772116479.843613,1772116479.8110654,-854.98046875,333.49609375,528.3203125,-154.296875,0.0,0,0
1772116479.843633,1772116479.81496,605.95703125,-66.89453125,150.390625,-842.7734375,0.0,0,0
1772116479.8436532,1772116479.8188548,-747.0703125,-73.2421875,-469.7265625,568.359375,0.0,0,0
1772116479.843672,1772116479.8227496,-1000.0,-41.50390625,-491.2109375,-802.24609375,0.0,0,0
1772116479.843692,1772116479.8266442,-202.1484375,-14.6484375,112.3046875,-1000.0,0.0,0,0
1772116479.904619,1772116479.8306136,-936.03515625,6.34765625,560.546875,-207.51953125,0.0,0,0
1772116479.904707,1772116479.8345082,844.7265625,12.6953125,264.6484375,-925.29296875,0.0,0,0
1772116479.9047449,1772116479.838403,-456.54296875,-15.13671875,-406.25,817.3828125,0.0,0,0
1772116479.904779,1772116479.8422978,-1000.0,-16.11328125,-520.5078125,-520.5078125,0.0,0,0
1772116479.904809,1772116479.8461926,-251.953125,-79.1015625,17.578125,-1000.0,0.0,0,0
1772116479.904842,1772116479.8500872,-999.51171875,125.9765625,538.0859375,-184.5703125,0.0,0,0
1772116479.904872,1772116479.853982,981.93359375,394.04296875,368.1640625,-979.00390625,0.0,0,0
1772116479.904902,1772116479.8578768,-226.07421875,49.31640625,-312.01171875,986.81640625,0.0,0,0
1772116479.904931,1772116479.8617713,-1000.0,-88.8671875,-554.19921875,-220.21484375,0.0,0,0
1772116479.9049711,1772116479.8656662,-322.265625,20.01953125,-57.6171875,-1000.0,0.0,0,0
1772116479.905,1772116479.869561,934.5703125,41.50390625,565.91796875,-260.25390625,0.0,0,0
1772116479.9050298,1772116479.8734558,-922.36328125,-1.953125,450.1953125,961.9140625,0.0,0,0
1772116479.9493382,1772116479.8775117,28.3203125,-24.90234375,-227.05078125,-931.15234375,0.0,0,0
1772116479.949462,1772116479.8814065,-1000.0,-22.4609375,-528.80859375,22.94921875,0.0,0,0
1772116479.9495199,1772116479.8853014,-527.34375,3.41796875,-133.7890625,-1000.0,0.0,0,0
1772116479.949572,1772116479.889196,807.6171875,37.59765625,514.6484375,-442.3828125,0.0,0,0
1772116479.949624,1772116479.8930907,-865.234375,29.296875,509.27734375,878.41796875,0.0,0,0
1772116479.949683,1772116479.8969855,166.015625,54.6875,-135.25390625,-883.7890625,0.0,0,0
1772116479.949734,1772116479.9008803,-1000.0,22.94921875,-549.8046875,165.0390625,0.0,0,0
1772116479.949844,1772116479.9047751,-770.01953125,-34.66796875,-223.14453125,-1000.0,0.0,0,0
1772116479.94992,1772116479.90867,580.078125,19.53125,458.0078125,-664.55078125,0.0,0,0
1772116479.949974,1772116479.9125645,-819.82421875,236.328125,541.50390625,712.890625,0.0,0,0
1772116479.950028,1772116479.9164593,163.0859375,137.6953125,-57.12890625,-838.37890625,0.0,0,0
1772116479.95008,1772116479.9203541,-1000.0,-64.94140625,-565.4296875,173.33984375,0.0,0,0
1772116479.9943979,1772116479.9243946,-915.0390625,-0.9765625,-326.66015625,-1000.0,0.0,0,0
1772116479.994529,1772116479.9282894,374.51171875,47.8515625,378.41796875,-903.80859375,0.0,0,0
1772116479.994588,1772116479.9321842,-787.59765625,6.34765625,551.7578125,405.2734375,0.0,0,0
1772116479.994643,1772116479.936079,192.3828125,-54.19921875,-5.859375,-788.57421875,0.0,0,0
1772116479.994695,1772116479.9399738,-1000.0,-38.57421875,-574.70703125,167.48046875,0.0,0,0
1772116479.994756,1772116479.9438686,-1000.0,3.41796875,-382.32421875,-1000.0,0.0,0,0
1772116479.9948092,1772116479.9477632,88.8671875,26.3671875,301.7578125,-1000.0,0.0,0,0
1772116479.994859,1772116479.951658,-779.78515625,-25.390625,532.71484375,95.703125,0.0,0,0
1772116479.99491,1772116479.9555528,305.6640625,138.671875,61.03515625,-773.4375,0.0,0,0
1772116479.994959,1772116479.9594476,-958.984375,256.8359375,-551.7578125,301.26953125,0.0,0,0
1772116479.9950101,1772116479.9633424,-1000.0,-20.5078125,-472.65625,-963.37890625,0.0,0,0
1772116479.995059,1772116479.9672372,-109.375,-46.38671875,221.6796875,-1000.0,0.0,0,0
1772116480.03887,1772116479.9712653,-821.77734375,9.765625,577.1484375,-95.21484375,0.0,0,0
1772116480.038961,1772116479.9751601,481.93359375,-21.97265625,178.7109375,-816.89453125,0.0,0,0
1772116480.0390038,1772116479.979055,-862.79296875,-85.44921875,-482.91015625,500.0,0.0,0,0
1772116480.039042,1772116479.98295,-1000.0,-97.16796875,-524.4140625,-852.5390625,0.0,0,0
1772116480.0393019,1772116479.9868448,-192.87109375,-30.2734375,119.62890625,-1000.0,0.0,0,0
1772116480.039343,1772116479.9907396,-896.484375,10.25390625,581.54296875,-207.51953125,0.0,0,0
1772116480.039381,1772116479.9946344,728.02734375,-21.97265625,270.01953125,-902.34375,0.0,0,0
1772116480.03943,1772116479.9985292,-624.0234375,-82.03125,-427.24609375,743.65234375,0.0,0,0
1772116480.039467,1772116480.002424,-1000.0,164.0625,-544.921875,-617.1875,0.0,0,0
1772116480.039501,1772116480.0063188,-195.3125,179.6875,62.01171875,-1000.0,0.0,0,0
1772116480.0395362,1772116480.0102136,-961.9140625,-44.921875,590.8203125,-189.94140625,0.0,0,0
1772116480.039573,1772116480.0141084,927.24609375,-17.08984375,346.19140625,-971.6796875,0.0,0,0
1772116480.100075,1772116480.0182228,-327.1484375,-31.25,-355.46875,962.890625,0.0,0,0
1772116480.100209,1772116480.0221176,-1000.0,-73.2421875,-554.6875,-276.3671875,0.0,0,0
1772116480.1002638,1772116480.0260124,-232.91015625,-53.7109375,-28.80859375,-1000.0,0.0,0,0
1772116480.100318,1772116480.0299072,983.88671875,21.484375,576.66015625,-217.28515625,0.0,0,0
1772116480.100369,1772116480.0338023,-960.44921875,15.625,434.08203125,983.88671875,0.0,0,0
1772116480.10042,1772116480.037697,-73.2421875,-43.45703125,-259.27734375,-947.265625,0.0,0,0
1772116480.10047,1772116480.041592,-1000.0,-108.88671875,-548.828125,-29.296875,0.0,0,0
1772116480.100519,1772116480.0454867,-364.2578125,141.6015625,-120.1171875,-1000.0,0.0,0,0
1772116480.100568,1772116480.0493815,916.50390625,367.67578125,513.18359375,-392.08984375,0.0,0,0
1772116480.1006138,1772116480.0532763,-904.78515625,35.15625,485.83984375,902.34375,0.0,0,0
1772116480.10065,1772116480.0571713,106.93359375,-93.26171875,-172.36328125,-894.53125,0.0,0,0
1772116480.100686,1772116480.0610662,-1000.0,-60.05859375,-556.15234375,144.53125,0.0,0,0
1772116480.1301382,1772116480.0650713,-561.03515625,-46.875,-204.58984375,-1000.0,0.0,0,0
1772116480.130871,1772116480.0689662,797.8515625,-29.78515625,461.42578125,-602.05078125,0.0,0,0
1772116480.1310668,1772116480.0728612,-860.3515625,-33.203125,521.97265625,772.94921875,0.0,0,0
1772116480.131142,1772116480.076756,179.6875,-70.80078125,-105.46875,-851.5625,0.0,0,0
1772116480.131233,1772116480.0806508,-1000.0,-94.23828125,-569.3359375,181.640625,0.0,0,0
1772116480.131326,1772116480.0845456,-770.5078125,-73.73046875,-265.13671875,-1000.0,0.0,0,0
1772116480.131399,1772116480.0884407,587.890625,-24.90234375,407.2265625,-852.5390625,0.0,0,0
1772116480.131513,1772116480.0923355,-818.84765625,-12.6953125,519.53125,486.81640625,0.0,0,0
1772116480.1316202,1772116480.0962303,164.0625,-37.59765625,-42.96875,-799.8046875,0.0,0,0
1772116480.1324968,1772116480.100125,-1000.0,-93.75,-577.63671875,150.87890625,0.0,0,0
1772116480.13258,1772116480.10402,-946.77734375,-51.7578125,-364.2578125,-1000.0,0.0,0,0
1772116480.132621,1772116480.107915,327.1484375,239.74609375,336.42578125,-1000.0,0.0,0,0
1772116480.1871731,1772116480.1119082,-781.25,166.9921875,559.08203125,169.921875,0.0,0,0
1772116480.187215,1772116480.115803,212.890625,-75.68359375,46.38671875,-771.484375,0.0,0,0
1772116480.1872299,1772116480.119698,-1000.0,-68.359375,-578.125,253.41796875,0.0,0,0
1772116480.187243,1772116480.1235929,-1000.0,-46.875,-469.23828125,-987.79296875,0.0,0,0
1772116480.187256,1772116480.1274877,32.71484375,-4.39453125,205.56640625,-1000.0,0.0,0,0
1772116480.187306,1772116480.1313827,-786.62109375,-38.57421875,539.0625,-37.59765625,0.0,0,0
1772116480.187337,1772116480.1352775,397.94921875,107.421875,149.90234375,-796.38671875,0.0,0,0
1772116480.1873531,1772116480.1391723,-911.62109375,256.8359375,-529.296875,432.6171875,0.0,0,0
1772116480.187367,1772116480.1430674,-1000.0,-13.671875,-540.0390625,-895.99609375,0.0,0,0
1772116480.187409,1772116480.1469622,-146.484375,-67.87109375,140.625,-1000.0,0.0,0,0
1772116480.187424,1772116480.1508572,-842.7734375,-7.32421875,559.08203125,-197.75390625,0.0,0,0
1772116480.187438,1772116480.154752,554.19921875,-57.6171875,215.33203125,-880.37109375,0.0,0,0
1772116480.218209,1772116480.1587307,-809.5703125,-121.58203125,-463.37890625,676.26953125,0.0,0,0
1772116480.21824,1772116480.1626258,-1000.0,-99.609375,-553.7109375,-695.80078125,0.0,0,0
1772116480.218252,1772116480.1665206,-207.51953125,-28.80859375,60.05859375,-1000.0,0.0,0,0
1772116480.218261,1772116480.1704154,-919.921875,5.859375,577.1484375,-199.21875,0.0,0,0
1772116480.218271,1772116480.1743104,796.875,-36.62109375,301.7578125,-955.56640625,0.0,0,0
1772116480.2182798,1772116480.1782053,-542.48046875,-82.03125,-375.9765625,913.0859375,0.0,0,0
1772116480.2183099,1772116480.1821003,-1000.0,10.7421875,-559.08203125,-369.62890625,0.0,0,0
1772116480.218333,1772116480.185995,-200.1953125,31.73828125,-40.0390625,-1000.0,0.0,0,0
1772116480.218344,1772116480.18989,-984.86328125,-26.85546875,561.03515625,-201.66015625,0.0,0,0
1772116480.218354,1772116480.193785,983.88671875,-15.625,383.7890625,996.58203125,0.0,0,0
1772116480.2183628,1772116480.1976798,-221.19140625,32.71484375,-318.84765625,-965.8203125,0.0,0,0
1772116480.218373,1772116480.2015748,-1000.0,-41.015625,-582.51953125,-95.703125,0.0,0,0
1772116480.278742,1772116480.2055426,-272.4609375,-81.0546875,-120.1171875,-1000.0,0.0,0,0
1772116480.278771,1772116480.2094376,958.984375,-13.18359375,528.80859375,-333.984375,0.0,0,0
1772116480.278781,1772116480.2133324,-932.12890625,-4.39453125,469.7265625,929.6875,0.0,0,0
1772116480.278792,1772116480.2172275,9.27734375,-31.25,-238.28125,-910.15625,0.0,0,0
1772116480.278801,1772116480.2211223,-1000.0,-89.35546875,-593.75,94.23828125,0.0,0,0
1772116480.278809,1772116480.2250173,-424.8046875,72.75390625,-168.45703125,-1000.0,0.0,0,0
1772116480.278817,1772116480.228912,891.6015625,289.55078125,497.55859375,-537.59765625,0.0,0,0
1772116480.278826,1772116480.2328072,-892.578125,49.8046875,485.83984375,819.82421875,0.0,0,0
1772116480.2788339,1772116480.236702,122.0703125,-123.53515625,-223.14453125,-863.76953125,0.0,0,0
1772116480.278843,1772116480.2405968,-1000.0,-99.609375,-670.8984375,179.6875,0.0,0,0
1772116480.278851,1772116480.2444918,-687.5,-60.05859375,-304.19921875,-1000.0,0.0,0,0
1772116480.278859,1772116480.2483866,675.29296875,-37.59765625,394.53125,-794.43359375,0.0,0,0
1772116480.32493,1772116480.2524385,-832.51953125,-37.109375,502.9296875,562.01171875,0.0,0,0
1772116480.324966,1772116480.2563336,167.48046875,-62.5,-75.68359375,-811.5234375,0.0,0,0
1772116480.3249779,1772116480.2602284,-1000.0,-79.1015625,-611.81640625,156.73828125,0.0,0,0
1772116480.3249888,1772116480.2641234,-917.96875,-54.6875,-378.90625,-1000.0,0.0,0,0
1772116480.3249989,1772116480.2680185,382.32421875,-3.41796875,331.54296875,-998.046875,0.0,0,0
1772116480.3250089,1772116480.2719133,-788.57421875,42.48046875,546.875,238.76953125,0.0,0,0
1772116480.325019,1772116480.2758083,147.4609375,-27.83203125,-6.34765625,-772.4609375,0.0,0,0
1772116480.3250291,1772116480.2797031,-1000.0,-127.9296875,-653.80859375,198.2421875,0.0,0,0
1772116480.3250382,1772116480.2835982,-1000.0,-98.14453125,-498.046875,-1000.0,0.0,0,0
1772116480.3250492,1772116480.287493,122.55859375,5.859375,239.74609375,-1000.0,0.0,0,0
1772116480.325058,1772116480.291388,-770.99609375,0.0,514.16015625,-16.6015625,0.0,0,0
1772116480.325068,1772116480.2952828,246.58203125,-78.61328125,40.52734375,-786.62109375,0.0,0,0
1772116480.413013,1772116480.2995014,-982.421875,-113.76953125,-607.91015625,375.0,0.0,0,0
1772116480.413057,1772116480.3033965,-1000.0,-105.95703125,-568.359375,-927.24609375,0.0,0,0
1772116480.4130728,1772116480.3072915,-121.58203125,-71.2890625,137.6953125,-1000.0,0.0,0,0
1772116480.413086,1772116480.3111866,-812.5,-39.55078125,543.45703125,-186.03515625,0.0,0,0
1772116480.4131,1772116480.3150816,440.4296875,-42.96875,184.08203125,-856.93359375,0.0,0,0
1772116480.413113,1772116480.3189764,-899.90234375,-77.1484375,-484.375,601.07421875,0.0,0,0
1772116480.413126,1772116480.3228714,-1000.0,-75.68359375,-561.5234375,-775.390625,0.0,0,0
1772116480.413188,1772116480.3267665,-212.890625,-17.578125,79.58984375,-1000.0,0.0,0,0
1772116480.413204,1772116480.3306615,-887.20703125,27.83203125,577.1484375,-208.49609375,0.0,0,0
1772116480.4132748,1772116480.3345563,687.5,-14.16015625,255.37109375,-939.453125,0.0,0,0
1772116480.413289,1772116480.3384514,-684.5703125,-86.9140625,-450.68359375,860.83984375,0.0,0,0
1772116480.413302,1772116480.3423464,-1000.0,-94.23828125,-612.3046875,-456.54296875,0.0,0,0
1772116480.4150321,1772116480.3463829,-197.75390625,-40.52734375,-24.90234375,-1000.0,0.0,0,0
1772116480.415058,1772116480.350278,-958.984375,3.41796875,570.80078125,-189.94140625,0.0,0,0
1772116480.415073,1772116480.3541727,919.921875,-19.04296875,363.28125,-992.1875,0.0,0,0
1772116480.415086,1772116480.3580678,-354.4921875,-54.19921875,-330.56640625,-985.3515625,0.0,0,0
1772116480.4150999,1772116480.3619628,-1000.0,-58.59375,-556.15234375,-152.34375,0.0,0,0
1772116480.415112,1772116480.3658578,-209.9609375,20.99609375,-4.39453125,-1000.0,0.0,0,0
1772116480.415125,1772116480.369753,996.58203125,131.8359375,652.34375,-305.6640625,0.0,0,0
1772116480.415138,1772116480.373648,-972.65625,77.1484375,499.51171875,943.359375,0.0,0,0
1772116480.415159,1772116480.377543,-111.328125,-47.8515625,-248.046875,-918.9453125,0.0,0,0
1772116480.415173,1772116480.381438,-1000.0,-64.453125,-592.7734375,56.15234375,0.0,0,0
1772116480.415185,1772116480.3853328,-362.79296875,-18.06640625,-161.62109375,-1000.0,0.0,0,0
1772116480.4151978,1772116480.3892279,915.0390625,21.484375,510.7421875,-492.1875,0.0,0,0
1772116480.458696,1772116480.3932438,-906.25,4.8828125,501.953125,852.5390625,0.0,0,0
1772116480.45874,1772116480.3971388,88.37890625,-55.17578125,-191.40625,-873.046875,0.0,0,0
1772116480.4587572,1772116480.4010339,-1000.0,-85.9375,-640.625,175.78125,0.0,0,0
1772116480.45877,1772116480.404929,-546.875,-30.2734375,-271.484375,-1000.0,0.0,0,0
1772116480.458783,1772116480.408824,809.5703125,35.64453125,420.41015625,-746.09375,0.0,0,0
1772116480.458796,1772116480.412719,-861.328125,15.625,517.578125,625.0,0.0,0,0
1772116480.4588091,1772116480.416614,172.36328125,-54.6875,-90.33203125,-821.2890625,0.0,0,0
1772116480.4588218,1772116480.420509,-1000.0,-20.5078125,-649.90234375,162.109375,0.0,0,0
1772116480.458835,1772116480.4244041,-863.28125,82.51953125,-397.4609375,-1000.0,0.0,0,0
1772116480.458848,1772116480.4282992,466.30859375,31.73828125,330.078125,-970.21484375,0.0,0,0
1772116480.458861,1772116480.4321942,-798.828125,3.41796875,536.62109375,294.921875,0.0,0,0
1772116480.4588742,1772116480.4360893,153.80859375,-20.01953125,-26.3671875,-776.3671875,0.0,0,0
1772116480.503825,1772116480.4400978,-1000.0,-72.75390625,-640.13671875,186.03515625,0.0,0,0
1772116480.50386,1772116480.4439929,-1000.0,-62.98828125,-455.078125,-1000.0,0.0,0,0
1772116480.5038779,1772116480.447888,215.33203125,-2.9296875,291.9921875,-1000.0,0.0,0,0
1772116480.503909,1772116480.451783,-772.94921875,8.30078125,569.82421875,33.203125,0.0,0,0
1772116480.503944,1772116480.455678,205.56640625,-48.33984375,71.2890625,-779.296875,0.0,0,0
1772116480.503993,1772116480.459573,-1000.0,-70.3125,-562.5,355.46875,0.0,0,0
1772116480.504021,1772116480.463468,-1000.0,-69.3359375,-499.51171875,-935.05859375,0.0,0,0
1772116480.50404,1772116480.467363,-53.22265625,105.95703125,169.921875,-1000.0,0.0,0,0
1772116480.5040581,1772116480.4712582,-794.43359375,124.0234375,541.50390625,-162.109375,0.0,0,0
1772116480.5041192,1772116480.4751532,395.01953125,-61.03515625,133.30078125,-845.703125,0.0,0,0
1772116480.504155,1772116480.4790483,-918.45703125,-85.9375,-527.34375,575.68359375,0.0,0,0
1772116480.504173,1772116480.4829435,-1000.0,-62.98828125,-548.828125,-797.8515625,0.0,0,0
1772116480.5483499,1772116480.486937,-196.2890625,-31.25,90.33203125,-1000.0,0.0,0,0
1772116480.548409,1772116480.490832,-868.65234375,-17.578125,566.89453125,-208.984375,0.0,0,0
1772116480.548439,1772116480.4947271,632.32421875,-41.50390625,236.328125,-928.22265625,0.0,0,0
1772116480.548465,1772116480.4986222,-741.69921875,-97.65625,-468.26171875,826.66015625,0.0,0,0
1772116480.5484889,1772116480.5025175,-1000.0,-109.86328125,-601.07421875,-509.765625,0.0,0,0
1772116480.5485141,1772116480.5064125,-206.54296875,-75.68359375,5.37109375,-1000.0,0.0,0,0
1772116480.548537,1772116480.5103076,-934.08203125,24.90234375,566.89453125,-183.59375,0.0,0,0
1772116480.5485618,1772116480.5142026,840.8203125,64.453125,302.24609375,-981.4453125,0.0,0,0
1772116480.548586,1772116480.5180976,-482.421875,-85.44921875,-415.0390625,992.67578125,0.0,0,0
1772116480.5486112,1772116480.5219927,-1000.0,-129.8828125,-619.62890625,-205.078125,0.0,0,0
1772116480.548634,1772116480.5258877,-192.3828125,-77.1484375,-93.26171875,-1000.0,0.0,0,0
1772116480.548686,1772116480.5297828,-995.1171875,-17.578125,555.17578125,-276.85546875,0.0,0,0
1772116480.609004,1772116480.533767,-984.375,-22.94921875,450.1953125,956.0546875,0.0,0,1
1772116480.6091251,1772116480.537662,-146.97265625,-66.40625,-261.71875,-928.7109375,0.0,0,0
1772116480.6091578,1772116480.5415573,-1000.0,-78.61328125,-582.51953125,25.390625,0.0,0,0
1772116480.609184,1772116480.5454524,-302.734375,-46.38671875,-135.25390625,-1000.0,0.0,0,0
1772116480.609208,1772116480.5493474,948.73046875,-0.48828125,530.2734375,-471.19140625,0.0,0,0
1772116480.609233,1772116480.5532424,-926.26953125,-1.953125,527.34375,862.79296875,0.0,0,0
1772116480.609257,1772116480.5571375,24.90234375,31.73828125,-197.265625,-877.9296875,0.0,0,0
1772116480.609281,1772116480.5610325,-1000.0,-30.2734375,-673.828125,162.109375,0.0,0,0
1772116480.609304,1772116480.5649278,-519.04296875,-128.41796875,-312.01171875,-1000.0,0.0,0,0
1772116480.609328,1772116480.5688229,826.171875,-72.265625,380.37109375,-717.7734375,0.0,0,0
1772116480.6093519,1772116480.572718,-869.140625,-60.05859375,464.84375,654.296875,0.0,0,0
1772116480.609376,1772116480.576613,151.3671875,-123.53515625,-189.94140625,-826.66015625,0.0,0,0
1772116480.699178,1772116480.5809355,-1000.0,-165.52734375,-700.68359375,166.015625,0.0,0,0
1772116480.699297,1772116480.5848305,-738.28125,-128.90625,-400.390625,-1000.0,0.0,0,0
1772116480.699341,1772116480.5887258,627.44140625,-88.8671875,295.8984375,-945.3125,0.0,0,0
1772116480.6993809,1772116480.5926208,-822.265625,-76.171875,458.984375,335.9375,0.0,0,0
1772116480.699418,1772116480.5965161,163.0859375,-124.0234375,-124.51171875,-780.76171875,0.0,0,0
1772116480.6994581,1772116480.6004112,-1000.0,-80.078125,-694.82421875,180.17578125,0.0,0,0
1772116480.699494,1772116480.6043065,-960.9375,25.87890625,-468.26171875,-1000.0,0.0,0,0
1772116480.699531,1772116480.6082015,308.59375,-49.8046875,224.12109375,-1000.0,0.0,0,0
1772116480.699567,1772116480.6120968,-779.296875,-93.75,454.58984375,47.36328125,0.0,0,0
1772116480.6996238,1772116480.6159918,184.5703125,-64.94140625,-16.6015625,-776.85546875,0.0,0,0
1772116480.699669,1772116480.619887,-1000.0,-92.28515625,-641.11328125,328.125,0.0,0,0
1772116480.699706,1772116480.6237822,-1000.0,-120.1171875,-549.8046875,-950.68359375,0.0,0,0
1772116480.700952,1772116480.6278448,57.6171875,-59.5703125,166.9921875,-1000.0,0.0,0,0
1772116480.700989,1772116480.63174,-777.34375,-39.55078125,520.99609375,-130.859375,0.0,0,0
1772116480.701021,1772116480.6356354,321.77734375,-66.89453125,115.234375,-832.51953125,0.0,0,0
1772116480.701051,1772116480.6395304,-948.73046875,-107.421875,-554.6875,543.9453125,0.0,0,0
1772116480.70108,1772116480.6434257,-1000.0,-103.515625,-591.796875,-819.3359375,0.0,0,0
1772116480.701109,1772116480.6473207,-158.69140625,-58.10546875,89.35546875,-1000.0,0.0,0,0
1772116480.701138,1772116480.651216,-843.26171875,-33.203125,551.26953125,-211.42578125,0.0,0,0
1772116480.701168,1772116480.6551113,563.96484375,-51.7578125,209.9609375,-915.52734375,0.0,0,0
1772116480.7011971,1772116480.6590064,-804.19921875,-60.546875,-456.54296875,782.2265625,0.0,0,0
1772116480.701226,1772116480.6629016,-1000.0,-38.57421875,-538.57421875,-567.3828125,0.0,0,0
1772116480.7012548,1772116480.6667967,-208.49609375,20.01953125,88.37890625,-1000.0,0.0,0,0
1772116480.701283,1772116480.670692,-929.6875,69.3359375,637.20703125,-186.03515625,0.0,0,0
1772116480.743658,1772116480.6747253,826.66015625,48.33984375,383.30078125,-979.00390625,0.0,0,0
1772116480.743712,1772116480.6786206,-501.46484375,-6.8359375,-316.89453125,984.375,0.0,0,0
1772116480.743843,1772116480.6825156,-1000.0,-24.4140625,-520.99609375,-228.02734375,0.0,0,0
1772116480.743871,1772116480.686411,-185.546875,32.71484375,7.32421875,-1000.0,0.0,0,0
1772116480.743895,1772116480.6903062,-993.1640625,87.890625,630.37109375,-245.1171875,0.0,0,0
1772116480.7439191,1772116480.6942012,-987.79296875,60.05859375,488.28125,971.6796875,0.0,0,0
1772116480.743943,1772116480.6980965,-144.53125,30.76171875,-211.9140625,-937.98828125,0.0,0,0
1772116480.743992,1772116480.7019918,-1000.0,-37.59765625,-506.34765625,-1.953125,0.0,0,0
1772116480.744046,1772116480.7058868,-310.05859375,173.828125,-72.75390625,-1000.0,0.0,0,0
1772116480.7440739,1772116480.7097821,941.40625,748.53515625,577.1484375,-417.96875,0.0,0,0
1772116480.7441401,1772116480.7136774,-919.921875,451.66015625,546.875,890.625,0.0,0,0
1772116480.7441878,1772116480.7175725,59.5703125,-63.96484375,-132.8125,-889.6484375,0.0,0,0
1772116480.78879,1772116480.721596,-1000.0,-52.24609375,-540.52734375,151.3671875,0.0,0,0
1772116480.7888892,1772116480.725491,-501.46484375,-47.8515625,-166.9921875,-1000.0,0.0,0,0
1772116480.788934,1772116480.7293863,840.8203125,-12.6953125,524.4140625,-640.625,0.0,0,0
1772116480.788974,1772116480.7332816,-870.1171875,0.9765625,574.21875,734.86328125,0.0,0,0
1772116480.789014,1772116480.737177,179.6875,-21.97265625,-67.3828125,-843.26171875,0.0,0,0
1772116480.7890508,1772116480.741072,-1000.0,-47.36328125,-543.45703125,176.7578125,0.0,0,0
1772116480.789087,1772116480.7449672,-801.26953125,-46.38671875,-254.8828125,-1000.0,0.0,0,0
1772116480.789126,1772116480.7488625,549.8046875,-27.34375,430.17578125,-881.34765625,0.0,0,0
1772116480.789162,1772116480.7527578,-811.03515625,297.8515625,590.33203125,442.87109375,0.0,0,0
1772116480.789205,1772116480.756653,156.73828125,250.48828125,20.99609375,-793.45703125,0.0,0,0
1772116480.789242,1772116480.760548,-1000.0,-87.40234375,-560.05859375,158.203125,0.0,0,0
1772116480.78928,1772116480.7644434,-990.72265625,-44.921875,-379.39453125,-1000.0,0.0,0,0
1772116480.833924,1772116480.768454,237.79296875,-10.25390625,326.66015625,-1000.0,0.0,0,0
1772116480.834024,1772116480.7723494,-777.34375,-10.25390625,589.84375,124.0234375,0.0,0,0
1772116480.8340569,1772116480.7762446,230.95703125,-21.97265625,108.3984375,-770.99609375,0.0,0,0
1772116480.834089,1772116480.78014,-1000.0,-37.109375,-549.31640625,277.34375,0.0,0,0
1772116480.834118,1772116480.7840352,-1000.0,-19.53125,-457.51953125,-975.09765625,0.0,0,0
1772116480.834147,1772116480.7879305,23.92578125,24.90234375,279.78515625,-1000.0,0.0,0,0
1772116480.834178,1772116480.7918255,-793.45703125,-37.109375,619.62890625,-73.2421875,0.0,0,0
1772116480.834207,1772116480.7957208,426.7578125,159.66796875,158.203125,-804.19921875,0.0,0,0
1772116480.834236,1772116480.799616,-886.71875,333.0078125,-527.34375,455.56640625,0.0,0,0
1772116480.834265,1772116480.8035114,-1000.0,-7.32421875,-511.71875,-886.23046875,0.0,0,0
1772116480.834293,1772116480.8074067,-174.8046875,-48.828125,188.4765625,-1000.0,0.0,0,0
1772116480.834322,1772116480.811302,-868.65234375,19.04296875,616.2109375,-207.03125,0.0,0,0
1772116480.88253,1772116480.8153129,641.11328125,-15.13671875,250.48828125,-895.01953125,0.0,0,0
1772116480.882716,1772116480.8192081,-724.609375,-71.2890625,-434.5703125,722.16796875,0.0,0,0
1772116480.882792,1772116480.8231034,-1000.0,-84.9609375,-521.484375,-645.01953125,0.0,0,0
1772116480.882849,1772116480.8269987,-203.61328125,-28.80859375,99.12109375,-1000.0,0.0,0,0
1772116480.882901,1772116480.830894,-939.453125,7.32421875,618.1640625,-193.84765625,0.0,0,0
1772116480.882954,1772116480.8347893,857.421875,-33.203125,338.8671875,-964.35546875,0.0,0,0
1772116480.8830059,1772116480.8386846,-449.21875,-104.00390625,-375.0,940.91796875,0.0,0,0
1772116480.883059,1772116480.8425798,-1000.0,135.25390625,-569.3359375,-321.77734375,0.0,0,0
1772116480.883112,1772116480.8464751,-213.8671875,185.546875,-11.23046875,-1000.0,0.0,0,0
1772116480.883163,1772116480.8503704,999.0234375,-25.390625,594.23828125,-213.37890625,0.0,0,0
1772116480.883214,1772116480.8542657,-986.328125,-24.4140625,413.0859375,986.81640625,0.0,0,0
1772116480.8832629,1772116480.8581607,-145.5078125,-51.26953125,-317.3828125,-951.171875,0.0,0,0
1772116480.924423,1772116480.8621554,-1000.0,-90.33203125,-596.19140625,-55.17578125,0.0,0,0
1772116480.9244952,1772116480.8660507,-351.07421875,-78.61328125,-105.95703125,-1000.0,0.0,0,0
1772116480.924532,1772116480.869946,930.17578125,-11.71875,552.24609375,-367.1875,0.0,0,0
1772116480.9245691,1772116480.8738413,-921.38671875,-12.6953125,477.05078125,913.57421875,0.0,0,0
1772116480.924607,1772116480.8777366,3.41796875,-70.80078125,-268.5546875,-900.87890625,0.0,0,0
1772116480.9246578,1772116480.8816319,-1000.0,-140.13671875,-635.25390625,128.90625,0.0,0,0
1772116480.924694,1772116480.8855271,-505.859375,17.08984375,-191.89453125,-1000.0,0.0,0,0
1772116480.924732,1772116480.8894224,830.078125,234.86328125,478.02734375,-594.23828125,0.0,0,0
1772116480.924768,1772116480.8933177,-870.1171875,20.5078125,507.8125,777.34375,0.0,0,0
1772116480.9248042,1772116480.897213,155.2734375,-100.09765625,-161.62109375,-852.5390625,0.0,0,0
1772116480.924843,1772116480.9011083,-1000.0,-86.9140625,-638.18359375,178.22265625,0.0,0,0
1772116480.9248981,1772116480.9050035,-768.06640625,-70.80078125,-288.57421875,-1000.0,0.0,0,0
1772116481.0129201,1772116480.9091716,585.9375,-47.36328125,427.24609375,-842.28515625,0.0,0,0
1772116481.013033,1772116480.9130669,-817.3828125,-43.9453125,550.29296875,500.0,0.0,0,0
1772116481.0130649,1772116480.9169621,163.57421875,-57.6171875,-69.3359375,-801.7578125,0.0,0,0
1772116481.013097,1772116480.9208574,-1000.0,-86.42578125,-643.06640625,153.3203125,0.0,0,0
1772116481.013129,1772116480.924753,-954.1015625,-87.40234375,-397.94921875,-1000.0,0.0,0,0
1772116481.0131588,1772116480.9286482,322.265625,-63.4765625,378.41796875,-1000.0,0.0,0,0
1772116481.0131881,1772116480.9325435,-781.25,167.96875,604.98046875,201.66015625,0.0,0,0
1772116481.0132182,1772116480.9364388,156.25,157.2265625,3.41796875,-771.97265625,0.0,0,0
1772116481.013247,1772116480.940334,-1000.0,-96.19140625,-639.6484375,239.2578125,0.0,0,0
1772116481.0132742,1772116480.9442296,-1000.0,-73.73046875,-475.5859375,-991.69921875,0.0,0,0
1772116481.013304,1772116480.948125,54.6875,-25.390625,279.296875,-1000.0,0.0,0,0
1772116481.013348,1772116480.9520202,-777.83203125,-18.5546875,593.75,-38.0859375,0.0,0,0
1772116481.028739,1772116480.9559977,305.6640625,-57.6171875,95.703125,-794.921875,0.0,0,0
1772116481.028815,1772116480.959893,-958.984375,-79.1015625,-576.66015625,424.8046875,0.0,0,0
1772116481.028859,1772116480.9637883,-1000.0,-43.9453125,-513.18359375,-900.87890625,0.0,0,0
1772116481.028897,1772116480.9676838,-139.6484375,-15.13671875,216.796875,-1000.0,0.0,0,0
1772116481.028934,1772116480.971579,-833.49609375,-3.90625,627.9296875,-190.4296875,0.0,0,0
1772116481.028973,1772116480.9754744,530.2734375,-36.62109375,214.84375,-873.046875,0.0,0,0
1772116481.029012,1772116480.9793696,-829.1015625,-78.61328125,-491.2109375,654.296875,0.0,0,0
1772116481.029056,1772116480.9832652,-1000.0,-75.1953125,-565.91796875,-718.75,0.0,0,0
1772116481.029095,1772116480.9871604,-213.37890625,-31.25,108.3984375,-1000.0,0.0,0,0
1772116481.0291321,1772116480.9910557,-911.62109375,1.953125,648.92578125,-203.61328125,0.0,0,0
1772116481.0291688,1772116480.994951,766.6015625,-12.6953125,306.640625,-945.80078125,0.0,0,0
1772116481.029207,1772116480.9988465,-585.9375,-44.921875,-437.98828125,881.34765625,0.0,0,0
1772116481.074384,1772116481.0028903,-1000.0,-103.02734375,-589.35546875,-423.33984375,0.0,0,0
1772116481.074498,1772116481.0067856,-188.96484375,129.39453125,35.64453125,-1000.0,0.0,0,0
1772116481.074542,1772116481.010681,-974.609375,220.21484375,638.18359375,-190.4296875,0.0,0,0
1772116481.074581,1772116481.0145764,965.8203125,-23.4375,401.85546875,-999.0234375,0.0,0,0
1772116481.0746188,1772116481.0184717,-255.37109375,-70.3125,-335.44921875,-971.6796875,0.0,0,0
1772116481.074657,1772116481.0223672,-1000.0,37.109375,-568.84765625,-110.3515625,0.0,0,0
1772116481.0748632,1772116481.0262625,-275.87890625,59.08203125,-27.34375,-1000.0,0.0,0,0
1772116481.0749052,1772116481.0301578,957.03125,-36.1328125,611.81640625,-322.75390625,0.0,0,0
1772116481.074943,1772116481.0340533,-935.546875,-45.41015625,477.5390625,936.5234375,0.0,0,0
1772116481.07498,1772116481.0379486,4.39453125,94.7265625,-259.27734375,-914.55078125,0.0,0,0
1772116481.075017,1772116481.041844,-1000.0,41.9921875,-599.12109375,72.265625,0.0,0,0
1772116481.075056,1772116481.0457394,-444.3359375,-72.75390625,-128.90625,-1000.0,0.0,0,0
1772116481.1194398,1772116481.0497723,878.90625,9.27734375,577.1484375,-492.1875,0.0,0,0
1772116481.119599,1772116481.0536675,-887.6953125,7.8125,547.36328125,855.46875,0.0,0,0
1772116481.119643,1772116481.057563,131.34765625,-68.84765625,-201.171875,-873.53515625,0.0,0,0
1772116481.119683,1772116481.0614583,-1000.0,-99.609375,-656.73828125,180.6640625,0.0,0,0
1772116481.119722,1772116481.0653539,-645.5078125,-55.17578125,-238.28125,-1000.0,0.0,0,0
1772116481.1197581,1772116481.0692492,721.19140625,-7.8125,500.48828125,-737.3046875,0.0,0,0
1772116481.1197948,1772116481.0731447,-841.30859375,-8.7890625,574.21875,637.20703125,0.0,0,0
1772116481.119832,1772116481.07704,162.59765625,-106.93359375,-113.76953125,-823.2421875,0.0,0,0
1772116481.119875,1772116481.0809355,-1000.0,20.99609375,-679.19921875,164.0625,0.0,0,0
1772116481.119916,1772116481.0848308,-928.22265625,198.73046875,-341.796875,-1000.0,0.0,0,0
1772116481.1199539,1772116481.088726,358.88671875,-9.27734375,420.8984375,-957.51953125,0.0,0,0
1772116481.120011,1772116481.0926216,-785.15625,-69.82421875,592.7734375,315.4296875,0.0,0,0
1772116481.164222,1772116481.0966427,167.48046875,-48.828125,-9.765625,-778.80859375,0.0,0,0
1772116481.164335,1772116481.100538,-1000.0,-79.1015625,-640.625,182.6171875,0.0,0,0
1772116481.164368,1772116481.1044335,-1000.0,-78.125,-439.453125,-1000.0,0.0,0,0
1772116481.164397,1772116481.1083288,62.98828125,-36.1328125,338.37890625,-1000.0,0.0,0,0
1772116481.164427,1772116481.1122243,-779.78515625,-20.01953125,613.76953125,55.6640625,0.0,0,0
1772116481.164462,1772116481.1161199,327.1484375,-33.203125,90.8203125,-776.3671875,0.0,0,0
1772116481.1644921,1772116481.1200151,-954.1015625,-65.4296875,-594.7265625,335.9375,0.0,0,0
1772116481.1645231,1772116481.1239107,-1000.0,-89.35546875,-528.3203125,-945.3125,0.0,0,0
1772116481.164551,1772116481.127806,-90.8203125,154.78515625,248.046875,-1000.0,0.0,0,0
1772116481.16458,1772116481.1317015,-819.82421875,168.45703125,634.765625,-136.71875,0.0,0,0
1772116481.1646101,1772116481.1355968,489.74609375,-71.2890625,158.69140625,-832.51953125,0.0,0,0
1772116481.1646478,1772116481.1394923,-853.02734375,-87.40234375,-544.921875,536.62109375,0.0,0,0
1772116481.208919,1772116481.1435008,-1000.0,-74.70703125,-573.2421875,-828.125,0.0,0,0
1772116481.2090182,1772116481.1473963,-199.21875,-62.98828125,151.85546875,-1000.0,0.0,0,0
1772116481.209075,1772116481.1512916,-918.9453125,-46.875,653.3203125,-211.42578125,0.0,0,0
1772116481.209128,1772116481.1551871,798.33984375,-32.71484375,252.9296875,-912.109375,0.0,0,0
1772116481.209179,1772116481.1590827,-531.73828125,-64.453125,-487.3046875,772.94921875,0.0,0,0
1772116481.209242,1772116481.162978,-1000.0,-86.42578125,-603.515625,-581.54296875,0.0,0,0
1772116481.209291,1772116481.1668735,-201.171875,-94.7265625,69.3359375,-1000.0,0.0,0,0
1772116481.2093399,1772116481.1707687,-953.125,111.328125,660.15625,-188.96484375,0.0,0,0
1772116481.2093902,1772116481.1746643,902.34375,250.0,352.05078125,-972.65625,0.0,0,0
1772116481.20944,1772116481.1785598,-367.67578125,-50.78125,-426.7578125,967.28515625,0.0,0,0
1772116481.2094898,1772116481.182455,-1000.0,-132.8125,-632.32421875,-268.5546875,0.0,0,0
1772116481.2095768,1772116481.1863506,-273.92578125,-50.78125,-16.6015625,-1000.0,0.0,0,0
1772116481.256289,1772116481.190349,958.49609375,-21.484375,636.23046875,-222.65625,0.0,0,0
1772116481.257406,1772116481.1942444,-945.80078125,-57.6171875,446.2890625,982.91015625,0.0,0,0
1772116481.2575822,1772116481.19814,-31.73828125,-96.19140625,-319.3359375,-946.2890625,0.0,0,0
1772116481.257659,1772116481.2020354,-1000.0,-69.3359375,-635.25390625,-33.203125,0.0,0,0
1772116481.257736,1772116481.2059307,-500.0,-25.390625,-111.328125,-1000.0,0.0,0,0
1772116481.257782,1772116481.2098262,826.66015625,-0.48828125,613.28125,-389.16015625,0.0,0,0
1772116481.257823,1772116481.2137218,-873.046875,-31.25,559.5703125,905.2734375,0.0,0,0
1772116481.2578611,1772116481.217617,133.7890625,144.53125,-222.16796875,-896.484375,0.0,0,0
1772116481.258068,1772116481.2215126,-1000.0,125.0,-663.57421875,134.765625,0.0,0,0
1772116481.258184,1772116481.225408,-745.1171875,-66.89453125,-196.2890625,-1000.0,0.0,0,0
1772116481.258249,1772116481.2293034,599.609375,4.8828125,519.53125,-598.14453125,0.0,0,0
1772116481.258294,1772116481.233199,-821.77734375,8.30078125,556.15234375,776.3671875,0.0,0,0
1772116481.300431,1772116481.237193,157.2265625,-75.68359375,-141.6015625,-852.05078125,0.0,0,0
1772116481.300533,1772116481.2410886,-1000.0,-125.0,-686.5234375,184.08203125,0.0,0,0
1772116481.300577,1772116481.2449841,-939.94140625,-80.078125,-313.96484375,-1000.0,0.0,0,0
1772116481.300616,1772116481.2488794,317.87109375,-29.296875,469.23828125,-829.1015625,0.0,0,0
1772116481.3006542,1772116481.252775,-783.69140625,-29.78515625,597.65625,520.5078125,0.0,0,0
1772116481.300691,1772116481.2566705,203.61328125,-115.72265625,-69.82421875,-804.6875,0.0,0,0
1772116481.3007302,1772116481.260566,-998.046875,-18.06640625,-691.89453125,153.80859375,0.0,0,0
1772116481.300767,1772116481.2644613,-1000.0,165.52734375,-441.89453125,-1000.0,0.0,0,0
1772116481.300811,1772116481.2683568,-74.70703125,6.8359375,356.93359375,-1000.0,0.0,0,0
1772116481.300847,1772116481.2722523,-803.7109375,-55.17578125,610.83984375,208.49609375,0.0,0,0
1772116481.300883,1772116481.2761478,367.67578125,-82.03125,12.6953125,-771.484375,0.0,0,0
1772116481.300941,1772116481.2800431,-935.546875,-127.9296875,-653.80859375,220.703125,0.0,0,0
1772116481.345461,1772116481.2840304,-1000.0,-100.09765625,-510.7421875,-1000.0,0.0,0,0
1772116481.345543,1772116481.287926,-182.6171875,-54.6875,275.390625,-1000.0,0.0,0,0
1772116481.34558,1772116481.2918212,-856.93359375,-28.80859375,635.7421875,-2.9296875,0.0,0,0
1772116481.3456159,1772116481.2957168,569.3359375,-50.78125,90.33203125,-785.64453125,0.0,0,0
1772116481.345654,1772116481.2996123,-787.109375,-90.33203125,-620.60546875,386.71875,0.0,0,0
1772116481.34569,1772116481.3035078,-1000.0,-112.3046875,-554.19921875,-920.8984375,0.0,0,0
1772116481.3457248,1772116481.3074033,-191.40625,193.84765625,200.1953125,-1000.0,0.0,0,0
1772116481.345761,1772116481.3112986,-923.33984375,231.93359375,653.80859375,-176.7578125,0.0,0,0
1772116481.345797,1772116481.3151941,801.7578125,-56.640625,216.796875,-852.5390625,0.0,0,0
1772116481.345833,1772116481.3190897,-494.140625,-84.47265625,-538.57421875,590.8203125,0.0,0,0
1772116481.34587,1772116481.3229852,-1000.0,-66.40625,-619.140625,-788.0859375,0.0,0,0
1772116481.3459358,1772116481.3268807,-293.9453125,-51.7578125,115.234375,-1000.0,0.0,0,0
1772116481.405786,1772116481.3308585,965.33203125,-62.98828125,689.94140625,-212.890625,0.0,0,0
1772116481.4059331,1772116481.334754,-985.3515625,-50.78125,324.21875,-927.734375,0.0,0,0
1772116481.405979,1772116481.3386495,-147.94921875,-70.3125,-467.28515625,822.75390625,0.0,0,0
1772116481.406019,1772116481.342545,-1000.0,-81.0546875,-643.5546875,-518.06640625,0.0,0,0
1772116481.406057,1772116481.3464406,-672.8515625,-107.91015625,6.8359375,-1000.0,0.0,0,0
1772116481.4060931,1772116481.350336,620.1171875,55.17578125,670.41015625,-183.10546875,0.0,0,0
1772116481.406131,1772116481.3542316,-888.18359375,236.328125,440.4296875,-982.91015625,0.0,0,0
1772116481.4061692,1772116481.3581269,-99.609375,-28.80859375,-394.53125,998.53515625,0.0,0,0
1772116481.406206,1772116481.3620224,-1000.0,-125.9765625,-685.05859375,-204.1015625,0.0,0,0
1772116481.406257,1772116481.365918,-780.2734375,-39.55078125,-76.171875,-1000.0,0.0,0,0
1772116481.406292,1772116481.3698134,371.58203125,-8.30078125,627.9296875,-241.2109375,0.0,0,0
1772116481.4065259,1772116481.373709,-836.42578125,-42.96875,490.72265625,976.07421875,0.0,0,0
1772116481.4516091,1772116481.3777547,209.9609375,-84.47265625,-298.33984375,-940.4296875,0.0,0,0
1772116481.45172,1772116481.3816502,-1000.0,-81.54296875,-685.546875,-15.13671875,0.0,0,0
1772116481.451784,1772116481.3855457,-1000.0,-62.98828125,-149.90234375,-1000.0,0.0,0,0
1772116481.451835,1772116481.3894413,-40.0390625,-22.94921875,586.42578125,-406.25,0.0,0,0
1772116481.451891,1772116481.3933368,-875.48828125,-16.11328125,562.98828125,896.484375,0.0,0,0
1772116481.451942,1772116481.3972323,488.76953125,-25.87890625,-187.5,-892.08984375,0.0,0,0
1772116481.451993,1772116481.4011278,-762.20703125,-41.9921875,-703.125,152.34375,0.0,0,0
1772116481.452045,1772116481.4050233,-1000.0,-60.546875,-294.43359375,-1000.0,0.0,0,0
1772116481.4520938,1772116481.4089189,-506.8359375,-25.390625,484.86328125,-616.2109375,0.0,0,0
1772116481.4521449,1772116481.4128144,858.88671875,141.6015625,603.515625,763.671875,0.0,0,0
1772116481.452194,1772116481.41671,815.91796875,85.44921875,-82.03125,-849.12109375,0.0,0,0
1772116481.452245,1772116481.4206054,-193.359375,-67.3828125,-680.17578125,183.10546875,0.0,0,0
1772116481.49561,1772116481.424646,-1000.0,-4.8828125,-381.8359375,-1000.0,0.0,0,0
1772116481.495741,1772116481.4285417,-855.46875,42.96875,410.15625,-832.51953125,0.0,0,0
1772116481.495805,1772116481.4324372,490.234375,14.6484375,609.86328125,515.13671875,0.0,0,0
1772116481.4958599,1772116481.4363327,-800.29296875,-32.71484375,-27.34375,-804.19921875,0.0,0,0
1772116481.495937,1772116481.4402282,149.90234375,-48.828125,-688.4765625,155.2734375,0.0,0,0
1772116481.495989,1772116481.4441237,-1000.0,-37.59765625,-505.859375,-1000.0,0.0,0,0
1772116481.496038,1772116481.4480193,-1000.0,4.39453125,314.453125,-1000.0,0.0,0,0
1772116481.4960861,1772116481.4519148,172.36328125,-38.57421875,627.9296875,224.609375,0.0,0,0
1772116481.496136,1772116481.4558103,-767.578125,127.44140625,22.94921875,-772.4609375,0.0,0,0
1772116481.496186,1772116481.4597058,272.4609375,266.6015625,-682.6171875,245.1171875,0.0,0,0
1772116481.496236,1772116481.4636014,-976.5625,-12.20703125,-612.79296875,-993.65234375,0.0,0,0
1772116481.496286,1772116481.4674969,-1000.0,-39.0625,184.08203125,-1000.0,0.0,0,0
1772116481.541816,1772116481.4715202,-54.19921875,26.3671875,628.90625,-1.46484375,0.0,0,0
1772116481.541887,1772116481.475416,-800.29296875,-12.6953125,125.9765625,-789.0625,0.0,0,0
1772116481.5419252,1772116481.4793115,472.16796875,-75.1953125,-605.95703125,411.62109375,0.0,0,0
1772116481.541963,1772116481.483207,-870.1171875,-75.1953125,-646.484375,-911.1328125,0.0,0,0
1772116481.541999,1772116481.4871025,-1000.0,-29.78515625,96.6796875,-1000.0,0.0,0,0
1772116481.5420349,1772116481.490998,-191.40625,-7.32421875,656.73828125,-141.11328125,0.0,0,0
1772116481.542072,1772116481.4948936,-973.14453125,-49.31640625,244.140625,-837.40234375,0.0,0,0
1772116481.542109,1772116481.498789,635.7421875,-117.1875,-542.48046875,500.9765625,0.0,0,0
1772116481.542148,1772116481.5026848,-643.06640625,110.3515625,-680.17578125,-845.21484375,0.0,0,0
1772116481.542186,1772116481.5065804,-1000.0,139.16015625,3.90625,-1000.0,0.0,0,0
1772116481.5422232,1772116481.5104759,-147.4609375,-61.5234375,641.6015625,-194.82421875,0.0,0,0
1772116481.542263,1772116481.5143714,875.0,-32.71484375,368.1640625,-876.953125,0.0,0,0
1772116481.597429,1772116481.5183794,757.32421875,-47.8515625,-424.31640625,605.95703125,0.0,0,0
1772116481.597493,1772116481.522275,-264.16015625,-90.33203125,-680.17578125,-734.86328125,0.0,0,0
1772116481.597516,1772116481.5261705,-1000.0,-83.0078125,-60.546875,-1000.0,0.0,0,0
1772116481.597537,1772116481.530066,-63.96484375,-20.5078125,622.0703125,-175.29296875,0.0,0,0
1772116481.597558,1772116481.5339618,611.328125,-7.32421875,459.9609375,-925.29296875,0.0,0,0
1772116481.5976388,1772116481.5378573,448.2421875,-47.8515625,-326.66015625,812.01171875,0.0,0,0
1772116481.597674,1772116481.5417528,32.2265625,-107.421875,-680.17578125,-472.16796875,0.0,0,0
1772116481.597696,1772116481.5456483,-984.375,20.99609375,-183.59375,-1000.0,0.0,0,0
1772116481.597715,1772116481.549544,-209.47265625,191.40625,487.3046875,-216.796875,0.0,0,0
1772116481.597735,1772116481.5534396,503.90625,3.41796875,493.65234375,-966.796875,0.0,0,0
1772116481.597755,1772116481.5573351,364.2578125,-98.14453125,-224.609375,908.69140625,0.0,0,0
1772116481.597774,1772116481.5612307,132.32421875,-76.66015625,-697.265625,-291.50390625,0.0,0,0
1772116481.62846,1772116481.565226,-696.77734375,-68.359375,-267.578125,-1000.0,0.0,0,0
1772116481.628501,1772116481.5691218,-338.8671875,-49.31640625,467.28515625,-335.9375,0.0,0,0
1772116481.628515,1772116481.5730174,306.640625,-59.08203125,551.7578125,961.42578125,0.0,0,0
1772116481.628528,1772116481.5769129,445.80078125,-90.33203125,-144.53125,997.0703125,0.0,0,0
1772116481.628541,1772116481.5808084,58.10546875,-92.28515625,-715.33203125,-112.79296875,0.0,0,0
1772116481.6285608,1772116481.5847042,-401.85546875,-75.1953125,-373.53515625,-1000.0,0.0,0,0
1772116481.628574,1772116481.5885997,-386.23046875,-66.89453125,381.34765625,-557.12890625,0.0,0,0
1772116481.628587,1772116481.5924952,48.33984375,152.83203125,548.828125,794.43359375,0.0,0,0
1772116481.6286001,1772116481.596391,718.75,145.5078125,-49.8046875,-879.8828125,0.0,0,0
1772116481.628646,1772116481.6002865,50.78125,-102.05078125,-659.1796875,64.453125,0.0,0,0
1772116481.628669,1772116481.604182,-175.29296875,-50.29296875,-452.63671875,-1000.0,0.0,0,0
1772116481.628682,1772116481.6080778,-250.48828125,31.25,315.91796875,-835.44921875,0.0,0,0
1772116481.673355,1772116481.612063,-227.5390625,-4.8828125,571.77734375,478.02734375,0.0,0,0
1772116481.673391,1772116481.6159585,748.53515625,-52.734375,27.34375,-799.31640625,0.0,0,0
1772116481.673404,1772116481.6198542,156.73828125,-75.1953125,-595.703125,133.7890625,0.0,0,0
1772116481.673416,1772116481.6237497,-36.62109375,-68.359375,-504.8828125,-1000.0,0.0,0,0
1772116481.673428,1772116481.6276453,-171.875,-27.34375,229.98046875,-1000.0,0.0,0,0
1772116481.67344,1772116481.631541,-298.828125,-48.828125,630.859375,100.5859375,0.0,0,0
1772116481.673451,1772116481.6354365,803.7109375,66.40625,167.96875,-772.4609375,0.0,0,0
1772116481.673463,1772116481.639332,253.90625,195.3125,-521.97265625,289.55078125,0.0,0,0
1772116481.673474,1772116481.6432278,-29.78515625,-27.34375,-578.61328125,-961.9140625,0.0,0,0
1772116481.673485,1772116481.6471233,-105.95703125,-89.35546875,75.68359375,-1000.0,0.0,0,0
1772116481.673496,1772116481.651019,-258.7890625,-13.671875,583.49609375,-139.16015625,0.0,0,0
1772116481.6735082,1772116481.6549146,610.3515625,-16.6015625,235.83984375,-831.54296875,0.0,0,0
1772116481.7186491,1772116481.658888,393.5546875,-72.75390625,-460.44921875,534.66796875,0.0,0,0
1772116481.7186801,1772116481.6627836,267.578125,-92.7734375,-575.68359375,-827.63671875,0.0,0,0
1772116481.718697,1772116481.6666794,-129.39453125,-55.17578125,27.34375,-1000.0,0.0,0,0
1772116481.718715,1772116481.670575,-136.23046875,-18.06640625,577.1484375,-208.49609375,0.0,0,0
1772116481.718731,1772116481.6744707,372.0703125,-25.390625,335.44921875,-926.26953125,0.0,0,0
1772116481.7187462,1772116481.6783662,334.47265625,-81.0546875,-328.125,820.80078125,0.0,0,0
1772116481.71876,1772116481.682262,478.02734375,147.4609375,-552.24609375,-515.625,0.0,0,0
1772116481.718775,1772116481.6861575,-320.80078125,185.05859375,-69.3359375,-1000.0,0.0,0,0
1772116481.718789,1772116481.690053,-152.83203125,-38.0859375,538.57421875,-180.17578125,0.0,0,0
1772116481.718804,1772116481.6939487,213.8671875,-25.390625,430.17578125,-988.76953125,0.0,0,0
1772116481.7188191,1772116481.6978443,192.3828125,-40.0390625,-264.6484375,-988.76953125,0.0,0,0
1772116481.718833,1772116481.70174,430.6640625,-60.05859375,-590.33203125,-163.0859375,0.0,0,0
1772116481.778502,1772116481.7057042,-546.875,-65.91796875,-151.3671875,-1000.0,0.0,0,0
1772116481.778549,1772116481.7096,-250.9765625,-29.78515625,480.46875,-294.921875,0.0,0,0
1772116481.778574,1772116481.7134955,119.140625,-11.71875,471.6796875,944.3359375,0.0,0,0
1772116481.778668,1772116481.7173913,129.8828125,-40.0390625,-171.875,-913.0859375,0.0,0,0
1772116481.77869,1772116481.7212868,348.14453125,-106.4453125,-598.6328125,42.48046875,0.0,0,0
1772116481.778711,1772116481.7251825,-522.94921875,40.0390625,-214.84375,-1000.0,0.0,0,0
1772116481.778731,1772116481.729078,-409.1796875,278.3203125,440.91796875,-413.0859375,0.0,0,0
1772116481.778751,1772116481.7329738,-78.61328125,46.38671875,472.16796875,836.42578125,0.0,0,0
1772116481.778771,1772116481.7368693,144.04296875,-96.19140625,-116.69921875,-870.1171875,0.0,0,0
1772116481.77879,1772116481.7407649,178.7109375,-65.4296875,-601.07421875,187.01171875,0.0,0,0
1772116481.77881,1772116481.7446606,-469.23828125,-68.359375,-335.9375,-1000.0,0.0,0,0
1772116481.7788281,1772116481.7485561,-552.734375,-50.78125,333.0078125,-759.765625,0.0,0,0
1772116481.8241339,1772116481.7525926,-152.34375,-39.0625,497.55859375,611.81640625,0.0,0,0
1772116481.824171,1772116481.756488,455.078125,-42.96875,-19.53125,-817.87109375,0.0,0,0
1772116481.8241951,1772116481.7603838,65.91796875,-62.5,-572.75390625,158.69140625,0.0,0,0
1772116481.82422,1772116481.7642794,-265.625,-78.125,-425.78125,-1000.0,0.0,0,0
1772116481.824272,1772116481.7681751,-431.640625,-48.33984375,249.0234375,-988.28125,0.0,0,0
1772116481.824327,1772116481.7720706,-239.74609375,21.97265625,526.3671875,260.25390625,0.0,0,0
1772116481.824356,1772116481.7759664,776.85546875,0.0,70.80078125,-772.4609375,0.0,0,0
1772116481.82438,1772116481.779862,146.97265625,-90.8203125,-540.0390625,209.9609375,0.0,0,0
1772116481.824406,1772116481.7837577,-50.29296875,-92.7734375,-483.88671875,-1000.0,0.0,0,0
1772116481.82443,1772116481.7876532,-221.19140625,87.890625,167.48046875,-1000.0,0.0,0,0
1772116481.824453,1772116481.791549,-371.09375,74.21875,530.76171875,1.46484375,0.0,0,0
1772116481.824477,1772116481.7954447,791.015625,-81.0546875,160.15625,-785.15625,0.0,0,0
1772116481.8689458,1772116481.7994719,306.15234375,-93.26171875,-461.9140625,401.85546875,0.0,0,0
1772116481.869048,1772116481.8033674,19.04296875,-84.9609375,-522.94921875,-911.1328125,0.0,0,0
1772116481.8690932,1772116481.8072631,-147.94921875,-60.546875,87.890625,-1000.0,0.0,0,0
1772116481.869131,1772116481.811159,-319.3359375,-42.96875,555.17578125,-180.6640625,0.0,0,0
1772116481.869174,1772116481.8150544,693.84765625,-24.4140625,259.765625,-865.234375,0.0,0,0
1772116481.869212,1772116481.8189502,509.27734375,-46.875,-358.3984375,640.13671875,0.0,0,0
1772116481.86925,1772116481.8228457,187.98828125,-65.91796875,-494.62890625,-735.83984375,0.0,0,0
1772116481.869287,1772116481.8267415,-184.08203125,-89.35546875,10.25390625,-1000.0,0.0,0,0
1772116481.869324,1772116481.8306372,-139.6484375,85.9375,514.6484375,-202.63671875,0.0,0,0
1772116481.8693628,1772116481.8345327,408.69140625,244.140625,325.1953125,-950.1953125,0.0,0,0
1772116481.8694022,1772116481.8384285,440.91796875,-15.625,-308.59375,895.99609375,0.0,0,0
1772116481.869441,1772116481.8423243,353.02734375,-96.6796875,-513.18359375,-404.78515625,0.0,0,0
1772116481.9444008,1772116481.8465092,-443.84765625,-28.3203125,-44.921875,-1000.0,0.0,0,0
1772116481.944531,1772116481.850405,-145.01953125,3.41796875,518.5546875,-180.17578125,0.0,0,0
1772116481.944591,1772116481.8543005,182.6171875,-5.859375,419.43359375,-996.09375,0.0,0,0
1772116481.944646,1772116481.8581963,297.8515625,-31.25,-213.8671875,-969.7265625,0.0,0,0
1772116481.9446971,1772116481.862092,350.09765625,-48.33984375,-497.0703125,-106.4453125,0.0,0,0
1772116481.944749,1772116481.8659878,-710.44921875,-43.45703125,-96.6796875,-1000.0,0.0,0,0
1772116481.944798,1772116481.8698835,-253.90625,-6.34765625,467.7734375,-324.21875,0.0,0,0
1772116481.944851,1772116481.8737793,41.50390625,-21.97265625,447.265625,934.5703125,0.0,0,0
1772116481.944907,1772116481.8776748,172.8515625,146.484375,-157.2265625,-912.109375,0.0,0,0
1772116481.94496,1772116481.8815706,358.3984375,134.27734375,-540.52734375,87.890625,0.0,0,0
1772116481.94501,1772116481.8854663,-731.4453125,-61.03515625,-222.65625,-1000.0,0.0,0,0
1772116481.945059,1772116481.889362,-442.87109375,-11.23046875,398.92578125,-529.296875,0.0,0,0
1772116481.959692,1772116481.8933766,-9.27734375,0.48828125,468.75,830.078125,0.0,0,0
1772116481.959787,1772116481.8972723,162.59765625,-48.33984375,-89.84375,-864.74609375,0.0,0,0
1772116481.959845,1772116481.9011679,199.21875,-84.47265625,-550.29296875,186.03515625,0.0,0,0
1772116481.959899,1772116481.9050636,-614.74609375,-71.77734375,-334.9609375,-1000.0,0.0,0,0
1772116481.959949,1772116481.9089594,-631.34765625,-36.1328125,288.0859375,-787.109375,0.0,0,0
1772116481.96,1772116481.9128551,-172.8515625,-40.52734375,470.21484375,578.61328125,0.0,0,0
1772116481.9600499,1772116481.916751,366.2109375,-66.40625,-12.20703125,-812.5,0.0,0,0
1772116481.9601011,1772116481.9206467,82.03125,-100.09765625,-549.8046875,154.78515625,0.0,0,0
1772116481.960154,1772116481.9245424,-387.6953125,-94.23828125,-421.38671875,-1000.0,0.0,0,0
1772116481.960203,1772116481.9284382,-536.62109375,-52.24609375,218.75,-1000.0,0.0,0,0
1772116481.960258,1772116481.932334,-326.171875,-32.2265625,465.33203125,218.26171875,0.0,0,0
1772116481.960309,1772116481.9362297,620.1171875,-42.48046875,58.59375,-770.01953125,0.0,0,0
1772116482.006324,1772116481.9402366,171.875,-73.2421875,-502.9296875,209.9609375,0.0,0,0
1772116482.006424,1772116481.9441323,-108.3984375,-71.77734375,-465.33203125,-1000.0,0.0,0,0
1772116482.006459,1772116481.948028,-321.2890625,-95.703125,150.390625,-1000.0,0.0,0,0
1772116482.006489,1772116481.9519238,-396.97265625,131.34765625,480.46875,-31.73828125,0.0,0,0
1772116482.0065222,1772116481.9558196,749.51171875,198.2421875,143.06640625,-791.50390625,0.0,0,0
1772116482.006552,1772116481.9597154,332.51953125,-88.8671875,-420.41015625,423.828125,0.0,0,0
1772116482.006581,1772116481.9636111,17.578125,-133.30078125,-479.4921875,-899.90234375,0.0,0,0
1772116482.006614,1772116481.967507,-211.42578125,119.140625,31.25,-1000.0,0.0,0,0
1772116482.006646,1772116481.9714026,-373.53515625,148.4375,431.640625,-207.03125,0.0,0,0
1772116482.006675,1772116481.9752984,562.98828125,-67.87109375,205.56640625,-876.953125,0.0,0,0
1772116482.0067048,1772116481.979194,524.4140625,-73.2421875,-360.83984375,662.59765625,0.0,0,0
1772116482.0067341,1772116481.9830897,173.33984375,-77.1484375,-482.91015625,-718.75,0.0,0,0
1772116482.050336,1772116481.9870846,-253.41796875,-77.1484375,-46.38671875,-1000.0,0.0,0,0
1772116482.0505118,1772116481.9909804,-286.1328125,-61.5234375,400.87890625,-193.84765625,0.0,0,0
1772116482.050571,1772116481.9948761,356.4453125,-27.34375,308.59375,-970.21484375,0.0,0,0
1772116482.050612,1772116481.998772,603.02734375,-36.62109375,-219.23828125,954.1015625,0.0,0,0
1772116482.0506501,1772116482.0026677,589.35546875,-60.546875,-444.82421875,-297.36328125,0.0,0,0
1772116482.050688,1772116482.0065634,-243.1640625,-90.33203125,-111.328125,-1000.0,0.0,0,0
1772116482.0507252,1772116482.0104592,-315.4296875,61.03515625,396.97265625,-235.3515625,0.0,0,0
1772116482.050761,1772116482.014355,98.6328125,214.35546875,328.125,977.5390625,0.0,0,0
1772116482.050803,1772116482.0182507,536.1328125,5.859375,-169.921875,-934.08203125,0.0,0,0
1772116482.050839,1772116482.0221465,246.58203125,-92.7734375,-421.875,-114.74609375,0.0,0,0
1772116482.050875,1772116482.0260425,-1000.0,-97.16796875,-819.82421875,-1000.0,0.0,0,0
1772116482.05091,1772116482.0299382,-930.6640625,-60.05859375,-271.484375,-891.11328125,0.0,0,0
1772116482.10765,1772116482.0339143,-1000.0,-32.71484375,433.59375,-1000.0,0.0,0,0
1772116482.107798,1772116482.03781,-244.140625,-23.4375,78.125,-104.00390625,0.0,0,0
1772116482.107855,1772116482.0417058,-994.140625,-20.99609375,-192.3828125,257.32421875,0.0,0,0
1772116482.1079218,1772116482.0456016,235.3515625,-60.546875,-50.29296875,-1000.0,0.0,0,0
1772116482.107976,1772116482.0494974,-855.46875,-31.25,363.76953125,-729.4921875,0.0,0,0
1772116482.108027,1772116482.0533931,461.42578125,-4.8828125,481.93359375,686.5234375,0.0,0,0
1772116482.1080818,1772116482.057289,-932.12890625,162.59765625,118.1640625,-820.3125,0.0,0,0
1772116482.108256,1772116482.061185,978.515625,161.1328125,-258.7890625,104.4921875,0.0,0,0
1772116482.108311,1772116482.0650806,823.2421875,-51.7578125,-164.0625,-391.11328125,0.0,0,0
1772116482.108362,1772116482.0689764,-605.46875,-32.71484375,276.3671875,-297.8515625,0.0,0,0
1772116482.108424,1772116482.0728722,195.3125,8.30078125,428.7109375,336.42578125,0.0,0,0
1772116482.108474,1772116482.076768,-869.62890625,-6.8359375,145.5078125,-729.00390625,0.0,0,0
1772116482.1542468,1772116482.0807347,900.390625,-41.015625,-239.2578125,247.0703125,0.0,0,0
1772116482.154382,1772116482.0846307,-950.68359375,-20.99609375,-222.16796875,-72.75390625,0.0,0,0
1772116482.154443,1772116482.0885265,-389.16015625,0.9765625,164.55078125,-209.47265625,0.0,0,0
1772116482.154499,1772116482.0924222,-103.02734375,0.48828125,374.0234375,21.484375,0.0,0,0
1772116482.154552,1772116482.096318,-861.328125,-35.64453125,186.5234375,-740.72265625,0.0,0,0
1772116482.154603,1772116482.1002138,880.37109375,23.92578125,-231.93359375,462.890625,0.0,0,0
1772116482.1546528,1772116482.1041095,-874.0234375,119.62890625,-295.41015625,194.3359375,0.0,0,0
1772116482.154717,1772116482.1080053,-200.68359375,-13.671875,40.52734375,-120.60546875,0.0,0,0
1772116482.154768,1772116482.1119013,-308.59375,-62.01171875,290.0390625,-145.01953125,0.0,0,0
1772116482.1548202,1772116482.115797,-908.203125,29.78515625,190.91796875,-832.51953125,0.0,0,0
1772116482.154869,1772116482.1196928,898.92578125,24.90234375,-236.328125,703.61328125,0.0,0,0
1772116482.154919,1772116482.1235886,-865.72265625,-29.78515625,-341.30859375,480.95703125,0.0,0,0
1772116482.199428,1772116482.127626,-32.71484375,-46.875,-19.04296875,-50.29296875,0.0,0,0
1772116482.199554,1772116482.1315217,-315.4296875,-36.1328125,303.7109375,-246.58203125,0.0,0,0
1772116482.19962,1772116482.1354175,-945.3125,-11.71875,250.9765625,-931.640625,0.0,0,0
1772116482.199677,1772116482.1393135,903.3203125,-41.50390625,-173.33984375,877.9296875,0.0,0,0
1772116482.199729,1772116482.1432092,-867.1875,-36.1328125,-314.94140625,647.94921875,0.0,0,0
1772116482.199782,1772116482.147105,62.01171875,9.765625,-38.0859375,-79.58984375,0.0,0,0
1772116482.199832,1772116482.1510007,-319.3359375,14.16015625,307.12890625,-240.72265625,0.0,0,0
1772116482.199883,1772116482.1548965,876.46484375,-18.06640625,284.66796875,-967.28515625,0.0,0,0
1772116482.199944,1772116482.1587925,838.8671875,-25.87890625,-90.33203125,953.125,0.0,0,0
1772116482.199994,1772116482.1626883,-843.26171875,95.21484375,-289.55078125,611.81640625,0.0,0,0
1772116482.200044,1772116482.166584,52.734375,53.7109375,-143.5546875,-233.88671875,0.0,0,0
1772116482.200095,1772116482.1704798,-502.44140625,-29.78515625,257.8125,-263.671875,0.0,0,0
1772116482.24476,1772116482.1745071,330.078125,10.25390625,318.84765625,979.4921875,0.0,0,0
1772116482.244888,1772116482.1784031,539.0625,-26.85546875,-40.0390625,-961.9140625,0.0,0,0
1772116482.244946,1772116482.182299,-797.36328125,-47.8515625,-273.92578125,385.25390625,0.0,0,0
1772116482.245004,1772116482.1861947,79.1015625,-48.828125,-186.03515625,-552.734375,0.0,0,0
1772116482.245068,1772116482.1900907,-753.90625,-11.23046875,217.28515625,-422.8515625,0.0,0,0
1772116482.24512,1772116482.1939864,-256.34765625,8.30078125,325.1953125,829.1015625,0.0,0,0
1772116482.245172,1772116482.1978822,251.953125,-31.73828125,0.0,-857.421875,0.0,0,0
1772116482.2452219,1772116482.2017782,765.625,-79.1015625,-278.3203125,197.75390625,0.0,0,0
1772116482.2452722,1772116482.205674,12.6953125,23.4375,-236.81640625,-864.2578125,0.0,0,0
1772116482.245321,1772116482.2095697,-870.1171875,135.7421875,166.015625,-742.1875,0.0,0,0
1772116482.2453709,1772116482.2134655,-939.94140625,-1.953125,311.5234375,501.46484375,0.0,0,0
1772116482.245424,1772116482.2173615,192.3828125,-34.66796875,83.984375,-790.52734375,0.0,0,0
1772116482.2892008,1772116482.2213776,486.328125,-36.62109375,-222.65625,142.578125,0.0,0,0
1772116482.289312,1772116482.2252736,-327.1484375,-77.1484375,-274.4140625,-954.58984375,0.0,0,0
1772116482.289372,1772116482.2291694,-766.11328125,-82.51953125,100.5859375,-998.046875,0.0,0,0
1772116482.289429,1772116482.2330651,-1000.0,-62.01171875,289.55078125,129.8828125,0.0,0,0
1772116482.289485,1772116482.2369611,-40.0390625,-41.50390625,74.70703125,-784.66796875,0.0,0,0
1772116482.289537,1772116482.240857,466.30859375,-54.6875,-291.50390625,208.984375,0.0,0,0
1772116482.2895901,1772116482.2447526,-377.9296875,-79.58984375,-354.00390625,-1000.0,0.0,0,0
1772116482.289641,1772116482.2486486,-705.078125,-83.984375,-19.53125,-1000.0,0.0,0,0
1772116482.289691,1772116482.2525444,-1000.0,64.94140625,214.84375,-210.9375,0.0,0,0
1772116482.289741,1772116482.2564404,-67.3828125,95.21484375,95.21484375,880.37109375,0.0,0,0
1772116482.289804,1772116482.2603362,553.22265625,-53.7109375,-301.26953125,328.61328125,0.0,0,0
1772116482.289856,1772116482.264232,-208.49609375,-60.05859375,-391.6015625,-930.17578125,0.0,0,0
1772116482.3343391,1772116482.2682366,-480.95703125,-33.203125,-62.5,-1000.0,0.0,0,0
1772116482.334435,1772116482.2721324,-1000.0,-27.83203125,199.70703125,-271.484375,0.0,0,0
1772116482.3344908,1772116482.2760284,-205.56640625,-12.6953125,156.25,804.6875,0.0,0,0
1772116482.3345459,1772116482.2799242,708.984375,-21.97265625,-261.71875,499.51171875,0.0,0,0
1772116482.3345978,1772116482.2838202,273.4375,-39.55078125,-408.69140625,-764.16015625,0.0,0,0
1772116482.334649,1772116482.287716,-240.234375,-39.0625,-80.56640625,-1000.0,0.0,0,0
1772116482.334698,1772116482.291612,-934.5703125,-59.08203125,250.48828125,-203.61328125,0.0,0,0
1772116482.33475,1772116482.2955077,-157.2265625,70.80078125,236.328125,-981.4453125,0.0,0,0
1772116482.334802,1772116482.2994037,831.54296875,156.25,-179.19921875,810.546875,0.0,0,0
1772116482.3348532,1772116482.3032994,980.46875,-40.52734375,-338.8671875,-63.4765625,0.0,0,0
1772116482.334908,1772116482.3071954,-90.8203125,-96.19140625,-104.98046875,-665.52734375,0.0,0,0
1772116482.3349729,1772116482.3110912,-314.453125,-42.96875,266.6015625,-167.48046875,0.0,0,0
1772116482.379818,1772116482.315086,783.69140625,-8.7890625,346.6796875,-977.05078125,0.0,0,0
1772116482.379926,1772116482.318982,817.3828125,-25.390625,-46.38671875,913.57421875,0.0,0,0
1772116482.3799858,1772116482.3228776,-817.87109375,-43.45703125,-258.30078125,800.29296875,0.0,0,0
1772116482.3800461,1772116482.3267736,36.1328125,-56.640625,-114.2578125,-75.1953125,0.0,0,0
1772116482.380098,1772116482.3306694,-421.38671875,-41.9921875,241.2109375,-259.27734375,0.0,0,0
1772116482.380149,1772116482.3345654,-980.46875,-27.83203125,373.046875,-993.65234375,0.0,0,0
1772116482.380199,1772116482.3384612,955.078125,-79.1015625,86.9140625,-974.609375,0.0,0,0
1772116482.380258,1772116482.3423572,717.7734375,79.1015625,-237.3046875,395.5078125,0.0,0,0
1772116482.380308,1772116482.3462532,58.59375,84.47265625,-425.29296875,-492.67578125,0.0,0,0
1772116482.380359,1772116482.350149,-1000.0,-83.49609375,-128.41796875,-739.2578125,0.0,0,0
1772116482.380417,1772116482.354045,-1000.0,-41.015625,218.75,-389.6484375,0.0,0,0
1772116482.380478,1772116482.3579407,291.9921875,-25.390625,175.29296875,475.09765625,0.0,0,0
1772116482.424381,1772116482.3619277,660.15625,-62.01171875,-71.2890625,310.05859375,0.0,0,0
1772116482.4245288,1772116482.3658237,-316.40625,-100.09765625,-394.04296875,-853.02734375,0.0,0,0
1772116482.424586,1772116482.3697195,-921.875,-46.38671875,-141.11328125,-871.09375,0.0,0,0
1772116482.424625,1772116482.3736155,-1000.0,-4.39453125,202.1484375,-878.41796875,0.0,0,0
1772116482.424665,1772116482.3775113,34.1796875,4.39453125,256.34765625,225.5859375,0.0,0,0
1772116482.424703,1772116482.3814073,994.62890625,-27.34375,42.48046875,348.14453125,0.0,0,0
1772116482.424741,1772116482.3853033,81.54296875,46.875,-320.80078125,-819.3359375,0.0,0,0
1772116482.424779,1772116482.389199,-916.50390625,183.10546875,-178.7109375,-852.05078125,0.0,0,0
1772116482.4248168,1772116482.393095,-1000.0,24.4140625,166.015625,-1000.0,0.0,0,0
1772116482.424855,1772116482.3969908,-164.0625,-34.1796875,334.47265625,39.0625,0.0,0,0
1772116482.425008,1772116482.4008868,-899.4140625,-14.16015625,64.94140625,483.3984375,0.0,0,0
1772116482.425049,1772116482.4047828,414.55078125,-59.08203125,-323.73046875,-637.20703125,0.0,0,0
1772116482.4691882,1772116482.408762,-857.91015625,-76.171875,-241.2109375,-853.515625,0.0,0,0
1772116482.469295,1772116482.412658,-1000.0,-44.921875,86.42578125,-880.37109375,0.0,0,0
1772116482.469353,1772116482.416554,-225.09765625,4.39453125,343.75,92.7734375,0.0,0,0
1772116482.469436,1772116482.4204497,-913.57421875,-9.765625,61.5234375,611.328125,0.0,0,0
1772116482.469486,1772116482.4243457,758.30078125,-57.12890625,-312.98828125,-174.31640625,0.0,0,0
1772116482.469583,1772116482.4282417,-604.4921875,-91.796875,-286.1328125,-679.6875,0.0,0,0
1772116482.4696698,1772116482.4321375,-1000.0,124.0234375,9.765625,-752.9296875,0.0,0,0
1772116482.46975,1772116482.4360335,-187.98828125,184.08203125,358.3984375,263.18359375,0.0,0,0
1772116482.469787,1772116482.4399295,-977.05078125,-45.41015625,112.79296875,748.046875,0.0,0,0
1772116482.469823,1772116482.4438252,977.05078125,-81.54296875,-241.69921875,324.21875,0.0,0,0
1772116482.46986,1772116482.4477212,-254.39453125,-88.8671875,-347.16796875,-431.640625,0.0,0,0
1772116482.469897,1772116482.451617,-1000.0,-78.125,-94.7265625,-733.88671875,0.0,0,0
1772116482.5291579,1772116482.455584,-254.8828125,-38.57421875,354.00390625,292.48046875,0.0,0,0
1772116482.52932,1772116482.45948,968.75,-46.875,140.625,833.0078125,0.0,0,0
1772116482.529376,1772116482.463376,-939.453125,-62.98828125,-208.984375,579.58984375,0.0,0,0
1772116482.529431,1772116482.4672718,-24.4140625,-94.23828125,-402.83203125,-286.62109375,0.0,0,0
1772116482.529483,1772116482.4711678,-1000.0,-124.51171875,-152.83203125,-787.109375,0.0,0,0
1772116482.5295439,1772116482.4750638,-429.6875,41.015625,348.6328125,177.24609375,0.0,0,0
1772116482.5295942,1772116482.4789596,882.32421875,186.5234375,241.2109375,853.515625,0.0,0,0
1772116482.5296462,1772116482.4828556,-886.23046875,-14.16015625,-104.4921875,618.1640625,0.0,0,0
1772116482.529696,1772116482.4867516,159.1796875,-121.09375,-390.13671875,-184.08203125,0.0,0,0
1772116482.529747,1772116482.4906473,-1000.0,-83.49609375,-170.8984375,-833.0078125,0.0,0,0
1772116482.5297961,1772116482.4945433,-651.3671875,-46.38671875,273.4375,-188.4765625,0.0,0,0
1772116482.5298839,1772116482.4984393,733.88671875,-38.0859375,273.4375,777.34375,0.0,0,0
1772116482.573774,1772116482.5024765,-841.796875,-52.24609375,-19.04296875,546.38671875,0.0,0,0
1772116482.573868,1772116482.5063725,174.31640625,-81.54296875,-410.15625,-350.5859375,0.0,0,0
1772116482.573909,1772116482.5102684,-1000.0,-74.70703125,-163.0859375,-857.421875,0.0,0,0
1772116482.574006,1772116482.5141642,-899.4140625,-45.41015625,255.37109375,-604.98046875,0.0,0,0
1772116482.5740511,1772116482.5180602,423.33984375,-24.90234375,302.734375,540.0390625,0.0,0,0
1772116482.574091,1772116482.5219562,-790.0390625,0.48828125,69.82421875,444.3359375,0.0,0,0
1772116482.574132,1772116482.5258522,145.01953125,-68.359375,-388.671875,-581.54296875,0.0,0,0
1772116482.574191,1772116482.5297482,-1000.0,-107.91015625,-197.265625,-873.046875,0.0,0,0
1772116482.574228,1772116482.533644,-1000.0,-73.73046875,195.3125,-952.63671875,0.0,0,0
1772116482.574285,1772116482.53754,109.86328125,75.1953125,339.35546875,278.3203125,0.0,0,0
1772116482.574322,1772116482.541436,-766.11328125,38.0859375,129.8828125,501.46484375,0.0,0,0
1772116482.57438,1772116482.545332,278.80859375,-133.7890625,-351.07421875,-588.8671875,0.0,0,0
1772116482.6193202,1772116482.5493598,-974.12109375,-116.2109375,-242.67578125,-845.703125,0.0,0,0
1772116482.6194549,1772116482.5532558,-1000.0,-79.1015625,134.765625,-1000.0,0.0,0,0
1772116482.619497,1772116482.5571518,-84.47265625,-65.4296875,385.7421875,27.83203125,0.0,0,0
1772116482.6195369,1772116482.5610478,-805.17578125,-90.8203125,165.52734375,744.62890625,0.0,0,0
1772116482.6195781,1772116482.5649438,462.40234375,-114.2578125,-318.84765625,-264.6484375,0.0,0,0
1772116482.61962,1772116482.5688398,-882.32421875,-122.0703125,-293.45703125,-826.66015625,0.0,0,0
1772116482.619659,1772116482.5727358,-1000.0,-107.421875,31.73828125,-1000.0,0.0,0,0
1772116482.619694,1772116482.5766315,-231.4453125,-101.07421875,378.41796875,-108.3984375,0.0,0,0
1772116482.619731,1772116482.5805275,-895.99609375,61.5234375,147.4609375,838.8671875,0.0,0,0
1772116482.619782,1772116482.5844235,708.0078125,179.6875,-310.05859375,127.9296875,0.0,0,0
1772116482.619818,1772116482.5883195,-676.26953125,-60.546875,-332.03125,-671.38671875,0.0,0,0
1772116482.6198559,1772116482.5922155,-1000.0,-102.5390625,-8.30078125,-1000.0,0.0,0,0
1772116482.6651552,1772116482.5962405,-195.3125,-41.9921875,400.87890625,-74.70703125,0.0,0,0
1772116482.665289,1772116482.6001365,-962.890625,-60.05859375,162.109375,917.48046875,0.0,0,0
1772116482.665332,1772116482.6040325,936.5234375,-108.88671875,-237.79296875,599.609375,0.0,0,0
1772116482.665374,1772116482.6079285,-343.75,-127.9296875,-371.58203125,-379.39453125,0.0,0,0
1772116482.6654122,1772116482.6118245,-1000.0,-86.9140625,-123.046875,-1000.0,0.0,0,0
1772116482.665449,1772116482.6157203,-174.8046875,-36.1328125,380.859375,-84.9609375,0.0,0,0
1772116482.665486,1772116482.6196163,-999.0234375,-72.265625,169.43359375,934.5703125,0.0,0,0
1772116482.665523,1772116482.6235123,-961.42578125,-132.8125,-227.05078125,880.859375,0.0,0,0
1772116482.665559,1772116482.6274083,-75.68359375,32.71484375,-424.8046875,-122.0703125,0.0,0,0
1772116482.665596,1772116482.6313043,-1000.0,47.36328125,-186.5234375,-1000.0,0.0,0,0
1772116482.6656299,1772116482.6352003,-356.93359375,-90.8203125,339.35546875,-271.97265625,0.0,0,0
1772116482.665678,1772116482.6390963,919.43359375,-72.265625,246.09375,873.046875,0.0,0,0
1772116482.70912,1772116482.6431036,-904.296875,-76.66015625,-87.40234375,-997.0703125,0.0,0,0
1772116482.709248,1772116482.6469996,109.375,-124.51171875,-397.94921875,65.91796875,0.0,0,0
1772116482.70929,1772116482.6508956,-1000.0,-132.32421875,-178.22265625,-1000.0,0.0,0,0
1772116482.709329,1772116482.6547916,-547.8515625,-35.15625,321.2890625,-463.8671875,0.0,0,0
1772116482.709367,1772116482.6586878,825.1953125,-6.8359375,298.33984375,757.32421875,0.0,0,0
1772116482.709404,1772116482.6625838,-861.81640625,-37.59765625,11.71875,-979.98046875,0.0,0,0
1772116482.709441,1772116482.6664798,187.5,-119.140625,-375.9765625,109.375,0.0,0,0
1772116482.7094772,1772116482.6703758,-1000.0,0.9765625,-179.19921875,-1000.0,0.0,0,0
1772116482.709524,1772116482.6742718,-820.3125,196.2890625,256.34765625,-779.78515625,0.0,0,0
1772116482.7095602,1772116482.6781678,540.0390625,20.99609375,324.21875,483.3984375,0.0,0,0
1772116482.709596,1772116482.6820638,-806.15234375,-63.4765625,76.171875,986.328125,0.0,0,0
1772116482.709632,1772116482.6859598,152.34375,-67.3828125,-394.04296875,13.671875,0.0,0,0
1772116482.767647,1772116482.6899657,-1000.0,-77.63671875,-204.58984375,-998.53515625,0.0,0,0
1772116482.7678049,1772116482.693862,-1000.0,-58.59375,218.26171875,-1000.0,0.0,0,0
1772116482.767862,1772116482.697758,201.171875,-37.59765625,373.53515625,196.2890625,0.0,0,0
1772116482.767925,1772116482.701654,-767.08984375,-40.52734375,125.48828125,-979.98046875,0.0,0,0
1772116482.767979,1772116482.70555,222.65625,-89.35546875,-395.99609375,50.29296875,0.0,0,0
1772116482.768031,1772116482.709446,-1000.0,-103.515625,-235.3515625,-946.77734375,0.0,0,0
1772116482.768082,1772116482.713342,-1000.0,-104.98046875,163.57421875,-1000.0,0.0,0,0
1772116482.768141,1772116482.717238,-21.484375,133.30078125,376.953125,-4.8828125,0.0,0,0
1772116482.7681909,1772116482.721134,-788.57421875,146.97265625,153.3203125,-985.83984375,0.0,0,0
1772116482.768241,1772116482.72503,414.0625,-128.90625,-345.703125,183.59375,0.0,0,0
1772116482.768291,1772116482.728926,-906.73828125,-121.09375,-287.59765625,-859.86328125,0.0,0,0
1772116482.7683399,1772116482.732822,-1000.0,-83.49609375,76.171875,-1000.0,0.0,0,0
1772116482.799647,1772116482.7368064,-195.3125,-67.3828125,400.390625,-173.33984375,0.0,0,0
1772116482.7997491,1772116482.7407026,-872.0703125,-83.984375,147.94921875,989.74609375,0.0,0,0
1772116482.7999868,1772116482.7445986,656.25,-102.5390625,-313.96484375,438.96484375,0.0,0,0
1772116482.800046,1772116482.7484946,-727.05078125,-97.65625,-329.1015625,-683.10546875,0.0,0,0
1772116482.8000991,1772116482.7523906,-1000.0,-88.37890625,-25.390625,-1000.0,0.0,0,0
1772116482.800149,1772116482.7562866,-204.1015625,-72.75390625,409.66796875,-188.96484375,0.0,0,0
1772116482.800201,1772116482.7601826,-945.3125,12.6953125,193.359375,-979.00390625,0.0,0,0
1772116482.80025,1772116482.7640786,880.37109375,93.75,-286.1328125,778.3203125,0.0,0,0
1772116482.8003001,1772116482.7679749,-435.05859375,-75.1953125,-421.38671875,-429.19921875,0.0,0,0
1772116482.800368,1772116482.7718709,-1000.0,-121.58203125,-107.91015625,-1000.0,0.0,0,0
1772116482.800417,1772116482.7757668,-175.29296875,19.04296875,392.08984375,-185.05859375,0.0,0,0
1772116482.800467,1772116482.7796628,-998.046875,10.25390625,200.1953125,990.234375,0.0,0,0
1772116482.844508,1772116482.7836387,-965.8203125,-93.75,-187.01171875,971.19140625,0.0,0,0
1772116482.8446531,1772116482.7875347,-102.05078125,-132.32421875,-394.53125,-112.3046875,0.0,0,0
1772116482.844699,1772116482.7914307,-1000.0,-102.5390625,-140.13671875,-1000.0,0.0,0,0
1772116482.8447418,1772116482.7953267,-309.08203125,-22.94921875,373.53515625,-357.91015625,0.0,0,0
1772116482.844785,1772116482.799223,939.94140625,-33.69140625,239.2578125,920.8984375,0.0,0,0
1772116482.8448231,1772116482.803119,-913.0859375,-100.09765625,-86.9140625,-920.41015625,0.0,0,0
1772116482.844861,1772116482.807015,99.12109375,72.75390625,-387.6953125,84.47265625,0.0,0,0
1772116482.8448992,1772116482.810911,-1000.0,100.5859375,-191.40625,-1000.0,0.0,0,0
1772116482.844935,1772116482.814807,-509.27734375,-64.453125,323.73046875,-549.31640625,0.0,0,0
1772116482.8449721,1772116482.8187032,847.65625,-39.0625,305.6640625,816.40625,0.0,0,0
1772116482.845008,1772116482.8225992,-870.1171875,-53.22265625,-9.765625,-872.0703125,0.0,0,0
1772116482.845044,1772116482.8264952,195.3125,-104.98046875,-415.52734375,184.08203125,0.0,0,0
1772116482.904355,1772116482.8304594,-1000.0,-106.4453125,-211.42578125,-1000.0,0.0,0,0
1772116482.9044821,1772116482.8343556,-767.08984375,-32.2265625,270.5078125,-813.96484375,0.0,0,0
1772116482.904524,1772116482.8382516,608.88671875,-12.20703125,352.05078125,547.8515625,0.0,0,0
1772116482.904574,1772116482.8421476,-817.87109375,-47.8515625,81.0546875,-835.44921875,0.0,0,0
1772116482.904612,1772116482.8460436,157.2265625,-118.65234375,-415.0390625,141.6015625,0.0,0,0
1772116482.90465,1772116482.8499398,-1000.0,-0.48828125,-192.3828125,-1000.0,0.0,0,0
1772116482.9046872,1772116482.8538358,-997.0703125,212.40234375,243.65234375,-1000.0,0.0,0,0
1772116482.904724,1772116482.8577318,252.9296875,34.66796875,344.7265625,208.0078125,0.0,0,0
1772116482.904761,1772116482.8616278,-771.97265625,-78.125,110.3515625,-767.08984375,0.0,0,0
1772116482.904809,1772116482.865524,179.19921875,-65.4296875,-425.29296875,200.1953125,0.0,0,0
1772116482.904851,1772116482.86942,-1000.0,-84.47265625,-280.76171875,-1000.0,0.0,0,0
1772116482.9049149,1772116482.873316,-1000.0,-78.125,147.4609375,-1000.0,0.0,0,0
1772116482.950188,1772116482.8773582,-9.765625,-58.59375,349.609375,-22.94921875,0.0,0,0
1772116482.950339,1772116482.8812544,-782.2265625,-45.8984375,117.67578125,-786.1328125,0.0,0,0
1772116482.950399,1772116482.8851504,364.74609375,-93.26171875,-401.85546875,395.99609375,0.0,0,0
1772116482.950458,1772116482.8890464,-933.59375,-112.3046875,-324.70703125,-917.96875,0.0,0,0
1772116482.950498,1772116482.8929427,-1000.0,-71.2890625,73.73046875,-1000.0,0.0,0,0
1772116482.950536,1772116482.8968387,-181.640625,5.37109375,415.0390625,-189.94140625,0.0,0,0
1772116482.950573,1772116482.9007347,-842.28515625,-20.5078125,166.50390625,-860.3515625,0.0,0,0
1772116482.950621,1772116482.904631,553.7109375,-114.74609375,-377.44140625,617.67578125,0.0,0,0
1772116482.9506571,1772116482.908527,-830.56640625,-101.07421875,-390.625,-767.08984375,0.0,0,0
1772116482.9507022,1772116482.912423,-1000.0,67.3828125,-32.2265625,-1000.0,0.0,0,0
1772116482.950737,1772116482.9163191,-216.30859375,72.75390625,393.5546875,-207.03125,0.0,0,0
1772116482.950773,1772116482.9202151,-925.29296875,-48.33984375,181.640625,-940.91796875,0.0,0,0
1772116482.9939551,1772116482.9242394,810.546875,-61.03515625,-288.0859375,867.67578125,0.0,0,0
1772116482.994047,1772116482.9281354,-540.0390625,-98.14453125,-429.19921875,-454.1015625,0.0,0,0
1772116482.994103,1772116482.9320316,-1000.0,-95.703125,-121.09375,-1000.0,0.0,0,0
1772116482.994153,1772116482.9359276,-182.12890625,-22.4609375,422.8515625,-176.26953125,0.0,0,0
1772116482.9942038,1772116482.9398236,-987.3046875,4.8828125,238.28125,-995.1171875,0.0,0,0
1772116482.994255,1772116482.9437199,-993.65234375,-31.25,-168.9453125,-969.7265625,0.0,0,0
1772116482.994306,1772116482.9476159,-193.359375,-83.984375,-415.0390625,-122.0703125,0.0,0,0
1772116482.994358,1772116482.951512,-1000.0,-123.53515625,-212.40234375,-1000.0,0.0,0,0
1772116482.994406,1772116482.955408,-287.59765625,110.83984375,362.79296875,-298.828125,0.0,0,0
1772116482.994457,1772116482.959304,954.58984375,268.06640625,240.234375,946.2890625,0.0,0,0
1772116482.994506,1772116482.9632003,-930.17578125,-19.04296875,-148.4375,-918.45703125,0.0,0,0
1772116482.994557,1772116482.9670963,3.41796875,-115.234375,-454.1015625,67.87109375,0.0,0,0
1772116483.039507,1772116482.9711127,-1000.0,-73.73046875,-241.69921875,-1000.0,0.0,0,0
1772116483.039629,1772116482.9750087,-487.79296875,-31.73828125,329.1015625,-498.53515625,0.0,0,0
1772116483.039707,1772116482.978905,849.609375,-33.69140625,326.66015625,849.609375,0.0,0,0
1772116483.039765,1772116482.982801,-873.046875,-73.73046875,-38.0859375,-870.60546875,0.0,0,0
1772116483.039805,1772116482.9866972,176.26953125,-92.7734375,-477.05078125,193.84765625,0.0,0,0
1772116483.039843,1772116482.9905932,-1000.0,-72.75390625,-232.421875,-1000.0,0.0,0,0
1772116483.03988,1772116482.9944894,-738.28125,-30.2734375,288.57421875,-749.51171875,0.0,0,0
1772116483.039926,1772116482.9983854,641.6015625,-39.0625,355.46875,627.9296875,0.0,0,0
1772116483.0399628,1772116483.0022817,-824.21875,175.78125,77.1484375,-821.2890625,0.0,0,0
1772116483.039999,1772116483.0061777,165.52734375,131.8359375,-454.1015625,162.59765625,0.0,0,0
1772116483.0400362,1772116483.010074,-1000.0,-112.3046875,-259.27734375,-1000.0,0.0,0,0
1772116483.040071,1772116483.01397,-944.3359375,-38.57421875,236.81640625,-965.8203125,0.0,0,0
1772116483.084436,1772116483.0179756,354.00390625,-6.34765625,398.4375,307.12890625,0.0,0,0
1772116483.08455,1772116483.0218716,-780.76171875,-45.41015625,154.296875,-776.3671875,0.0,0,0
1772116483.084578,1772116483.0257678,141.11328125,-95.21484375,-425.78125,177.24609375,0.0,0,0
1772116483.0846028,1772116483.0296638,-1000.0,-59.5703125,-279.296875,-1000.0,0.0,0,0
1772116483.0846279,1772116483.03356,-1000.0,-9.765625,176.26953125,-1000.0,0.0,0,0
1772116483.084652,1772116483.037456,54.6875,28.80859375,435.546875,26.3671875,0.0,0,0
1772116483.084675,1772116483.0413523,-770.5078125,-8.7890625,213.8671875,-777.83203125,0.0,0,0
1772116483.084704,1772116483.0452485,313.96484375,92.7734375,-390.13671875,359.86328125,0.0,0,0
1772116483.084728,1772116483.0491445,-956.54296875,287.109375,-367.67578125,-934.08203125,0.0,0,0
1772116483.0847511,1772116483.0530407,-1000.0,68.359375,38.57421875,-1000.0,0.0,0,0
1772116483.084773,1772116483.0569367,-138.671875,-9.27734375,404.296875,-159.66796875,0.0,0,0
1772116483.084796,1772116483.060833,-822.75390625,43.45703125,180.6640625,-840.8203125,0.0,0,0
1772116483.1299179,1772116483.0648296,513.18359375,-4.8828125,-371.09375,565.91796875,0.0,0,0
1772116483.130037,1772116483.0687258,-858.3984375,-32.2265625,-412.109375,-811.03515625,0.0,0,0
1772116483.130079,1772116483.0726218,-1000.0,6.34765625,-38.57421875,-1000.0,0.0,0,0
1772116483.130118,1772116483.076518,-221.19140625,62.98828125,425.29296875,-214.35546875,0.0,0,0
1772116483.1301959,1772116483.0804143,-916.50390625,59.5703125,204.1015625,-927.24609375,0.0,0,0
1772116483.1303449,1772116483.0843103,780.76171875,17.578125,-277.83203125,819.3359375,0.0,0,0
1772116483.130709,1772116483.0882065,-581.0546875,-40.52734375,-438.96484375,-524.4140625,0.0,0,0
1772116483.130919,1772116483.0921028,-1000.0,215.8203125,-157.2265625,-1000.0,0.0,0,0
1772116483.1309571,1772116483.0959988,-185.546875,287.109375,432.6171875,-182.6171875,0.0,0,0
1772116483.131017,1772116483.099895,-980.95703125,13.18359375,238.28125,-984.375,0.0,0,0
1772116483.131055,1772116483.103791,989.74609375,-15.625,-230.95703125,-997.55859375,0.0,0,0
1772116483.1310852,1772116483.1076872,-232.421875,-17.578125,-482.91015625,-196.77734375,0.0,0,0
1772116483.174474,1772116483.1116745,-1000.0,-16.11328125,-226.07421875,-1000.0,0.0,0,0
1772116483.174614,1772116483.1155708,-243.1640625,12.20703125,409.66796875,-275.87890625,0.0,0,0
1772116483.174657,1772116483.1194668,971.6796875,30.2734375,305.17578125,958.49609375,0.0,0,0
1772116483.174696,1772116483.123363,-937.98828125,7.8125,-106.93359375,-929.6875,0.0,0,0
1772116483.174734,1772116483.1272593,-6.8359375,-33.69140625,-489.74609375,11.71875,0.0,0,0
1772116483.1747699,1772116483.1311553,-1000.0,-68.359375,-264.6484375,-1000.0,0.0,0,0
1772116483.174806,1772116483.1350515,-427.734375,113.76953125,404.296875,-454.58984375,0.0,0,0
1772116483.1748421,1772116483.1389477,883.7890625,311.5234375,376.46484375,870.60546875,0.0,0,0
1772116483.174879,1772116483.1428437,-885.7421875,43.9453125,-26.85546875,-879.39453125,0.0,0,0
1772116483.174934,1772116483.14674,174.31640625,-99.12109375,-510.7421875,180.17578125,0.0,0,0
1772116483.1749701,1772116483.1506362,-1000.0,-26.3671875,-323.2421875,-1000.0,0.0,0,0
1772116483.175026,1772116483.1545322,-651.3671875,16.6015625,311.03515625,-693.84765625,0.0,0,0
1772116483.220042,1772116483.1585093,737.3046875,12.6953125,431.640625,691.89453125,0.0,0,0
1772116483.2202082,1772116483.1624053,-842.7734375,-22.4609375,102.5390625,-832.51953125,0.0,0,0
1772116483.220278,1772116483.1663015,173.828125,-80.078125,-472.16796875,169.43359375,0.0,0,0
1772116483.22033,1772116483.1701977,-1000.0,-84.9609375,-318.84765625,-1000.0,0.0,0,0
1772116483.2204218,1772116483.1740937,-902.34375,-20.5078125,223.14453125,-930.6640625,0.0,0,0
1772116483.220532,1772116483.17799,418.9453125,-32.71484375,469.7265625,374.51171875,0.0,0,0
1772116483.220612,1772116483.1818862,-789.55078125,160.64453125,199.70703125,-783.203125,0.0,0,0
1772116483.220671,1772116483.1857824,144.53125,142.08984375,-503.90625,142.578125,0.0,0,0
1772116483.220725,1772116483.1896784,-1000.0,-114.2578125,-371.58203125,-1000.0,0.0,0,0
1772116483.220777,1772116483.1935747,-1000.0,-59.5703125,151.3671875,-1000.0,0.0,0,0
1772116483.2208278,1772116483.197471,103.515625,-16.6015625,458.984375,74.21875,0.0,0,0
1772116483.2208772,1772116483.2013671,-767.08984375,-46.875,252.9296875,-768.06640625,0.0,0,0
1772116483.279249,1772116483.205336,288.0859375,-134.765625,-433.59375,302.24609375,0.0,0,0
1772116483.2793941,1772116483.2092323,-969.7265625,-130.859375,-416.9921875,-962.40234375,0.0,0,0
1772116483.2794502,1772116483.2131286,-1000.0,-45.41015625,48.33984375,-1000.0,0.0,0,0
1772116483.279501,1772116483.2170248,-89.84375,-15.625,472.65625,-122.55859375,0.0,0,0
1772116483.279551,1772116483.2209208,-810.05859375,-68.84765625,288.0859375,-816.89453125,0.0,0,0
1772116483.279605,1772116483.224817,488.76953125,-16.6015625,-343.26171875,500.0,0.0,0,0
1772116483.279655,1772116483.2287133,-866.2109375,140.625,-464.84375,-864.74609375,0.0,0,0
1772116483.279716,1772116483.2326095,-1000.0,-4.8828125,-108.3984375,-1000.0,0.0,0,0
1772116483.2797859,1772116483.2365055,-226.07421875,-69.82421875,483.88671875,-222.65625,0.0,0,0
1772116483.279835,1772116483.2404017,-907.2265625,-26.85546875,383.30078125,-913.57421875,0.0,0,0
1772116483.279906,1772116483.244298,747.0703125,-85.44921875,-224.609375,773.92578125,0.0,0,0
1772116483.279985,1772116483.2481942,-625.0,-126.46484375,-544.43359375,-591.30859375,0.0,0,0
1772116483.324178,1772116483.2522278,-1000.0,-96.6796875,-236.81640625,-1000.0,0.0,0,0
1772116483.32428,1772116483.256124,-190.4296875,-22.4609375,491.69921875,-186.03515625,0.0,0,0
1772116483.324338,1772116483.26002,-972.65625,-13.671875,373.53515625,-979.00390625,0.0,0,0
1772116483.3243918,1772116483.2639163,964.84375,-71.2890625,-168.9453125,986.81640625,0.0,0,0
1772116483.324447,1772116483.2678125,-285.64453125,-107.91015625,-565.91796875,-240.72265625,0.0,0,0
1772116483.3245,1772116483.2717087,-1000.0,-45.41015625,-327.63671875,-1000.0,0.0,0,0
1772116483.324548,1772116483.275605,-208.0078125,13.671875,458.0078125,-234.86328125,0.0,0,0
1772116483.324599,1772116483.2795012,986.81640625,-47.8515625,392.578125,976.07421875,0.0,0,0
1772116483.3246489,1772116483.2833974,-950.1953125,-93.26171875,-90.33203125,-940.91796875,0.0,0,0
1772116483.324707,1772116483.2872934,-42.48046875,10.7421875,-562.5,-15.13671875,0.0,0,0
1772116483.324757,1772116483.2911897,-1000.0,3.41796875,-399.4140625,-1000.0,0.0,0,0
1772116483.324834,1772116483.295086,-394.53125,-59.08203125,365.72265625,-427.734375,0.0,0,0
1772116483.3700218,1772116483.2991111,899.90234375,-39.55078125,457.51953125,883.7890625,0.0,0,0
1772116483.370181,1772116483.3030074,-894.53125,-65.4296875,50.78125,-885.25390625,0.0,0,0
1772116483.370242,1772116483.3069036,145.01953125,-109.86328125,-537.109375,168.9453125,0.0,0,0
1772116483.3702972,1772116483.3107998,-1000.0,-115.72265625,-401.3671875,-1000.0,0.0,0,0
1772116483.370359,1772116483.314696,-603.02734375,-46.875,308.59375,-657.71484375,0.0,0,0
1772116483.3704169,1772116483.3185923,781.73828125,-26.85546875,511.23046875,729.4921875,0.0,0,0
1772116483.3704698,1772116483.3224885,-851.5625,-57.6171875,181.15234375,-839.84375,0.0,0,0
1772116483.370521,1772116483.3263848,179.6875,-152.83203125,-543.9453125,172.8515625,0.0,0,0
1772116483.370579,1772116483.330281,-1000.0,-7.8125,-429.19921875,-1000.0,0.0,0,0
1772116483.370637,1772116483.3341773,-870.60546875,201.171875,220.703125,-912.59765625,0.0,0,0
1772116483.370686,1772116483.3380735,468.26171875,24.90234375,530.76171875,403.80859375,0.0,0,0
1772116483.370739,1772116483.3419697,-795.41015625,-63.96484375,287.59765625,-786.62109375,0.0,0,0
1772116483.414155,1772116483.345983,145.99609375,-89.35546875,-488.76953125,143.5546875,0.0,0,0
1772116483.4142652,1772116483.3498793,-1000.0,-84.9609375,-420.41015625,-1000.0,0.0,0,0
1772116483.414321,1772116483.3537755,-1000.0,-57.12890625,134.27734375,-1000.0,0.0,0,0
1772116483.414371,1772116483.3576717,126.46484375,-37.109375,514.16015625,85.44921875,0.0,0,0
1772116483.4144242,1772116483.361568,-764.6484375,-33.69140625,332.51953125,-767.08984375,0.0,0,0
1772116483.414476,1772116483.3654642,247.0703125,-74.70703125,-422.36328125,287.59765625,0.0,0,0
1772116483.414528,1772116483.3693604,-990.72265625,-101.07421875,-472.65625,-969.7265625,0.0,0,0
1772116483.414578,1772116483.3732567,-1000.0,-99.12109375,15.13671875,-1000.0,0.0,0,0
1772116483.4146361,1772116483.377153,-55.6640625,151.85546875,528.80859375,-105.46875,0.0,0,0
1772116483.414687,1772116483.3810492,-795.41015625,142.578125,371.58203125,-811.03515625,0.0,0,0
1772116483.414737,1772116483.3849454,427.734375,-134.27734375,-358.3984375,481.93359375,0.0,0,0
1772116483.414816,1772116483.3888416,-899.90234375,-119.140625,-518.06640625,-874.0234375,0.0,0,0
1772116483.459306,1772116483.3928475,-1000.0,-70.80078125,-116.2109375,-1000.0,0.0,0,0
1772116483.4594402,1772116483.3967438,-227.5390625,-41.50390625,484.375,-221.6796875,0.0,0,0
1772116483.4594848,1772116483.4006402,-884.765625,-50.29296875,361.328125,-904.296875,0.0,0,0
1772116483.459522,1772116483.4045365,675.78125,-89.84375,-288.0859375,745.60546875,0.0,0,0
1772116483.4595609,1772116483.4084327,-713.8671875,-98.14453125,-549.8046875,-626.46484375,0.0,0,0
1772116483.4596,1772116483.412329,-1000.0,-70.3125,-193.84765625,-1000.0,0.0,0,0
1772116483.459635,1772116483.4162252,-200.1953125,-72.75390625,492.67578125,-190.91796875,0.0,0,0
1772116483.4596748,1772116483.4201214,-954.1015625,64.453125,335.44921875,-968.26171875,0.0,0,0
1772116483.459712,1772116483.4240177,908.69140625,181.15234375,-234.375,954.58984375,0.0,0,0
1772116483.459748,1772116483.427914,-391.6015625,-53.22265625,-591.796875,-301.26953125,0.0,0,0
1772116483.459902,1772116483.4318101,-1000.0,-100.09765625,-319.82421875,-1000.0,0.0,0,0
1772116483.4599411,1772116483.4357064,-173.828125,-4.39453125,447.75390625,-214.35546875,0.0,0,0
1772116483.504918,1772116483.4396992,-999.0234375,-21.97265625,349.609375,984.375,0.0,0,0
1772116483.505017,1772116483.4435954,-963.37890625,-62.01171875,-104.00390625,-948.2421875,0.0,0,0
1772116483.505077,1772116483.447492,-84.47265625,-83.49609375,-516.6015625,-37.59765625,0.0,0,0
1772116483.50514,1772116483.4513881,-1000.0,-76.66015625,-368.65234375,-1000.0,0.0,0,0
1772116483.5051892,1772116483.4552844,-354.4921875,-17.08984375,374.51171875,-400.87890625,0.0,0,0
1772116483.505245,1772116483.4591806,920.41015625,-20.01953125,413.0859375,897.4609375,0.0,0,0
1772116483.505297,1772116483.4630768,-904.78515625,-101.5625,-28.3203125,-892.08984375,0.0,0,0
1772116483.505347,1772116483.466973,105.46875,51.7578125,-527.83203125,145.99609375,0.0,0,0
1772116483.505397,1772116483.4708693,-1000.0,99.12109375,-347.65625,-1000.0,0.0,0,0
1772116483.505445,1772116483.4747658,-548.828125,-20.99609375,313.4765625,-613.28125,0.0,0,0
1772116483.505495,1772116483.478662,823.73046875,20.5078125,435.05859375,768.06640625,0.0,0,0
1772116483.5055628,1772116483.4825583,-861.81640625,11.23046875,106.4453125,-848.6328125,0.0,0,0
1772116483.549154,1772116483.4865437,187.5,-42.48046875,-482.91015625,180.17578125,0.0,0,0
1772116483.549272,1772116483.4904401,-1000.0,-62.5,-342.7734375,-1000.0,0.0,0,0
1772116483.5493262,1772116483.4943364,-817.3828125,-2.9296875,250.48828125,-865.72265625,0.0,0,0
1772116483.549369,1772116483.4982326,543.45703125,30.76171875,433.10546875,472.16796875,0.0,0,0
1772116483.549409,1772116483.5021288,-806.640625,3.41796875,144.53125,-796.38671875,0.0,0,0
1772116483.5494468,1772116483.506025,151.85546875,-81.54296875,-443.359375,148.4375,0.0,0,0
1772116483.549484,1772116483.5099216,-1000.0,20.01953125,-277.83203125,-1000.0,0.0,0,0
1772116483.5495198,1772116483.5138178,-1000.0,207.03125,192.87109375,-1000.0,0.0,0,0
1772116483.549563,1772116483.517714,192.87109375,52.24609375,401.85546875,147.4609375,0.0,0,0
1772116483.549599,1772116483.5216103,-767.08984375,-50.29296875,179.19921875,-766.6015625,0.0,0,0
1772116483.5496361,1772116483.5255065,210.44921875,-66.40625,-424.31640625,245.60546875,0.0,0,0
1772116483.5496929,1772116483.529403,-1000.0,-66.40625,-320.80078125,-988.28125,0.0,0,0
1772116483.59453,1772116483.533383,-1000.0,-31.25,115.234375,-1000.0,0.0,0,0
1772116483.594641,1772116483.5372794,-29.78515625,-5.859375,430.17578125,-64.453125,0.0,0,0
1772116483.594684,1772116483.5411756,-788.0859375,20.5078125,258.30078125,-798.33984375,0.0,0,0
1772116483.5947242,1772116483.5450718,400.87890625,-5.859375,-323.73046875,436.5234375,0.0,0,0
1772116483.594762,1772116483.548968,-914.0625,-29.78515625,-324.70703125,-896.484375,0.0,0,0
1772116483.594806,1772116483.5528646,-1000.0,-32.71484375,74.21875,-1000.0,0.0,0,0
1772116483.5948448,1772116483.5567608,-205.56640625,187.98828125,436.5234375,-215.33203125,0.0,0,0
1772116483.594885,1772116483.560657,-867.1875,209.47265625,218.26171875,-883.30078125,0.0,0,0
1772116483.594922,1772116483.5645533,629.39453125,-62.98828125,-284.1796875,679.6875,0.0,0,0
1772116483.5949702,1772116483.5684497,-758.30078125,-87.890625,-390.625,-703.61328125,0.0,0,0
1772116483.595026,1772116483.572346,-1000.0,-50.29296875,-57.12890625,-1000.0,0.0,0,0
1772116483.59507,1772116483.5762422,-206.0546875,-8.7890625,413.57421875,-199.21875,0.0,0,0
1772116483.654016,1772116483.5802076,-943.359375,-19.04296875,190.91796875,-955.078125,0.0,0,0
1772116483.654143,1772116483.5841038,873.046875,-62.98828125,-246.09375,912.59765625,0.0,0,0
1772116483.654187,1772116483.588,-446.2890625,-77.1484375,-403.80859375,-379.8828125,0.0,0,0
1772116483.654229,1772116483.5918965,-1000.0,-49.31640625,-135.7421875,-1000.0,0.0,0,0
1772116483.6542678,1772116483.5957928,-176.7578125,-39.0625,401.3671875,-187.5,0.0,0,0
1772116483.6543071,1772116483.599689,-995.1171875,33.203125,218.26171875,997.0703125,0.0,0,0
1772116483.654345,1772116483.6035855,-972.16796875,151.85546875,-194.3359375,-959.9609375,0.0,0,0
1772116483.6543841,1772116483.6074817,-124.51171875,-40.0390625,-455.078125,-80.56640625,0.0,0,0
1772116483.654424,1772116483.611378,-1000.0,-119.140625,-215.8203125,-1000.0,0.0,0,0
1772116483.654479,1772116483.6152744,-322.75390625,-12.6953125,366.2109375,-343.75,0.0,0,0
1772116483.654516,1772116483.6191707,935.546875,-18.5546875,258.7890625,926.7578125,0.0,0,0
1772116483.6545541,1772116483.623067,-915.0390625,-82.03125,-106.4453125,-906.73828125,0.0,0,0
